#X		#Y		#Wave		#Intensity
20398.596064	-1213.405000	1999.980469	-56.444504
20398.596064	-1213.405000	1999.016602	49.150436
20398.596064	-1213.405000	1998.052734	21.266186
20398.596064	-1213.405000	1997.087891	-148.131683
20398.596064	-1213.405000	1996.123047	-32.803776
20398.596064	-1213.405000	1995.158203	32.676140
20398.596064	-1213.405000	1994.193359	-53.201397
20398.596064	-1213.405000	1993.228516	31.571554
20398.596064	-1213.405000	1992.262695	36.854973
20398.596064	-1213.405000	1991.297852	-17.507132
20398.596064	-1213.405000	1990.332031	-151.264053
20398.596064	-1213.405000	1989.366211	29.069407
20398.596064	-1213.405000	1988.399414	236.345886
20398.596064	-1213.405000	1987.433594	12.944749
20398.596064	-1213.405000	1986.466797	311.254028
20398.596064	-1213.405000	1985.500977	92.485634
20398.596064	-1213.405000	1984.534180	-84.354347
20398.596064	-1213.405000	1983.567383	30.357382
20398.596064	-1213.405000	1982.599609	204.169724
20398.596064	-1213.405000	1981.632813	59.021049
20398.596064	-1213.405000	1980.665039	24.936028
20398.596064	-1213.405000	1979.697266	42.580105
20398.596064	-1213.405000	1978.729492	60.071346
20398.596064	-1213.405000	1977.761719	-58.376602
20398.596064	-1213.405000	1976.792969	-6.586650
20398.596064	-1213.405000	1975.825195	62.328838
20398.596064	-1213.405000	1974.856445	163.174240
20398.596064	-1213.405000	1973.887695	170.113159
20398.596064	-1213.405000	1972.918945	-69.731239
20398.596064	-1213.405000	1971.949219	43.071831
20398.596064	-1213.405000	1970.980469	62.028759
20398.596064	-1213.405000	1970.010742	137.580826
20398.596064	-1213.405000	1969.041016	134.134827
20398.596064	-1213.405000	1968.071289	96.097511
20398.596064	-1213.405000	1967.101563	-45.497513
20398.596064	-1213.405000	1966.130859	24.735346
20398.596064	-1213.405000	1965.161133	8.657428
20398.596064	-1213.405000	1964.190430	189.512970
20398.596064	-1213.405000	1963.219727	104.325813
20398.596064	-1213.405000	1962.249023	265.264771
20398.596064	-1213.405000	1961.277344	17.528069
20398.596064	-1213.405000	1960.306641	1.127600
20398.596064	-1213.405000	1959.334961	186.417755
20398.596064	-1213.405000	1958.363281	2.616551
20398.596064	-1213.405000	1957.391602	-11.472910
20398.596064	-1213.405000	1956.419922	163.729706
20398.596064	-1213.405000	1955.447266	11.852349
20398.596064	-1213.405000	1954.474609	24.673466
20398.596064	-1213.405000	1953.501953	179.986969
20398.596064	-1213.405000	1952.529297	15.790812
20398.596064	-1213.405000	1951.556641	8.845526
20398.596064	-1213.405000	1950.583984	166.432083
20398.596064	-1213.405000	1949.610352	68.542961
20398.596064	-1213.405000	1948.636719	-100.536873
20398.596064	-1213.405000	1947.663086	214.011383
20398.596064	-1213.405000	1946.689453	37.561138
20398.596064	-1213.405000	1945.715820	-207.550400
20398.596064	-1213.405000	1944.741211	123.960724
20398.596064	-1213.405000	1943.767578	187.964600
20398.596064	-1213.405000	1942.792969	151.380356
20398.596064	-1213.405000	1941.818359	107.442780
20398.596064	-1213.405000	1940.842773	-59.064514
20398.596064	-1213.405000	1939.868164	46.556469
20398.596064	-1213.405000	1938.892578	-58.623135
20398.596064	-1213.405000	1937.916992	-29.006502
20398.596064	-1213.405000	1936.941406	29.994860
20398.596064	-1213.405000	1935.965820	49.785786
20398.596064	-1213.405000	1934.990234	214.051315
20398.596064	-1213.405000	1934.013672	226.458405
20398.596064	-1213.405000	1933.037109	33.240269
20398.596064	-1213.405000	1932.060547	187.638412
20398.596064	-1213.405000	1931.083984	263.681366
20398.596064	-1213.405000	1930.107422	38.778469
20398.596064	-1213.405000	1929.129883	7.208725
20398.596064	-1213.405000	1928.153320	0.117531
20398.596064	-1213.405000	1927.175781	56.614422
20398.596064	-1213.405000	1926.198242	117.989777
20398.596064	-1213.405000	1925.219727	-21.074263
20398.596064	-1213.405000	1924.242188	128.296890
20398.596064	-1213.405000	1923.263672	-10.690679
20398.596064	-1213.405000	1922.285156	119.107666
20398.596064	-1213.405000	1921.306641	-39.335762
20398.596064	-1213.405000	1920.328125	4.981603
20398.596064	-1213.405000	1919.349609	-104.517815
20398.596064	-1213.405000	1918.370117	57.000229
20398.596064	-1213.405000	1917.391602	-23.145916
20398.596064	-1213.405000	1916.412109	-49.560799
20398.596064	-1213.405000	1915.431641	-39.351410
20398.596064	-1213.405000	1914.452148	92.835510
20398.596064	-1213.405000	1913.472656	137.195358
20398.596064	-1213.405000	1912.492188	74.270233
20398.596064	-1213.405000	1911.511719	60.146446
20398.596064	-1213.405000	1910.531250	7.048780
20398.596064	-1213.405000	1909.550781	-119.119324
20398.596064	-1213.405000	1908.569336	-74.662514
20398.596064	-1213.405000	1907.588867	33.134224
20398.596064	-1213.405000	1906.607422	-92.907883
20398.596064	-1213.405000	1905.625977	2.717060
20398.596064	-1213.405000	1904.644531	-45.321083
20398.596064	-1213.405000	1903.662109	-122.533089
20398.596064	-1213.405000	1902.680664	-116.947472
20398.596064	-1213.405000	1901.698242	3.023617
20398.596064	-1213.405000	1900.715820	13.489331
20398.596064	-1213.405000	1899.733398	2.078362
20398.596064	-1213.405000	1898.750000	151.200775
20398.596064	-1213.405000	1897.767578	61.997623
20398.596064	-1213.405000	1896.784180	43.347836
20398.596064	-1213.405000	1895.800781	134.100540
20398.596064	-1213.405000	1894.817383	18.272978
20398.596064	-1213.405000	1893.833984	65.297379
20398.596064	-1213.405000	1892.850586	-150.037582
20398.596064	-1213.405000	1891.866211	-39.817028
20398.596064	-1213.405000	1890.881836	14.526718
20398.596064	-1213.405000	1889.897461	-200.628876
20398.596064	-1213.405000	1888.913086	-80.703270
20398.596064	-1213.405000	1887.927734	97.441078
20398.596064	-1213.405000	1886.943359	40.158436
20398.596064	-1213.405000	1885.958008	-128.686798
20398.596064	-1213.405000	1884.972656	-142.216644
20398.596064	-1213.405000	1883.987305	-114.501015
20398.596064	-1213.405000	1883.001953	61.123543
20398.596064	-1213.405000	1882.015625	-153.609787
20398.596064	-1213.405000	1881.029297	-24.073130
20398.596064	-1213.405000	1880.042969	3.643985
20398.596064	-1213.405000	1879.056641	67.704948
20398.596064	-1213.405000	1878.070313	170.508484
20398.596064	-1213.405000	1877.083984	-99.702957
20398.596064	-1213.405000	1876.096680	-171.240158
20398.596064	-1213.405000	1875.109375	130.101761
20398.596064	-1213.405000	1874.122070	24.671659
20398.596064	-1213.405000	1873.134766	-51.670872
20398.596064	-1213.405000	1872.146484	22.042648
20398.596064	-1213.405000	1871.159180	78.795815
20398.596064	-1213.405000	1870.170898	33.941372
20398.596064	-1213.405000	1869.182617	-143.902832
20398.596064	-1213.405000	1868.194336	82.110054
20398.596064	-1213.405000	1867.205078	-115.014420
20398.596064	-1213.405000	1866.216797	-12.359135
20398.596064	-1213.405000	1865.227539	-219.059662
20398.596064	-1213.405000	1864.238281	26.123873
20398.596064	-1213.405000	1863.249023	152.845901
20398.596064	-1213.405000	1862.259766	69.396576
20398.596064	-1213.405000	1861.269531	82.563637
20398.596064	-1213.405000	1860.279297	100.547852
20398.596064	-1213.405000	1859.290039	111.277580
20398.596064	-1213.405000	1858.298828	-34.871620
20398.596064	-1213.405000	1857.308594	123.053024
20398.596064	-1213.405000	1856.318359	44.487629
20398.596064	-1213.405000	1855.327148	-19.585815
20398.596064	-1213.405000	1854.335938	130.982712
20398.596064	-1213.405000	1853.344727	4.205998
20398.596064	-1213.405000	1852.353516	94.423973
20398.596064	-1213.405000	1851.362305	225.566422
20398.596064	-1213.405000	1850.370117	233.750000
20398.596064	-1213.405000	1849.377930	208.184372
20398.596064	-1213.405000	1848.385742	79.031731
20398.596064	-1213.405000	1847.393555	22.163233
20398.596064	-1213.405000	1846.401367	25.495974
20398.596064	-1213.405000	1845.408203	64.920959
20398.596064	-1213.405000	1844.415039	-23.260302
20398.596064	-1213.405000	1843.421875	109.974747
20398.596064	-1213.405000	1842.428711	-23.941191
20398.596064	-1213.405000	1841.435547	193.399200
20398.596064	-1213.405000	1840.441406	88.335091
20398.596064	-1213.405000	1839.448242	-115.309616
20398.596064	-1213.405000	1838.454102	106.660851
20398.596064	-1213.405000	1837.459961	1.596992
20398.596064	-1213.405000	1836.464844	228.215805
20398.596064	-1213.405000	1835.470703	99.084587
20398.596064	-1213.405000	1834.475586	-6.001485
20398.596064	-1213.405000	1833.480469	66.673454
20398.596064	-1213.405000	1832.485352	64.840965
20398.596064	-1213.405000	1831.490234	-64.282013
20398.596064	-1213.405000	1830.495117	133.104462
20398.596064	-1213.405000	1829.499023	18.352949
20398.596064	-1213.405000	1828.502930	95.593536
20398.596064	-1213.405000	1827.506836	247.150604
20398.596064	-1213.405000	1826.510742	134.737198
20398.596064	-1213.405000	1825.513672	238.188202
20398.596064	-1213.405000	1824.517578	176.101913
20398.596064	-1213.405000	1823.520508	82.834412
20398.596064	-1213.405000	1822.523438	150.166428
20398.596064	-1213.405000	1821.526367	119.171394
20398.596064	-1213.405000	1820.529297	-36.452244
20398.596064	-1213.405000	1819.531250	85.843109
20398.596064	-1213.405000	1818.533203	-2.731974
20398.596064	-1213.405000	1817.535156	59.556145
20398.596064	-1213.405000	1816.537109	191.213562
20398.596064	-1213.405000	1815.539063	66.629189
20398.596064	-1213.405000	1814.540039	111.981316
20398.596064	-1213.405000	1813.541992	28.048889
20398.596064	-1213.405000	1812.542969	-31.973934
20398.596064	-1213.405000	1811.543945	228.520264
20398.596064	-1213.405000	1810.543945	53.587563
20398.596064	-1213.405000	1809.544922	-66.329613
20398.596064	-1213.405000	1808.544922	45.650063
20398.596064	-1213.405000	1807.544922	-69.540558
20398.596064	-1213.405000	1806.544922	-53.297634
20398.596064	-1213.405000	1805.544922	5.897743
20398.596064	-1213.405000	1804.544922	67.406281
20398.596064	-1213.405000	1803.543945	64.350174
20398.596064	-1213.405000	1802.542969	49.300251
20398.596064	-1213.405000	1801.541992	67.628006
20398.596064	-1213.405000	1800.541016	143.186371
20398.596064	-1213.405000	1799.539063	75.457718
20398.596064	-1213.405000	1798.538086	227.233383
20398.596064	-1213.405000	1797.536133	56.814579
20398.596064	-1213.405000	1796.534180	175.027420
20398.596064	-1213.405000	1795.532227	-57.439182
20398.596064	-1213.405000	1794.529297	129.780746
20398.596064	-1213.405000	1793.527344	95.163681
20398.596064	-1213.405000	1792.524414	-20.540403
20398.596064	-1213.405000	1791.521484	-133.877167
20398.596064	-1213.405000	1790.518555	33.916626
20398.596064	-1213.405000	1789.514648	-100.950546
20398.596064	-1213.405000	1788.511719	180.974030
20398.596064	-1213.405000	1787.507813	-142.111938
20398.596064	-1213.405000	1786.503906	-17.545771
20398.596064	-1213.405000	1785.500000	-12.107140
20398.596064	-1213.405000	1784.496094	-4.354052
20398.596064	-1213.405000	1783.491211	105.647301
20398.596064	-1213.405000	1782.486328	158.446625
20398.596064	-1213.405000	1781.481445	-76.642929
20398.596064	-1213.405000	1780.476563	-166.643204
20398.596064	-1213.405000	1779.471680	-66.462700
20398.596064	-1213.405000	1778.465820	157.225693
20398.596064	-1213.405000	1777.460938	-87.452980
20398.596064	-1213.405000	1776.455078	31.466362
20398.596064	-1213.405000	1775.449219	45.737068
20398.596064	-1213.405000	1774.442383	88.438004
20398.596064	-1213.405000	1773.436523	-18.563992
20398.596064	-1213.405000	1772.429688	45.368530
20398.596064	-1213.405000	1771.422852	75.972626
20398.596064	-1213.405000	1770.416016	-47.786079
20398.596064	-1213.405000	1769.409180	87.106865
20398.596064	-1213.405000	1768.402344	122.227455
20398.596064	-1213.405000	1767.394531	107.445213
20398.596064	-1213.405000	1766.386719	-203.873489
20398.596064	-1213.405000	1765.378906	58.721378
20398.596064	-1213.405000	1764.371094	46.125214
20398.596064	-1213.405000	1763.362305	-54.245789
20398.596064	-1213.405000	1762.354492	113.164261
20398.596064	-1213.405000	1761.345703	29.265947
20398.596064	-1213.405000	1760.336914	-23.870781
20398.596064	-1213.405000	1759.328125	-36.790905
20398.596064	-1213.405000	1758.318359	-4.784548
20398.596064	-1213.405000	1757.308594	38.979214
20398.596064	-1213.405000	1756.299805	103.965363
20398.596064	-1213.405000	1755.290039	-70.197464
20398.596064	-1213.405000	1754.279297	-71.621765
20398.596064	-1213.405000	1753.269531	-129.893906
20398.596064	-1213.405000	1752.258789	93.273560
20398.596064	-1213.405000	1751.249023	-21.908575
20398.596064	-1213.405000	1750.238281	-28.351324
20398.596064	-1213.405000	1749.226563	149.536011
20398.596064	-1213.405000	1748.215820	-147.808807
20398.596064	-1213.405000	1747.204102	-104.810814
20398.596064	-1213.405000	1746.193359	136.578415
20398.596064	-1213.405000	1745.181641	-28.518553
20398.596064	-1213.405000	1744.168945	125.226341
20398.596064	-1213.405000	1743.157227	-9.247423
20398.596064	-1213.405000	1742.144531	-35.138924
20398.596064	-1213.405000	1741.132813	177.327545
20398.596064	-1213.405000	1740.120117	82.829605
20398.596064	-1213.405000	1739.106445	18.967871
20398.596064	-1213.405000	1738.093750	195.702042
20398.596064	-1213.405000	1737.080078	75.096130
20398.596064	-1213.405000	1736.067383	15.786895
20398.596064	-1213.405000	1735.053711	-71.866959
20398.596064	-1213.405000	1734.040039	66.751450
20398.596064	-1213.405000	1733.025391	-79.944229
20398.596064	-1213.405000	1732.011719	159.816132
20398.596064	-1213.405000	1730.997070	156.740372
20398.596064	-1213.405000	1729.982422	2.841204
20398.596064	-1213.405000	1728.967773	157.455841
20398.596064	-1213.405000	1727.952148	-227.282593
20398.596064	-1213.405000	1726.937500	-30.441185
20398.596064	-1213.405000	1725.921875	86.224464
20398.596064	-1213.405000	1724.906250	7.453001
20398.596064	-1213.405000	1723.890625	15.702800
20398.596064	-1213.405000	1722.875000	-303.102905
20398.596064	-1213.405000	1721.858398	46.102291
20398.596064	-1213.405000	1720.841797	-32.868443
20398.596064	-1213.405000	1719.825195	47.999947
20398.596064	-1213.405000	1718.808594	215.745956
20398.596064	-1213.405000	1717.791992	77.842690
20398.596064	-1213.405000	1716.774414	-29.531382
20398.596064	-1213.405000	1715.756836	107.396233
20398.596064	-1213.405000	1714.739258	319.372101
20398.596064	-1213.405000	1713.721680	-65.282051
20398.596064	-1213.405000	1712.704102	-109.401649
20398.596064	-1213.405000	1711.685547	31.877108
20398.596064	-1213.405000	1710.667969	-204.821381
20398.596064	-1213.405000	1709.649414	-44.926292
20398.596064	-1213.405000	1708.630859	166.463272
20398.596064	-1213.405000	1707.611328	79.804672
20398.596064	-1213.405000	1706.592773	61.138809
20398.596064	-1213.405000	1705.573242	-105.305672
20398.596064	-1213.405000	1704.553711	9.574512
20398.596064	-1213.405000	1703.534180	-74.875351
20398.596064	-1213.405000	1702.513672	114.823387
20398.596064	-1213.405000	1701.494141	88.846947
20398.596064	-1213.405000	1700.473633	90.927422
20398.596064	-1213.405000	1699.453125	6.296317
20398.596064	-1213.405000	1698.432617	41.065571
20398.596064	-1213.405000	1697.412109	50.014122
20398.596064	-1213.405000	1696.390625	-74.522194
20398.596064	-1213.405000	1695.369141	-51.626095
20398.596064	-1213.405000	1694.347656	60.122017
20398.596064	-1213.405000	1693.326172	40.770638
20398.596064	-1213.405000	1692.304688	51.782341
20398.596064	-1213.405000	1691.282227	-37.822651
20398.596064	-1213.405000	1690.260742	244.310745
20398.596064	-1213.405000	1689.238281	68.113861
20398.596064	-1213.405000	1688.214844	-28.609026
20398.596064	-1213.405000	1687.192383	21.876358
20398.596064	-1213.405000	1686.168945	65.278465
20398.596064	-1213.405000	1685.146484	-19.842089
20398.596064	-1213.405000	1684.123047	231.304062
20398.596064	-1213.405000	1683.099609	50.355522
20398.596064	-1213.405000	1682.075195	172.900558
20398.596064	-1213.405000	1681.051758	157.657394
20398.596064	-1213.405000	1680.027344	-282.332977
20398.596064	-1213.405000	1679.002930	138.711792
20398.596064	-1213.405000	1677.978516	123.350090
20398.596064	-1213.405000	1676.953125	44.975697
20398.596064	-1213.405000	1675.928711	64.533768
20398.596064	-1213.405000	1674.903320	184.281799
20398.596064	-1213.405000	1673.877930	168.756256
20398.596064	-1213.405000	1672.852539	69.305565
20398.596064	-1213.405000	1671.826172	4.797033
20398.596064	-1213.405000	1670.800781	294.367554
20398.596064	-1213.405000	1669.774414	243.743088
20398.596064	-1213.405000	1668.748047	223.375336
20398.596064	-1213.405000	1667.721680	279.809998
20398.596064	-1213.405000	1666.694336	156.948471
20398.596064	-1213.405000	1665.667969	429.742401
20398.596064	-1213.405000	1664.640625	381.294434
20398.596064	-1213.405000	1663.613281	311.896271
20398.596064	-1213.405000	1662.585938	151.786072
20398.596064	-1213.405000	1661.557617	449.811340
20398.596064	-1213.405000	1660.530273	498.928925
20398.596064	-1213.405000	1659.501953	603.779358
20398.596064	-1213.405000	1658.473633	420.375153
20398.596064	-1213.405000	1657.444336	643.645813
20398.596064	-1213.405000	1656.416016	736.715393
20398.596064	-1213.405000	1655.386719	713.577698
20398.596064	-1213.405000	1654.358398	381.569733
20398.596064	-1213.405000	1653.328125	514.019165
20398.596064	-1213.405000	1652.298828	572.120605
20398.596064	-1213.405000	1651.269531	783.361145
20398.596064	-1213.405000	1650.239258	653.378113
20398.596064	-1213.405000	1649.208984	848.233154
20398.596064	-1213.405000	1648.178711	762.323608
20398.596064	-1213.405000	1647.148438	697.301697
20398.596064	-1213.405000	1646.117188	929.074341
20398.596064	-1213.405000	1645.086914	1012.382202
20398.596064	-1213.405000	1644.055664	931.069336
20398.596064	-1213.405000	1643.024414	889.170105
20398.596064	-1213.405000	1641.992188	1136.878540
20398.596064	-1213.405000	1640.960938	1020.804443
20398.596064	-1213.405000	1639.928711	1157.199097
20398.596064	-1213.405000	1638.896484	1332.896606
20398.596064	-1213.405000	1637.864258	1235.332642
20398.596064	-1213.405000	1636.832031	1390.096802
20398.596064	-1213.405000	1635.798828	1533.213257
20398.596064	-1213.405000	1634.766602	1322.270264
20398.596064	-1213.405000	1633.733398	1393.618774
20398.596064	-1213.405000	1632.699219	1548.189453
20398.596064	-1213.405000	1631.666016	1501.523682
20398.596064	-1213.405000	1630.632813	1556.600708
20398.596064	-1213.405000	1629.598633	1720.286377
20398.596064	-1213.405000	1628.564453	1488.713623
20398.596064	-1213.405000	1627.530273	1506.777954
20398.596064	-1213.405000	1626.495117	1610.303223
20398.596064	-1213.405000	1625.460938	1621.410034
20398.596064	-1213.405000	1624.425781	1540.134766
20398.596064	-1213.405000	1623.390625	1902.189819
20398.596064	-1213.405000	1622.355469	1846.290527
20398.596064	-1213.405000	1621.319336	1861.954590
20398.596064	-1213.405000	1620.284180	1508.431030
20398.596064	-1213.405000	1619.248047	1697.196167
20398.596064	-1213.405000	1618.211914	1770.565552
20398.596064	-1213.405000	1617.174805	1970.743774
20398.596064	-1213.405000	1616.138672	1866.512695
20398.596064	-1213.405000	1615.101563	1863.753418
20398.596064	-1213.405000	1614.065430	2149.114746
20398.596064	-1213.405000	1613.027344	2307.619873
20398.596064	-1213.405000	1611.990234	2030.650391
20398.596064	-1213.405000	1610.953125	2182.242676
20398.596064	-1213.405000	1609.915039	2002.151367
20398.596064	-1213.405000	1608.876953	2073.122314
20398.596064	-1213.405000	1607.838867	2040.489746
20398.596064	-1213.405000	1606.800781	2127.571777
20398.596064	-1213.405000	1605.761719	2219.233398
20398.596064	-1213.405000	1604.723633	2080.810791
20398.596064	-1213.405000	1603.684570	2273.698242
20398.596064	-1213.405000	1602.644531	2300.933594
20398.596064	-1213.405000	1601.605469	2247.709229
20398.596064	-1213.405000	1600.566406	2360.054443
20398.596064	-1213.405000	1599.526367	2410.309814
20398.596064	-1213.405000	1598.486328	2469.763428
20398.596064	-1213.405000	1597.446289	2207.553711
20398.596064	-1213.405000	1596.405273	2147.614502
20398.596064	-1213.405000	1595.365234	2397.791016
20398.596064	-1213.405000	1594.324219	2246.042236
20398.596064	-1213.405000	1593.283203	2080.607422
20398.596064	-1213.405000	1592.242188	2119.555664
20398.596064	-1213.405000	1591.200195	1903.773682
20398.596064	-1213.405000	1590.159180	1961.158325
20398.596064	-1213.405000	1589.117188	1963.488403
20398.596064	-1213.405000	1588.075195	2014.016479
20398.596064	-1213.405000	1587.032227	2023.274170
20398.596064	-1213.405000	1585.990234	2167.839111
20398.596064	-1213.405000	1584.947266	2062.522217
20398.596064	-1213.405000	1583.904297	1753.314453
20398.596064	-1213.405000	1582.861328	1893.367432
20398.596064	-1213.405000	1581.818359	1772.242432
20398.596064	-1213.405000	1580.775391	1664.946045
20398.596064	-1213.405000	1579.731445	1837.102783
20398.596064	-1213.405000	1578.687500	1558.193359
20398.596064	-1213.405000	1577.643555	1888.333740
20398.596064	-1213.405000	1576.598633	1625.620239
20398.596064	-1213.405000	1575.554688	1548.404541
20398.596064	-1213.405000	1574.509766	1615.383423
20398.596064	-1213.405000	1573.464844	1581.739502
20398.596064	-1213.405000	1572.419922	1612.186401
20398.596064	-1213.405000	1571.374023	1537.485718
20398.596064	-1213.405000	1570.329102	1295.994263
20398.596064	-1213.405000	1569.283203	1493.454590
20398.596064	-1213.405000	1568.237305	1384.689331
20398.596064	-1213.405000	1567.191406	1479.345825
20398.596064	-1213.405000	1566.144531	1247.373413
20398.596064	-1213.405000	1565.098633	1335.268921
20398.596064	-1213.405000	1564.051758	1443.724609
20398.596064	-1213.405000	1563.004883	1371.848145
20398.596064	-1213.405000	1561.957031	1393.622192
20398.596064	-1213.405000	1560.910156	1340.145874
20398.596064	-1213.405000	1559.862305	1460.130249
20398.596064	-1213.405000	1558.814453	1466.071289
20398.596064	-1213.405000	1557.766602	1501.712891
20398.596064	-1213.405000	1556.718750	1158.897705
20398.596064	-1213.405000	1555.669922	1377.067505
20398.596064	-1213.405000	1554.621094	1262.442993
20398.596064	-1213.405000	1553.573242	1621.915161
20398.596064	-1213.405000	1552.523438	1357.029053
20398.596064	-1213.405000	1551.474609	1110.536743
20398.596064	-1213.405000	1550.424805	1269.580200
20398.596064	-1213.405000	1549.375000	1073.412476
20398.596064	-1213.405000	1548.325195	1045.847778
20398.596064	-1213.405000	1547.275391	984.214905
20398.596064	-1213.405000	1546.225586	988.663757
20398.596064	-1213.405000	1545.174805	1222.964111
20398.596064	-1213.405000	1544.124023	1043.232300
20398.596064	-1213.405000	1543.073242	1102.438721
20398.596064	-1213.405000	1542.022461	768.312195
20398.596064	-1213.405000	1540.970703	857.229370
20398.596064	-1213.405000	1539.919922	805.262268
20398.596064	-1213.405000	1538.868164	880.638855
20398.596064	-1213.405000	1537.815430	783.370605
20398.596064	-1213.405000	1536.763672	774.809509
20398.596064	-1213.405000	1535.710938	657.299133
20398.596064	-1213.405000	1534.659180	826.021118
20398.596064	-1213.405000	1533.606445	747.282349
20398.596064	-1213.405000	1532.552734	482.516022
20398.596064	-1213.405000	1531.500000	773.927917
20398.596064	-1213.405000	1530.446289	695.455933
20398.596064	-1213.405000	1529.393555	648.852478
20398.596064	-1213.405000	1528.338867	638.619934
20398.596064	-1213.405000	1527.285156	544.569336
20398.596064	-1213.405000	1526.231445	740.822754
20398.596064	-1213.405000	1525.176758	637.867126
20398.596064	-1213.405000	1524.122070	686.864990
20398.596064	-1213.405000	1523.067383	359.799347
20398.596064	-1213.405000	1522.012695	476.945923
20398.596064	-1213.405000	1520.957031	344.980225
20398.596064	-1213.405000	1519.901367	471.290222
20398.596064	-1213.405000	1518.845703	323.685883
20398.596064	-1213.405000	1517.790039	409.362946
20398.596064	-1213.405000	1516.734375	363.825653
20398.596064	-1213.405000	1515.677734	200.723495
20398.596064	-1213.405000	1514.621094	286.607117
20398.596064	-1213.405000	1513.564453	105.650665
20398.596064	-1213.405000	1512.507813	191.679733
20398.596064	-1213.405000	1511.450195	248.361603
20398.596064	-1213.405000	1510.393555	239.554169
20398.596064	-1213.405000	1509.335938	178.848602
20398.596064	-1213.405000	1508.278320	373.573364
20398.596064	-1213.405000	1507.219727	159.409714
20398.596064	-1213.405000	1506.162109	112.555687
20398.596064	-1213.405000	1505.103516	63.541546
20398.596064	-1213.405000	1504.044922	132.031342
20398.596064	-1213.405000	1502.986328	363.101501
20398.596064	-1213.405000	1501.926758	330.113373
20398.596064	-1213.405000	1500.868164	258.866638
20398.596064	-1213.405000	1499.808594	86.213638
20398.596064	-1213.405000	1498.749023	254.291611
20398.596064	-1213.405000	1497.688477	379.540283
20398.596064	-1213.405000	1496.628906	288.387573
20398.596064	-1213.405000	1495.568359	366.414001
20398.596064	-1213.405000	1494.507813	307.021057
20398.596064	-1213.405000	1493.447266	148.595688
20398.596064	-1213.405000	1492.386719	73.673233
20398.596064	-1213.405000	1491.325195	-3.386244
20398.596064	-1213.405000	1490.263672	246.197357
20398.596064	-1213.405000	1489.202148	36.473034
20398.596064	-1213.405000	1488.140625	88.035667
20398.596064	-1213.405000	1487.079102	153.170563
20398.596064	-1213.405000	1486.016602	38.356323
20398.596064	-1213.405000	1484.954102	-67.325638
20398.596064	-1213.405000	1483.891602	-42.422081
20398.596064	-1213.405000	1482.829102	142.223358
20398.596064	-1213.405000	1481.765625	45.848385
20398.596064	-1213.405000	1480.702148	-135.820465
20398.596064	-1213.405000	1479.638672	-249.894424
20398.596064	-1213.405000	1478.575195	-121.182999
20398.596064	-1213.405000	1477.511719	-118.186096
20398.596064	-1213.405000	1476.447266	-11.808220
20398.596064	-1213.405000	1475.382813	96.762642
20398.596064	-1213.405000	1474.318359	-104.348457
20398.596064	-1213.405000	1473.253906	89.743279
20398.596064	-1213.405000	1472.189453	52.691208
20398.596064	-1213.405000	1471.124023	40.440826
20398.596064	-1213.405000	1470.058594	151.659149
20398.596064	-1213.405000	1468.993164	312.249512
20398.596064	-1213.405000	1467.927734	313.593719
20398.596064	-1213.405000	1466.861328	375.698151
20398.596064	-1213.405000	1465.794922	287.806610
20398.596064	-1213.405000	1464.728516	233.415131
20398.596064	-1213.405000	1463.662109	447.868439
20398.596064	-1213.405000	1462.594727	313.275696
20398.596064	-1213.405000	1461.528320	364.466339
20398.596064	-1213.405000	1460.460938	328.197906
20398.596064	-1213.405000	1459.393555	396.146301
20398.596064	-1213.405000	1458.326172	697.785034
20398.596064	-1213.405000	1457.257813	396.072296
20398.596064	-1213.405000	1456.189453	734.879028
20398.596064	-1213.405000	1455.121094	610.548889
20398.596064	-1213.405000	1454.052734	723.824890
20398.596064	-1213.405000	1452.984375	693.172791
20398.596064	-1213.405000	1451.915039	616.306946
20398.596064	-1213.405000	1450.845703	777.677002
20398.596064	-1213.405000	1449.776367	768.631409
20398.596064	-1213.405000	1448.707031	836.184631
20398.596064	-1213.405000	1447.636719	761.431335
20398.596064	-1213.405000	1446.567383	838.004150
20398.596064	-1213.405000	1445.497070	949.819153
20398.596064	-1213.405000	1444.425781	872.199585
20398.596064	-1213.405000	1443.355469	746.797119
20398.596064	-1213.405000	1442.285156	860.414490
20398.596064	-1213.405000	1441.213867	654.739624
20398.596064	-1213.405000	1440.142578	772.393921
20398.596064	-1213.405000	1439.070313	671.984375
20398.596064	-1213.405000	1437.999023	846.824829
20398.596064	-1213.405000	1436.926758	761.542603
20398.596064	-1213.405000	1435.854492	916.570190
20398.596064	-1213.405000	1434.782227	668.514954
20398.596064	-1213.405000	1433.709961	710.288635
20398.596064	-1213.405000	1432.636719	618.368774
20398.596064	-1213.405000	1431.563477	797.412292
20398.596064	-1213.405000	1430.490234	624.938477
20398.596064	-1213.405000	1429.416992	402.648102
20398.596064	-1213.405000	1428.343750	437.433563
20398.596064	-1213.405000	1427.269531	422.782501
20398.596064	-1213.405000	1426.195313	629.262451
20398.596064	-1213.405000	1425.121094	566.467896
20398.596064	-1213.405000	1424.046875	459.120148
20398.596064	-1213.405000	1422.971680	332.924957
20398.596064	-1213.405000	1421.896484	427.640961
20398.596064	-1213.405000	1420.821289	300.710205
20398.596064	-1213.405000	1419.746094	265.327667
20398.596064	-1213.405000	1418.669922	543.453247
20398.596064	-1213.405000	1417.594727	466.756042
20398.596064	-1213.405000	1416.518555	449.804688
20398.596064	-1213.405000	1415.442383	452.609253
20398.596064	-1213.405000	1414.365234	285.478577
20398.596064	-1213.405000	1413.289063	474.933655
20398.596064	-1213.405000	1412.211914	449.243866
20398.596064	-1213.405000	1411.134766	447.947357
20398.596064	-1213.405000	1410.057617	253.235077
20398.596064	-1213.405000	1408.979492	322.935760
20398.596064	-1213.405000	1407.902344	624.901611
20398.596064	-1213.405000	1406.824219	594.073730
20398.596064	-1213.405000	1405.746094	631.099060
20398.596064	-1213.405000	1404.666992	753.215820
20398.596064	-1213.405000	1403.588867	896.864502
20398.596064	-1213.405000	1402.509766	645.908569
20398.596064	-1213.405000	1401.430664	603.273071
20398.596064	-1213.405000	1400.351563	644.653870
20398.596064	-1213.405000	1399.271484	851.931946
20398.596064	-1213.405000	1398.192383	802.922180
20398.596064	-1213.405000	1397.112305	694.024719
20398.596064	-1213.405000	1396.031250	615.190552
20398.596064	-1213.405000	1394.951172	772.666565
20398.596064	-1213.405000	1393.871094	645.517578
20398.596064	-1213.405000	1392.790039	720.962891
20398.596064	-1213.405000	1391.708984	842.400452
20398.596064	-1213.405000	1390.626953	736.075134
20398.596064	-1213.405000	1389.545898	690.355286
20398.596064	-1213.405000	1388.463867	533.328674
20398.596064	-1213.405000	1387.381836	582.360840
20398.596064	-1213.405000	1386.299805	538.448364
20398.596064	-1213.405000	1385.217773	289.768433
20398.596064	-1213.405000	1384.134766	400.132660
20398.596064	-1213.405000	1383.051758	531.271484
20398.596064	-1213.405000	1381.968750	421.991028
20398.596064	-1213.405000	1380.885742	445.679413
20398.596064	-1213.405000	1379.802734	477.371277
20398.596064	-1213.405000	1378.718750	611.970276
20398.596064	-1213.405000	1377.634766	501.028839
20398.596064	-1213.405000	1376.550781	812.809021
20398.596064	-1213.405000	1375.465820	777.692322
20398.596064	-1213.405000	1374.381836	681.492432
20398.596064	-1213.405000	1373.296875	651.954102
20398.596064	-1213.405000	1372.211914	525.554321
20398.596064	-1213.405000	1371.126953	758.994568
20398.596064	-1213.405000	1370.041016	894.062805
20398.596064	-1213.405000	1368.955078	750.501343
20398.596064	-1213.405000	1367.869141	600.332031
20398.596064	-1213.405000	1366.783203	878.543579
20398.596064	-1213.405000	1365.697266	930.638245
20398.596064	-1213.405000	1364.610352	740.054688
20398.596064	-1213.405000	1363.523438	737.507507
20398.596064	-1213.405000	1362.436523	893.938477
20398.596064	-1213.405000	1361.349609	756.898804
20398.596064	-1213.405000	1360.261719	698.830139
20398.596064	-1213.405000	1359.174805	745.214539
20398.596064	-1213.405000	1358.086914	769.689941
20398.596064	-1213.405000	1356.998047	653.715820
20398.596064	-1213.405000	1355.910156	751.101074
20398.596064	-1213.405000	1354.821289	812.699829
20398.596064	-1213.405000	1353.732422	678.099121
20398.596064	-1213.405000	1352.643555	815.913696
20398.596064	-1213.405000	1351.554688	707.330383
20398.596064	-1213.405000	1350.464844	863.682922
20398.596064	-1213.405000	1349.375000	479.449860
20398.596064	-1213.405000	1348.285156	805.573914
20398.596064	-1213.405000	1347.195313	661.649231
20398.596064	-1213.405000	1346.105469	718.261108
20398.596064	-1213.405000	1345.014648	726.361572
20398.596064	-1213.405000	1343.923828	600.088257
20398.596064	-1213.405000	1342.833008	704.363281
20398.596064	-1213.405000	1341.741211	493.611603
20398.596064	-1213.405000	1340.650391	579.019592
20398.596064	-1213.405000	1339.558594	717.035339
20398.596064	-1213.405000	1338.466797	498.801056
20398.596064	-1213.405000	1337.374023	593.148071
20398.596064	-1213.405000	1336.282227	451.614899
20398.596064	-1213.405000	1335.189453	509.105164
20398.596064	-1213.405000	1334.096680	692.517639
20398.596064	-1213.405000	1333.003906	559.950317
20398.596064	-1213.405000	1331.910156	669.636108
20398.596064	-1213.405000	1330.817383	602.786926
20398.596064	-1213.405000	1329.723633	601.429810
20398.596064	-1213.405000	1328.629883	732.728027
20398.596064	-1213.405000	1327.535156	600.799377
20398.596064	-1213.405000	1326.441406	632.226563
20398.596064	-1213.405000	1325.346680	646.471558
20398.596064	-1213.405000	1324.251953	695.875122
20398.596064	-1213.405000	1323.156250	445.144104
20398.596064	-1213.405000	1322.061523	516.421509
20398.596064	-1213.405000	1320.965820	764.156799
20398.596064	-1213.405000	1319.870117	522.256042
20398.596064	-1213.405000	1318.774414	651.811401
20398.596064	-1213.405000	1317.678711	527.211914
20398.596064	-1213.405000	1316.582031	457.309937
20398.596064	-1213.405000	1315.485352	653.349487
20398.596064	-1213.405000	1314.388672	698.116882
20398.596064	-1213.405000	1313.291016	582.370056
20398.596064	-1213.405000	1312.194336	600.211426
20398.596064	-1213.405000	1311.096680	688.890808
20398.596064	-1213.405000	1309.999023	548.029846
20398.596064	-1213.405000	1308.901367	603.372986
20398.596064	-1213.405000	1307.802734	565.613831
20398.596064	-1213.405000	1306.705078	680.876892
20398.596064	-1213.405000	1305.606445	615.351746
20398.596064	-1213.405000	1304.506836	720.206787
20398.596064	-1213.405000	1303.408203	537.844788
20398.596064	-1213.405000	1302.308594	549.803040
20398.596064	-1213.405000	1301.208984	621.081909
20398.596064	-1213.405000	1300.109375	601.316528
20398.596064	-1213.405000	1299.009766	683.134155
20398.596064	-1213.405000	1297.909180	681.195313
20398.596064	-1213.405000	1296.808594	667.531555
20398.596064	-1213.405000	1295.708008	564.614807
20398.596064	-1213.405000	1294.607422	649.803894
20398.596064	-1213.405000	1293.506836	545.332458
20398.596064	-1213.405000	1292.405273	560.627808
20398.596064	-1213.405000	1291.303711	583.673462
20398.596064	-1213.405000	1290.202148	425.670013
20398.596064	-1213.405000	1289.099609	436.935333
20398.596064	-1213.405000	1287.998047	471.344360
20398.596064	-1213.405000	1286.895508	481.556061
20398.596064	-1213.405000	1285.792969	557.156494
20398.596064	-1213.405000	1284.689453	510.970490
20398.596064	-1213.405000	1283.586914	393.820068
20398.596064	-1213.405000	1282.483398	482.710114
20398.596064	-1213.405000	1281.379883	462.724640
20398.596064	-1213.405000	1280.276367	352.859070
20398.596064	-1213.405000	1279.171875	369.223511
20398.596064	-1213.405000	1278.067383	391.194916
20398.596064	-1213.405000	1276.962891	336.527527
20398.596064	-1213.405000	1275.858398	344.216827
20398.596064	-1213.405000	1274.753906	264.945770
20398.596064	-1213.405000	1273.648438	474.596954
20398.596064	-1213.405000	1272.542969	402.035614
20398.596064	-1213.405000	1271.437500	380.916351
20398.596064	-1213.405000	1270.331055	426.110107
20398.596064	-1213.405000	1269.225586	512.215027
20398.596064	-1213.405000	1268.119141	471.986206
20398.596064	-1213.405000	1267.012695	535.595520
20398.596064	-1213.405000	1265.906250	476.239594
20398.596064	-1213.405000	1264.798828	529.336243
20398.596064	-1213.405000	1263.691406	268.532898
20398.596064	-1213.405000	1262.583984	351.794769
20398.596064	-1213.405000	1261.476563	439.437653
20398.596064	-1213.405000	1260.368164	306.492645
20398.596064	-1213.405000	1259.260742	413.524689
20398.596064	-1213.405000	1258.152344	159.392532
20398.596064	-1213.405000	1257.043945	222.467178
20398.596064	-1213.405000	1255.934570	202.957489
20398.596064	-1213.405000	1254.825195	108.771629
20398.596064	-1213.405000	1253.716797	88.768906
20398.596064	-1213.405000	1252.606445	144.943298
20398.596064	-1213.405000	1251.497070	192.532120
20398.596064	-1213.405000	1250.387695	253.739380
20398.596064	-1213.405000	1249.277344	211.839371
20398.596064	-1213.405000	1248.166992	165.295944
20398.596064	-1213.405000	1247.055664	152.724228
20398.596064	-1213.405000	1245.945313	108.254593
20398.596064	-1213.405000	1244.833984	-5.776645
20398.596064	-1213.405000	1243.722656	-27.658577
20398.596064	-1213.405000	1242.611328	-36.478645
20398.596064	-1213.405000	1241.499023	59.913425
20398.596064	-1213.405000	1240.387695	108.610992
20398.596064	-1213.405000	1239.275391	178.930771
20398.596064	-1213.405000	1238.162109	54.031403
20398.596064	-1213.405000	1237.049805	3.800234
20398.596064	-1213.405000	1235.936523	240.598877
20398.596064	-1213.405000	1234.823242	85.065086
20398.596064	-1213.405000	1233.709961	229.127090
20398.596064	-1213.405000	1232.596680	-48.530087
20398.596064	-1213.405000	1231.482422	36.127602
20398.596064	-1213.405000	1230.369141	72.494469
20398.596064	-1213.405000	1229.253906	-70.225845
20398.596064	-1213.405000	1228.139648	3.275723
20398.596064	-1213.405000	1227.025391	84.759773
20398.596064	-1213.405000	1225.910156	89.634331
20398.596064	-1213.405000	1224.794922	-43.020344
20398.596064	-1213.405000	1223.679688	10.945685
20398.596064	-1213.405000	1222.563477	84.026344
20398.596064	-1213.405000	1221.447266	46.470901
20398.596064	-1213.405000	1220.331055	20.135357
20398.596064	-1213.405000	1219.214844	72.839577
20398.596064	-1213.405000	1218.098633	-56.490128
20398.596064	-1213.405000	1216.981445	39.540516
20398.596064	-1213.405000	1215.864258	-62.639442
20398.596064	-1213.405000	1214.747070	-95.911293
20398.596064	-1213.405000	1213.629883	-143.186584
20398.596064	-1213.405000	1212.511719	-79.566208
20398.596064	-1213.405000	1211.393555	-152.304642
20398.596064	-1213.405000	1210.275391	-116.731384
20398.596064	-1213.405000	1209.157227	-73.081207
20398.596064	-1213.405000	1208.038086	115.598633
20398.596064	-1213.405000	1206.918945	-127.993095
20398.596064	-1213.405000	1205.799805	-0.651711
20398.596064	-1213.405000	1204.680664	-102.831696
20398.596064	-1213.405000	1203.560547	-118.423119
20398.596064	-1213.405000	1202.441406	34.917465
20398.596064	-1213.405000	1201.321289	16.773558
20398.596064	-1213.405000	1200.200195	6.213090
20398.596064	-1213.405000	1199.080078	-29.777767
20398.596064	-1213.405000	1197.958984	-158.501373
20398.596064	-1213.405000	1196.837891	-90.313423
20398.596064	-1213.405000	1195.716797	-147.885162
20398.596064	-1213.405000	1194.594727	-82.660522
20398.596064	-1213.405000	1193.473633	64.593994
20398.596064	-1213.405000	1192.351563	61.332661
20398.596064	-1213.405000	1191.229492	-96.658478
20398.596064	-1213.405000	1190.106445	-83.889832
20398.596064	-1213.405000	1188.984375	-157.669693
20398.596064	-1213.405000	1187.861328	-42.736340
20398.596064	-1213.405000	1186.738281	-19.607330
20398.596064	-1213.405000	1185.614258	-0.752122
20398.596064	-1213.405000	1184.491211	-148.483688
20398.596064	-1213.405000	1183.367188	48.012260
20398.596064	-1213.405000	1182.243164	-74.326637
20398.596064	-1213.405000	1181.119141	35.641907
20398.596064	-1213.405000	1179.994141	156.051865
20398.596064	-1213.405000	1178.869141	-60.652225
20398.596064	-1213.405000	1177.744141	144.863373
20398.596064	-1213.405000	1176.619141	130.690201
20398.596064	-1213.405000	1175.493164	138.855667
20398.596064	-1213.405000	1174.368164	200.640091
20398.596064	-1213.405000	1173.242188	282.406189
20398.596064	-1213.405000	1172.115234	280.796204
20398.596064	-1213.405000	1170.989258	379.534973
20398.596064	-1213.405000	1169.862305	199.143265
20398.596064	-1213.405000	1168.735352	104.857880
20398.596064	-1213.405000	1167.608398	127.452065
20398.596064	-1213.405000	1166.481445	166.546707
20398.596064	-1213.405000	1165.353516	91.516663
20398.596064	-1213.405000	1164.225586	80.801064
20398.596064	-1213.405000	1163.097656	90.872368
20398.596064	-1213.405000	1161.968750	112.019455
20398.596064	-1213.405000	1160.840820	187.510651
20398.596064	-1213.405000	1159.711914	140.017639
20398.596064	-1213.405000	1158.583008	40.577354
20398.596064	-1213.405000	1157.453125	192.637741
20398.596064	-1213.405000	1156.324219	87.847290
20398.596064	-1213.405000	1155.194336	-57.246574
20398.596064	-1213.405000	1154.064453	30.627598
20398.596064	-1213.405000	1152.933594	-22.746403
20398.596064	-1213.405000	1151.803711	76.720604
20398.596064	-1213.405000	1150.672852	146.808243
20398.596064	-1213.405000	1149.541992	200.477554
20398.596064	-1213.405000	1148.411133	208.504776
20398.596064	-1213.405000	1147.279297	316.265381
20398.596064	-1213.405000	1146.147461	220.359177
20398.596064	-1213.405000	1145.015625	220.711838
20398.596064	-1213.405000	1143.883789	154.639679
20398.596064	-1213.405000	1142.750977	160.958466
20398.596064	-1213.405000	1141.619141	206.745285
20398.596064	-1213.405000	1140.486328	104.755814
20398.596064	-1213.405000	1139.352539	109.185173
20398.596064	-1213.405000	1138.219727	240.707352
20398.596064	-1213.405000	1137.085938	180.152039
20398.596064	-1213.405000	1135.952148	134.540298
20398.596064	-1213.405000	1134.818359	242.518539
20398.596064	-1213.405000	1133.683594	232.967773
20398.596064	-1213.405000	1132.549805	280.301544
20398.596064	-1213.405000	1131.415039	444.213562
20398.596064	-1213.405000	1130.279297	476.208527
20398.596064	-1213.405000	1129.144531	323.092834
20398.596064	-1213.405000	1128.008789	523.433960
20398.596064	-1213.405000	1126.873047	324.915405
20398.596064	-1213.405000	1125.737305	408.251953
20398.596064	-1213.405000	1124.601563	423.494354
20398.596064	-1213.405000	1123.464844	249.384705
20398.596064	-1213.405000	1122.328125	181.131989
20398.596064	-1213.405000	1121.191406	194.244003
20398.596064	-1213.405000	1120.054688	122.406296
20398.596064	-1213.405000	1118.916992	227.831528
20398.596064	-1213.405000	1117.779297	275.266907
20398.596064	-1213.405000	1116.641602	227.805252
20398.596064	-1213.405000	1115.503906	197.240494
20398.596064	-1213.405000	1114.365234	13.790069
20398.596064	-1213.405000	1113.226563	158.346863
20398.596064	-1213.405000	1112.087891	58.553478
20398.596064	-1213.405000	1110.949219	16.726343
20398.596064	-1213.405000	1109.809570	86.497826
20398.596064	-1213.405000	1108.669922	167.572479
20398.596064	-1213.405000	1107.530273	158.480606
20398.596064	-1213.405000	1106.390625	149.059174
20398.596064	-1213.405000	1105.250000	267.982422
20398.596064	-1213.405000	1104.109375	317.208954
20398.596064	-1213.405000	1102.968750	368.546417
20398.596064	-1213.405000	1101.828125	284.599396
20398.596064	-1213.405000	1100.686523	356.791046
20398.596064	-1213.405000	1099.544922	281.129913
20398.596064	-1213.405000	1098.403320	345.139465
20398.596064	-1213.405000	1097.261719	194.708511
20398.596064	-1213.405000	1096.120117	293.902527
20398.596064	-1213.405000	1094.977539	348.692352
20398.596064	-1213.405000	1093.834961	253.763519
20398.596064	-1213.405000	1092.691406	375.706940
20398.596064	-1213.405000	1091.548828	400.688629
20398.596064	-1213.405000	1090.405273	152.149155
20398.596064	-1213.405000	1089.261719	285.164734
20398.596064	-1213.405000	1088.118164	195.154434
20398.596064	-1213.405000	1086.973633	83.708069
20398.596064	-1213.405000	1085.829102	73.232063
20398.596064	-1213.405000	1084.684570	240.237274
20398.596064	-1213.405000	1083.540039	153.041183
20398.596064	-1213.405000	1082.395508	-75.955673
20398.596064	-1213.405000	1081.250000	197.033630
20398.596064	-1213.405000	1080.104492	273.820953
20398.596064	-1213.405000	1078.958984	193.874237
20398.596064	-1213.405000	1077.812500	70.091621
20398.596064	-1213.405000	1076.666016	252.363235
20398.596064	-1213.405000	1075.519531	166.790771
20398.596064	-1213.405000	1074.373047	83.415382
20398.596064	-1213.405000	1073.226563	36.865139
20398.596064	-1213.405000	1072.079102	177.694336
20398.596064	-1213.405000	1070.931641	37.659462
20398.596064	-1213.405000	1069.784180	126.360260
20398.596064	-1213.405000	1068.635742	199.027725
20398.596064	-1213.405000	1067.487305	281.018005
20398.596064	-1213.405000	1066.338867	163.987549
20398.596064	-1213.405000	1065.190430	152.735321
20398.596064	-1213.405000	1064.041992	187.590591
20398.596064	-1213.405000	1062.892578	249.412125
20398.596064	-1213.405000	1061.743164	360.614868
20398.596064	-1213.405000	1060.593750	246.341537
20398.596064	-1213.405000	1059.443359	130.454758
20398.596064	-1213.405000	1058.292969	51.526772
20398.596064	-1213.405000	1057.142578	172.237457
20398.596064	-1213.405000	1055.992188	176.156296
20398.596064	-1213.405000	1054.841797	130.533493
20398.596064	-1213.405000	1053.690430	13.715882
20398.596064	-1213.405000	1052.539063	169.547348
20398.596064	-1213.405000	1051.387695	250.596436
20398.596064	-1213.405000	1050.235352	292.520447
20398.596064	-1213.405000	1049.083984	299.286560
20398.596064	-1213.405000	1047.931641	437.076355
20398.596064	-1213.405000	1046.778320	424.220978
20398.596064	-1213.405000	1045.625977	470.674103
20398.596064	-1213.405000	1044.472656	288.816406
20398.596064	-1213.405000	1043.319336	455.956818
20398.596064	-1213.405000	1042.166016	312.743988
20398.596064	-1213.405000	1041.012695	165.051147
20398.596064	-1213.405000	1039.858398	170.834229
20398.596064	-1213.405000	1038.704102	92.907166
20398.596064	-1213.405000	1037.549805	80.160789
20398.596064	-1213.405000	1036.394531	127.147621
20398.596064	-1213.405000	1035.239258	-18.805603
20398.596064	-1213.405000	1034.083984	111.338417
20398.596064	-1213.405000	1032.928711	-17.400578
20398.596064	-1213.405000	1031.773438	-131.171814
20398.596064	-1213.405000	1030.617188	201.911118
20398.596064	-1213.405000	1029.460938	106.640869
20398.596064	-1213.405000	1028.304688	-90.954994
20398.596064	-1213.405000	1027.147461	48.878971
20398.596064	-1213.405000	1025.991211	166.067017
20398.596064	-1213.405000	1024.833984	236.906937
20398.596064	-1213.405000	1023.675781	165.349045
20398.596064	-1213.405000	1022.518555	-36.148060
20398.596064	-1213.405000	1021.360352	31.681997
20398.596064	-1213.405000	1020.202148	70.291283
20398.596064	-1213.405000	1019.043945	-78.729179
20398.596064	-1213.405000	1017.884766	-62.931744
20398.596064	-1213.405000	1016.726563	7.591617
20398.596064	-1213.405000	1015.567383	-213.166367
20398.596064	-1213.405000	1014.407227	-127.609856
20398.596064	-1213.405000	1013.248047	9.685909
20398.596064	-1213.405000	1012.087891	-52.092140
20398.596064	-1213.405000	1010.927734	-14.337472
20398.596064	-1213.405000	1009.767578	-102.985428
20398.596064	-1213.405000	1008.606445	2.753260
20398.596064	-1213.405000	1007.446289	-82.401512
20398.596064	-1213.405000	1006.285156	62.776031
20398.596064	-1213.405000	1005.123047	52.606339
20398.596064	-1213.405000	1003.961914	43.817242
20398.596064	-1213.405000	1002.799805	-19.848030
20398.596064	-1213.405000	1001.637695	-27.324770
20398.596064	-1213.405000	1000.475586	110.246590
20398.596064	-1213.405000	999.312500	201.970581
20398.596064	-1213.405000	998.149414	78.434441
20398.596064	-1213.405000	996.986328	161.176422
20398.596064	-1213.405000	995.823242	27.838348
20398.596064	-1213.405000	994.659180	122.026596
20398.596064	-1213.405000	993.496094	-46.958370
20398.596064	-1213.405000	992.332031	14.131180
20398.596064	-1213.405000	991.166992	-103.117706
20398.596064	-1213.405000	990.002930	-37.715988
20398.596064	-1213.405000	988.837891	-7.922885
20398.596064	-1213.405000	987.672852	69.390991
20398.596064	-1213.405000	986.506836	-62.828262
20398.596064	-1213.405000	985.341797	-106.414703
20398.596064	-1213.405000	984.175781	-54.613052
20398.596064	-1213.405000	983.009766	-62.431553
20398.596064	-1213.405000	981.843750	-41.664959
20398.596064	-1213.405000	980.676758	-118.848709
20398.596064	-1213.405000	979.509766	-248.454865
20398.596064	-1213.405000	978.342773	-123.888527
20398.596064	-1213.405000	977.175781	-161.501099
20398.596064	-1213.405000	976.007813	-26.312473
20398.596064	-1213.405000	974.839844	191.193634
20398.596064	-1213.405000	973.671875	-3.313685
20398.596064	-1213.405000	972.503906	137.786835
20398.596064	-1213.405000	971.334961	52.174442
20398.596064	-1213.405000	970.166016	-12.492929
20398.596064	-1213.405000	968.997070	61.637417
20398.596064	-1213.405000	967.828125	-22.919727
20398.596064	-1213.405000	966.658203	27.028486
20398.596064	-1213.405000	965.488281	80.868568
20398.596064	-1213.405000	964.318359	41.798912
20398.596064	-1213.405000	963.148438	-3.705745
20398.596064	-1213.405000	961.977539	72.396004
20398.596064	-1213.405000	960.806641	-3.662592
20398.596064	-1213.405000	959.635742	95.956490
20398.596064	-1213.405000	958.463867	-39.516930
20398.596064	-1213.405000	957.292969	157.038925
20398.596064	-1213.405000	956.121094	-68.217232
20398.596064	-1213.405000	954.948242	-85.850746
20398.596064	-1213.405000	953.776367	16.660618
20398.596064	-1213.405000	952.603516	-131.544052
20398.596064	-1213.405000	951.430664	-81.122993
20398.596064	-1213.405000	950.257813	108.596733
20398.596064	-1213.405000	949.084961	95.084000
20398.596064	-1213.405000	947.911133	64.224709
20398.596064	-1213.405000	946.737305	85.928040
20398.596064	-1213.405000	945.563477	-102.203362
20398.596064	-1213.405000	944.388672	-30.512156
20398.596064	-1213.405000	943.213867	-3.027608
20398.596064	-1213.405000	942.039063	79.787476
20398.596064	-1213.405000	940.864258	44.465412
20398.596064	-1213.405000	939.688477	118.139053
20398.596064	-1213.405000	938.513672	159.022400
20398.596064	-1213.405000	937.337891	93.155479
20398.596064	-1213.405000	936.161133	88.484619
20398.596064	-1213.405000	934.985352	138.108627
20398.596064	-1213.405000	933.808594	157.313568
20398.596064	-1213.405000	932.631836	97.778275
20398.596064	-1213.405000	931.454102	156.123764
20398.596064	-1213.405000	930.277344	105.396217
20398.596064	-1213.405000	929.099609	100.523170
20398.596064	-1213.405000	927.921875	182.731354
20398.596064	-1213.405000	926.743164	66.641708
20398.596064	-1213.405000	925.565430	164.084717
20398.596064	-1213.405000	924.386719	52.349087
20398.596064	-1213.405000	923.208008	-179.117706
20398.596064	-1213.405000	922.028320	44.577709
20398.596064	-1213.405000	920.849609	-19.198006
20398.596064	-1213.405000	919.669922	-15.966784
20398.596064	-1213.405000	919.474609	45.995491
20398.596064	-1213.405000	918.309570	-146.224609
20398.596064	-1213.405000	917.143555	24.979597
20398.596064	-1213.405000	915.977539	-51.892601
20398.596064	-1213.405000	914.810547	193.141876
20398.596064	-1213.405000	913.644531	122.760429
20398.596064	-1213.405000	912.477539	115.441879
20398.596064	-1213.405000	911.310547	84.201202
20398.596064	-1213.405000	910.143555	-51.352253
20398.596064	-1213.405000	908.975586	17.369995
20398.596064	-1213.405000	907.807617	-142.038452
20398.596064	-1213.405000	906.639648	67.811539
20398.596064	-1213.405000	905.471680	101.680199
20398.596064	-1213.405000	904.303711	-1.250363
20398.596064	-1213.405000	903.134766	-54.229656
20398.596064	-1213.405000	901.965820	57.720245
20398.596064	-1213.405000	900.796875	9.058289
20398.596064	-1213.405000	899.626953	34.154060
20398.596064	-1213.405000	898.457031	-10.174640
20398.596064	-1213.405000	897.287109	88.604362
20398.596064	-1213.405000	896.117188	20.405088
20398.596064	-1213.405000	894.947266	110.436455
20398.596064	-1213.405000	893.776367	183.082611
20398.596064	-1213.405000	892.605469	182.021759
20398.596064	-1213.405000	891.434570	96.467705
20398.596064	-1213.405000	890.262695	218.835800
20398.596064	-1213.405000	889.091797	159.258972
20398.596064	-1213.405000	887.919922	10.938089
20398.596064	-1213.405000	886.748047	167.827774
20398.596064	-1213.405000	885.575195	71.467331
20398.596064	-1213.405000	884.403320	-52.996532
20398.596064	-1213.405000	883.230469	188.118362
20398.596064	-1213.405000	882.057617	20.399496
20398.596064	-1213.405000	880.883789	47.321640
20398.596064	-1213.405000	879.710938	-105.202759
20398.596064	-1213.405000	878.537109	-2.657673
20398.596064	-1213.405000	877.362305	-116.245888
20398.596064	-1213.405000	876.188477	-41.860058
20398.596064	-1213.405000	875.013672	103.757446
20398.596064	-1213.405000	873.839844	149.960129
20398.596064	-1213.405000	872.664063	66.590179
20398.596064	-1213.405000	871.489258	155.919418
20398.596064	-1213.405000	870.313477	38.017342
20398.596064	-1213.405000	869.138672	-69.069557
20398.596064	-1213.405000	867.962891	13.707644
20398.596064	-1213.405000	866.786133	85.650520
20398.596064	-1213.405000	865.610352	-112.000023
20398.596064	-1213.405000	864.433594	31.046049
20398.596064	-1213.405000	863.256836	-2.732977
20398.596064	-1213.405000	862.079102	6.584644
20398.596064	-1213.405000	860.902344	20.186214
20398.596064	-1213.405000	859.724609	5.761047
20398.596064	-1213.405000	858.546875	66.701546
20398.596064	-1213.405000	857.368164	17.781921
20398.596064	-1213.405000	856.190430	29.139786
20398.596064	-1213.405000	855.011719	34.018021
20398.596064	-1213.405000	853.833008	-75.179192
20398.596064	-1213.405000	852.654297	58.765747
20398.596064	-1213.405000	851.474609	-56.883801
20398.596064	-1213.405000	850.294922	21.046904
20398.596064	-1213.405000	849.115234	131.176819
20398.596064	-1213.405000	847.935547	-42.523045
20398.596064	-1213.405000	846.754883	-20.587255
20398.596064	-1213.405000	845.575195	-13.725559
20398.596064	-1213.405000	844.393555	-56.298691
20398.596064	-1213.405000	843.212891	36.442871
20398.596064	-1213.405000	842.032227	17.453293
20398.596064	-1213.405000	840.850586	-10.138036
20398.596064	-1213.405000	839.668945	-102.139153
20398.596064	-1213.405000	838.486328	48.395214
20398.596064	-1213.405000	837.304688	-41.481750
20398.596064	-1213.405000	836.122070	8.102107
20398.596064	-1213.405000	834.939453	46.916454
20398.596064	-1213.405000	833.756836	-90.150734
20398.596064	-1213.405000	832.573242	-36.370113
20398.596064	-1213.405000	831.389648	75.238968
20398.596064	-1213.405000	830.206055	-38.247036
20398.596064	-1213.405000	829.022461	-27.437706
20398.596064	-1213.405000	827.838867	-76.639900
20398.596064	-1213.405000	826.654297	11.227661
20398.596064	-1213.405000	825.469727	51.924541
20398.596064	-1213.405000	824.284180	128.974838
20398.596064	-1213.405000	823.099609	21.887300
20398.596064	-1213.405000	821.914063	-27.400517
20398.596064	-1213.405000	820.728516	96.610291
20398.596064	-1213.405000	819.542969	-123.855888
20398.596064	-1213.405000	818.356445	-156.052902
20398.596064	-1213.405000	817.169922	23.422026
20398.596064	-1213.405000	815.983398	-60.153980
20398.596064	-1213.405000	814.796875	-145.860733
20398.596064	-1213.405000	813.609375	-15.730492
20398.596064	-1213.405000	812.422852	67.314735
20398.596064	-1213.405000	811.235352	167.385910
20398.596064	-1213.405000	810.046875	-61.492828
20398.596064	-1213.405000	808.859375	-85.332230
20398.596064	-1213.405000	807.670898	46.643574
20398.596064	-1213.405000	806.482422	-105.322594
20398.596064	-1213.405000	805.293945	-95.084465
20398.596064	-1213.405000	804.104492	6.855777
20398.596064	-1213.405000	802.915039	87.394348
20398.596064	-1213.405000	801.725586	-28.321026
20398.596064	-1213.405000	800.536133	99.035606
20398.596064	-1213.405000	799.345703	-116.881287
20398.596064	-1213.405000	798.155273	10.379775
20398.596064	-1213.405000	796.964844	-13.725851
20398.596064	-1213.405000	795.774414	-37.853172
20398.596064	-1213.405000	794.583008	-151.455246
20398.596064	-1213.405000	793.392578	5.391917
20398.596064	-1213.405000	792.200195	2.470617
20398.596064	-1213.405000	791.008789	18.673914
20398.596064	-1213.405000	789.816406	-197.123947
20398.596064	-1213.405000	788.625000	-114.994858
20398.596064	-1213.405000	787.432617	-118.021202
20398.596064	-1213.405000	786.239258	4.400229
20398.596064	-1213.405000	785.046875	-51.875019
20398.596064	-1213.405000	783.853516	-84.775703
20398.596064	-1213.405000	782.660156	20.456667
20398.596064	-1213.405000	781.465820	-6.138573
20398.596064	-1213.405000	780.272461	86.217682
20398.596064	-1213.405000	779.078125	53.177521
20398.596064	-1213.405000	777.883789	145.413132
20398.596064	-1213.405000	776.688477	69.839218
20398.596064	-1213.405000	775.494141	-94.896698
20398.596064	-1213.405000	774.298828	105.446114
20398.596064	-1213.405000	773.103516	-108.105057
20398.596064	-1213.405000	771.907227	22.076317
20398.596064	-1213.405000	770.711914	27.025681
20398.596064	-1213.405000	769.515625	316.096832
20398.596064	-1213.405000	768.318359	2.886184
20398.596064	-1213.405000	767.122070	117.951347
20398.596064	-1213.405000	765.924805	99.416946
20398.596064	-1213.405000	764.727539	61.783638
20398.596064	-1213.405000	763.530273	123.692383
20398.596064	-1213.405000	762.333008	75.404259
20398.596064	-1213.405000	761.134766	60.978664
20398.596064	-1213.405000	759.936523	54.988659
20398.596064	-1213.405000	758.738281	-8.186016
20398.596064	-1213.405000	757.540039	-3.654868
20398.596064	-1213.405000	756.340820	-5.511932
20398.596064	-1213.405000	755.141602	49.706623
20398.596064	-1213.405000	753.942383	-9.339662
20398.596064	-1213.405000	752.742188	52.121315
20398.596064	-1213.405000	751.541992	-15.435770
20398.596064	-1213.405000	750.341797	-9.030067
20398.596064	-1213.405000	749.141602	73.405212
20398.596064	-1213.405000	747.941406	-4.796040
20398.596064	-1213.405000	746.740234	47.953075
20398.596064	-1213.405000	745.539063	30.951155
20398.596064	-1213.405000	744.337891	39.252800
20398.596064	-1213.405000	743.135742	121.391617
20398.596064	-1213.405000	741.933594	38.839645
20398.596064	-1213.405000	740.731445	78.663231
20398.596064	-1213.405000	739.529297	-16.583975
20398.596064	-1213.405000	738.326172	84.318047
20398.596064	-1213.405000	737.124023	18.550648
20398.596064	-1213.405000	735.919922	112.996086
20398.596064	-1213.405000	734.716797	-64.546822
20398.596064	-1213.405000	733.513672	6.614599
20398.596064	-1213.405000	732.309570	60.849163
20398.596064	-1213.405000	731.105469	30.760120
20398.596064	-1213.405000	729.900391	65.929123
20398.596064	-1213.405000	728.696289	-6.342340
20398.596064	-1213.405000	727.491211	9.791153
20398.596064	-1213.405000	726.286133	19.562895
20398.596064	-1213.405000	725.080078	-42.257572
20398.596064	-1213.405000	723.874023	51.591927
20398.596064	-1213.405000	722.668945	75.949387
20398.596064	-1213.405000	721.461914	-61.675594
20398.596064	-1213.405000	720.255859	-87.848671
20398.596064	-1213.405000	719.048828	-8.947969
20398.596064	-1213.405000	717.841797	124.521805
20398.596064	-1213.405000	716.634766	98.201355
20398.596064	-1213.405000	715.427734	-33.186592
20398.596064	-1213.405000	714.219727	-67.946938
20398.596064	-1213.405000	713.011719	23.260506
20398.596064	-1213.405000	711.803711	-7.379598
20398.596064	-1213.405000	710.594727	-19.157568
20398.596064	-1213.405000	709.385742	122.224411
20398.596064	-1213.405000	708.176758	133.422226
20398.596064	-1213.405000	706.967773	-2.263188
20398.596064	-1213.405000	705.758789	-188.266281
20398.596064	-1213.405000	704.548828	-76.485367
20398.596064	-1213.405000	703.338867	-61.224514
20398.596064	-1213.405000	702.127930	54.593498
20398.596064	-1213.405000	700.917969	19.448547
20398.596064	-1213.405000	699.707031	-45.053490
20398.596064	-1213.405000	698.496094	-36.256046
20398.596064	-1213.405000	697.285156	152.597443
20398.596064	-1213.405000	696.073242	-119.290939
20398.596064	-1213.405000	694.861328	-83.389496
20398.596064	-1213.405000	693.649414	-85.213135
20398.596064	-1213.405000	692.436523	-149.848877
20398.596064	-1213.405000	691.224609	38.635380
20398.596064	-1213.405000	690.011719	30.395880
20398.596064	-1213.405000	688.798828	122.495270
20398.596064	-1213.405000	687.584961	-21.727770
20398.596064	-1213.405000	686.372070	84.900345
20398.596064	-1213.405000	685.158203	49.340351
20398.596064	-1213.405000	683.943359	93.150589
20398.596064	-1213.405000	682.729492	205.842239
20398.596064	-1213.405000	681.514648	76.186958
20398.596064	-1213.405000	680.299805	230.521088
20398.596064	-1213.405000	679.084961	203.136002
20398.596064	-1213.405000	677.869141	261.297455
20398.596064	-1213.405000	676.653320	217.150558
20398.596064	-1213.405000	675.437500	239.749374
20398.596064	-1213.405000	674.221680	-15.109817
20398.596064	-1213.405000	673.004883	236.849457
20398.596064	-1213.405000	671.789063	171.761032
20398.596064	-1213.405000	670.571289	94.155548
20398.596064	-1213.405000	669.354492	147.847946
20398.596064	-1213.405000	668.136719	226.487320
20398.596064	-1213.405000	666.919922	213.405014
20398.596064	-1213.405000	665.701172	171.132385
20398.596064	-1213.405000	664.483398	214.223999
20398.596064	-1213.405000	663.264648	248.938141
20398.596064	-1213.405000	662.045898	250.304092
20398.596064	-1213.405000	660.827148	155.915161
20398.596064	-1213.405000	659.608398	167.644882
20398.596064	-1213.405000	658.388672	166.858414
20398.596064	-1213.405000	657.168945	153.566635
20398.596064	-1213.405000	655.949219	223.422424
20398.596064	-1213.405000	654.728516	218.382706
20398.596064	-1213.405000	653.507813	317.235779
20398.596064	-1213.405000	652.287109	243.555435
20398.596064	-1213.405000	651.066406	157.415527
20398.596064	-1213.405000	649.844727	152.289551
20398.596064	-1213.405000	648.623047	167.908295
20398.596064	-1213.405000	647.401367	135.745010
20398.596064	-1213.405000	646.179688	97.345261
20398.596064	-1213.405000	644.957031	330.798737
20398.596064	-1213.405000	643.734375	242.531616
20398.596064	-1213.405000	642.511719	249.703751
20398.596064	-1213.405000	641.289063	134.487671
20398.596064	-1213.405000	640.065430	89.799210
20398.596064	-1213.405000	638.841797	285.588104
20398.596064	-1213.405000	637.618164	130.998642
20398.596064	-1213.405000	636.393555	82.136032
20398.596064	-1213.405000	635.168945	60.210873
20398.596064	-1213.405000	633.944336	-30.074961
20398.596064	-1213.405000	632.719727	61.900349
20398.596064	-1213.405000	631.494141	54.437378
20398.596064	-1213.405000	630.269531	49.036766
20398.596064	-1213.405000	629.042969	124.332184
20398.596064	-1213.405000	627.817383	7.157291
20398.596064	-1213.405000	626.590820	107.229683
20398.596064	-1213.405000	625.365234	163.818665
20398.596064	-1213.405000	624.137695	25.992409
20398.596064	-1213.405000	622.911133	154.909882
20398.596064	-1213.405000	621.683594	33.661728
20398.596064	-1213.405000	620.456055	-60.679001
20398.596064	-1213.405000	619.228516	-64.079269
20398.596064	-1213.405000	618.000977	-69.550949
20398.596064	-1213.405000	616.772461	98.447754
20398.596064	-1213.405000	615.543945	43.377651
20398.596064	-1213.405000	614.314453	-9.612014
20398.596064	-1213.405000	613.085938	-29.556486
20398.596064	-1213.405000	611.856445	-45.370991
20398.596064	-1213.405000	610.626953	-42.613255
20398.596064	-1213.405000	609.397461	-83.171089
20398.596064	-1213.405000	608.166992	-129.900116
20398.596064	-1213.405000	606.936523	-158.052368
20398.596064	-1213.405000	605.706055	38.484352
20398.596064	-1213.405000	604.474609	-68.001022
20398.596064	-1213.405000	603.244141	10.999241
20398.596064	-1213.405000	602.012695	52.889328
20398.596064	-1213.405000	600.780273	63.871300
20398.596064	-1213.405000	599.548828	204.578842
20398.596064	-1213.405000	598.316406	186.717957
20398.596064	-1213.405000	597.083984	84.486763
20398.596064	-1213.405000	595.851563	-174.078690
20398.596064	-1213.405000	594.618164	180.547928
20398.596064	-1213.405000	593.384766	10.535442
20398.596064	-1213.405000	592.151367	-112.095726
20398.596064	-1213.405000	590.917969	-59.903286
20398.596064	-1213.405000	589.683594	-141.331558
20398.596064	-1213.405000	588.449219	19.792141
20398.596064	-1213.405000	587.214844	69.910103
20398.596064	-1213.405000	585.979492	9.091719
20398.596064	-1213.405000	584.745117	36.632519
20398.596064	-1213.405000	583.509766	103.190910
20398.596064	-1213.405000	582.273438	-70.454842
20398.596064	-1213.405000	581.038086	106.971169
20398.596064	-1213.405000	579.801758	278.184082
20398.596064	-1213.405000	578.565430	86.209938
20398.596064	-1213.405000	577.329102	31.769350
20398.596064	-1213.405000	576.091797	-110.808426
20398.596064	-1213.405000	574.854492	-29.818687
20398.596064	-1213.405000	573.617188	-16.484222
20398.596064	-1213.405000	572.378906	70.648300
20398.596064	-1213.405000	571.141602	-69.665108
20398.596064	-1213.405000	569.903320	48.224552
20398.596064	-1213.405000	568.664063	118.982231
20398.596064	-1213.405000	567.425781	118.074692
20398.596064	-1213.405000	566.186523	182.705765
20398.596064	-1213.405000	564.947266	85.643372
20398.596064	-1213.405000	563.708008	82.786728
20398.596064	-1213.405000	562.467773	0.171313
20398.596064	-1213.405000	561.227539	-59.875473
20398.596064	-1213.405000	559.987305	-66.690788
20398.596064	-1213.405000	558.747070	49.208504
20398.596064	-1213.405000	557.505859	-27.060989
20398.596064	-1213.405000	556.264648	-105.305832
20398.596064	-1213.405000	555.023438	33.111362
20398.596064	-1213.405000	553.781250	22.374638
20398.596064	-1213.405000	552.539063	42.317905
20398.596064	-1213.405000	551.296875	-27.555281
20398.596064	-1213.405000	550.054688	27.174620
20398.596064	-1213.405000	548.811523	171.729782
20398.596064	-1213.405000	547.569336	132.604141
20398.596064	-1213.405000	546.325195	289.396698
20398.596064	-1213.405000	545.082031	231.986069
20398.596064	-1213.405000	543.837891	103.263359
20398.596064	-1213.405000	542.593750	115.324753
20398.596064	-1213.405000	541.349609	-104.964066
20398.596064	-1213.405000	540.105469	64.155136
20398.596064	-1213.405000	538.860352	-5.156911
20398.596064	-1213.405000	537.615234	-23.465391
20398.596064	-1213.405000	536.369141	80.483231
20398.596064	-1213.405000	535.124023	-76.214577
20398.596064	-1213.405000	533.877930	54.259430
20398.596064	-1213.405000	532.631836	-171.480530
20398.596064	-1213.405000	531.384766	-136.596893
20398.596064	-1213.405000	530.138672	-83.368637
20398.596064	-1213.405000	528.891602	-255.907028
20398.596064	-1213.405000	527.643555	-37.856384
20398.596064	-1213.405000	526.396484	-100.440331
20398.596064	-1213.405000	525.148438	-120.262222
20398.596064	-1213.405000	523.900391	-28.246426
20398.596064	-1213.405000	522.652344	12.977118
20398.596064	-1213.405000	521.403320	-130.638809
20398.596064	-1213.405000	520.154297	26.454821
20398.596064	-1213.405000	518.905273	161.189468
20398.596064	-1213.405000	517.656250	137.558060
20398.596064	-1213.405000	516.406250	51.058273
20398.596064	-1213.405000	515.156250	35.669476
20398.596064	-1213.405000	513.906250	109.604179
20398.596064	-1213.405000	512.655273	134.868805
20398.596064	-1213.405000	511.404297	38.485428
20398.596064	-1213.405000	510.153320	96.285538
20398.596064	-1213.405000	508.902344	200.729507
20398.596064	-1213.405000	507.650391	167.353958
20398.596064	-1213.405000	506.398438	79.326103
20398.596064	-1213.405000	505.146484	66.334633
20398.596064	-1213.405000	503.893555	334.921967
20398.596064	-1213.405000	502.641602	407.012543
20398.596064	-1213.405000	501.388672	329.294464
20398.596064	-1213.405000	500.134766	290.105652
20398.596064	-1213.405000	498.881836	252.995224
20398.596064	-1213.405000	497.627930	149.170731
20398.596064	-1213.405000	496.374023	263.888458
20398.596064	-1213.405000	495.119141	237.025543
20398.596064	-1213.405000	493.865234	210.206696
20398.596064	-1213.405000	492.610352	296.634552
20398.596064	-1213.405000	491.355469	269.875549
20398.596064	-1213.405000	490.099609	305.794861
20398.596064	-1213.405000	488.843750	408.392334
20398.596064	-1213.405000	487.587891	222.145676
20398.596064	-1213.405000	486.332031	205.626343
20398.596064	-1213.405000	485.075195	364.777405
20398.596064	-1213.405000	483.818359	251.388275
20398.596064	-1213.405000	482.561523	245.021362
20398.596064	-1213.405000	481.304688	291.128601
20398.596064	-1213.405000	480.046875	238.389053
20398.596064	-1213.405000	478.789063	347.019501
20398.596064	-1213.405000	477.531250	155.186401
20398.596064	-1213.405000	476.272461	376.688721
20398.596064	-1213.405000	475.013672	446.944061
20398.596064	-1213.405000	473.754883	349.926208
20398.596064	-1213.405000	472.496094	256.977051
20398.596064	-1213.405000	471.236328	617.234985
20398.596064	-1213.405000	469.976563	701.457031
20398.596064	-1213.405000	468.716797	463.513947
20398.596064	-1213.405000	467.456055	549.718628
20398.596064	-1213.405000	466.196289	611.719666
20398.596064	-1213.405000	464.935547	715.923035
20398.596064	-1213.405000	463.673828	546.491150
20398.596064	-1213.405000	462.413086	519.889648
20398.596064	-1213.405000	461.151367	724.487976
20398.596064	-1213.405000	459.889648	764.125244
20398.596064	-1213.405000	458.626953	669.049744
20398.596064	-1213.405000	457.364258	716.631775
20398.596064	-1213.405000	456.101563	723.964539
20398.596064	-1213.405000	454.838867	723.206604
20398.596064	-1213.405000	453.575195	672.188660
20398.596064	-1213.405000	452.312500	807.834778
20398.596064	-1213.405000	451.047852	816.900696
20398.596064	-1213.405000	449.784180	835.923462
20398.596064	-1213.405000	448.519531	744.511536
20398.596064	-1213.405000	447.254883	803.493225
20398.596064	-1213.405000	445.990234	744.038818
20398.596064	-1213.405000	444.725586	975.236328
20398.596064	-1213.405000	443.459961	987.734070
20398.596064	-1213.405000	442.194336	1044.209595
20398.596064	-1213.405000	440.927734	1090.525635
20398.596064	-1213.405000	439.662109	800.155823
20398.596064	-1213.405000	438.395508	898.329285
20398.596064	-1213.405000	437.127930	1022.354309
20398.596064	-1213.405000	435.861328	893.940247
20398.596064	-1213.405000	434.593750	771.436890
20398.596064	-1213.405000	433.326172	778.899292
20398.596064	-1213.405000	432.058594	774.192078
20398.596064	-1213.405000	430.790039	627.297607
20398.596064	-1213.405000	429.521484	642.270630
20398.596064	-1213.405000	428.252930	723.026978
20398.596064	-1213.405000	426.984375	509.712769
20398.596064	-1213.405000	425.714844	562.082397
20398.596064	-1213.405000	424.445313	530.298828
20398.596064	-1213.405000	423.174805	588.195679
20398.596064	-1213.405000	421.905273	450.114960
20398.596064	-1213.405000	420.634766	695.227417
20398.596064	-1213.405000	419.364258	586.634216
20398.596064	-1213.405000	418.092773	595.581482
20398.596064	-1213.405000	416.822266	670.109131
20398.596064	-1213.405000	415.550781	678.484009
20398.596064	-1213.405000	414.278320	925.910034
20398.596064	-1213.405000	413.006836	756.152161
20398.596064	-1213.405000	411.734375	695.805420
20398.596064	-1213.405000	410.461914	960.067505
20398.596064	-1213.405000	409.188477	592.137268
20398.596064	-1213.405000	407.916016	646.418396
20398.596064	-1213.405000	406.642578	598.718750
20398.596064	-1213.405000	405.368164	628.332092
20398.596064	-1213.405000	404.094727	595.828857
20398.596064	-1213.405000	402.820313	682.376831
20398.596064	-1213.405000	401.545898	641.100281
20398.596064	-1213.405000	400.270508	607.368225
20398.596064	-1213.405000	398.996094	531.443848
20398.596064	-1213.405000	397.720703	723.601624
20398.596064	-1213.405000	396.444336	811.797119
20398.596064	-1213.405000	395.168945	732.481506
20398.596064	-1213.405000	393.892578	499.643829
20398.596064	-1213.405000	392.616211	691.664734
20398.596064	-1213.405000	391.339844	459.886414
20398.596064	-1213.405000	390.062500	444.169495
20398.596064	-1213.405000	388.785156	717.846924
20398.596064	-1213.405000	387.507813	641.380188
20398.596064	-1213.405000	386.229492	518.686157
20398.596064	-1213.405000	384.951172	572.067810
20398.596064	-1213.405000	383.672852	501.777527
20398.596064	-1213.405000	382.394531	488.401520
20398.596064	-1213.405000	381.115234	757.973511
20398.596064	-1213.405000	379.835938	679.735413
20398.596064	-1213.405000	378.556641	493.774353
20398.596064	-1213.405000	377.277344	515.289185
20398.596064	-1213.405000	375.997070	524.150085
20398.596064	-1213.405000	374.716797	617.436462
20398.596064	-1213.405000	373.435547	361.270386
20398.596064	-1213.405000	372.155273	484.653809
20398.596064	-1213.405000	370.874023	662.579773
20398.596064	-1213.405000	369.591797	803.933655
20398.596064	-1213.405000	368.310547	649.500244
20398.596064	-1213.405000	367.028320	484.331055
20398.596064	-1213.405000	365.746094	211.499252
20398.596064	-1213.405000	364.463867	394.710754
20398.596064	-1213.405000	363.180664	321.785187
20398.596064	-1213.405000	361.897461	342.798431
20398.596064	-1213.405000	360.614258	295.592865
20398.596064	-1213.405000	359.330078	241.422028
20398.596064	-1213.405000	358.045898	288.944733
20398.596064	-1213.405000	356.761719	171.422012
20398.596064	-1213.405000	355.477539	264.134888
20398.596064	-1213.405000	354.192383	294.437317
20398.596064	-1213.405000	352.907227	309.742432
20398.596064	-1213.405000	351.622070	369.235229
20398.596064	-1213.405000	350.336914	186.772095
20398.596064	-1213.405000	349.050781	344.361572
20398.596064	-1213.405000	347.764648	82.504440
20398.596064	-1213.405000	346.477539	111.231651
20398.596064	-1213.405000	345.191406	111.039711
20398.596064	-1213.405000	343.904297	160.683456
20398.596064	-1213.405000	342.616211	169.455627
20398.596064	-1213.405000	341.329102	86.203026
20398.596064	-1213.405000	340.041016	21.175598
20398.596064	-1213.405000	338.752930	106.298393
20398.596064	-1213.405000	337.463867	134.683044
20398.596064	-1213.405000	336.175781	98.540581
20398.596064	-1213.405000	334.886719	96.188835
20398.596064	-1213.405000	333.596680	-96.721382
20398.596064	-1213.405000	332.307617	212.372192
20398.596064	-1213.405000	331.017578	23.997122
20398.596064	-1213.405000	329.727539	-138.521759
20398.596064	-1213.405000	328.436523	192.552139
20398.596064	-1213.405000	327.146484	-67.879837
20398.596064	-1213.405000	325.855469	-255.450424
20398.596064	-1213.405000	324.563477	191.573471
20398.596064	-1213.405000	323.272461	39.457169
20398.596064	-1213.405000	321.980469	-0.749061
20398.596064	-1213.405000	320.688477	6.112006
20398.596064	-1213.405000	319.395508	22.615982
20398.596064	-1213.405000	318.103516	-167.018005
20398.596064	-1213.405000	316.810547	-40.968273
20398.596064	-1213.405000	315.516602	-11.388576
20398.596064	-1213.405000	314.223633	-93.818748
20398.596064	-1213.405000	312.929688	-43.293610
20398.596064	-1213.405000	311.635742	-67.654480
20398.596064	-1213.405000	310.340820	-86.624374
20398.596064	-1213.405000	309.045898	-119.777000
20398.596064	-1213.405000	307.750977	169.770782
20398.596064	-1213.405000	306.456055	59.099651
20398.596064	-1213.405000	305.160156	239.516342
20398.596064	-1213.405000	303.865234	45.363525
20398.596064	-1213.405000	302.568359	187.031662
20398.596064	-1213.405000	301.272461	257.498505
20398.596064	-1213.405000	299.975586	309.407623
20398.596064	-1213.405000	298.678711	334.977692
