#X		#Y		#Wave		#Intensity
20401.970213	-1214.874000	1999.980469	-137.331848
20401.970213	-1214.874000	1999.016602	129.034515
20401.970213	-1214.874000	1998.052734	-237.160690
20401.970213	-1214.874000	1997.087891	-93.627228
20401.970213	-1214.874000	1996.123047	-218.627487
20401.970213	-1214.874000	1995.158203	-69.480354
20401.970213	-1214.874000	1994.193359	-30.207344
20401.970213	-1214.874000	1993.228516	213.765213
20401.970213	-1214.874000	1992.262695	162.241379
20401.970213	-1214.874000	1991.297852	13.413389
20401.970213	-1214.874000	1990.332031	-168.270477
20401.970213	-1214.874000	1989.366211	134.380371
20401.970213	-1214.874000	1988.399414	144.293137
20401.970213	-1214.874000	1987.433594	39.726768
20401.970213	-1214.874000	1986.466797	117.554565
20401.970213	-1214.874000	1985.500977	219.430847
20401.970213	-1214.874000	1984.534180	33.886536
20401.970213	-1214.874000	1983.567383	90.037689
20401.970213	-1214.874000	1982.599609	-42.222183
20401.970213	-1214.874000	1981.632813	109.140495
20401.970213	-1214.874000	1980.665039	40.049622
20401.970213	-1214.874000	1979.697266	79.132805
20401.970213	-1214.874000	1978.729492	-134.183395
20401.970213	-1214.874000	1977.761719	42.183407
20401.970213	-1214.874000	1976.792969	-26.365097
20401.970213	-1214.874000	1975.825195	13.248610
20401.970213	-1214.874000	1974.856445	163.450775
20401.970213	-1214.874000	1973.887695	17.120745
20401.970213	-1214.874000	1972.918945	112.171082
20401.970213	-1214.874000	1971.949219	113.079605
20401.970213	-1214.874000	1970.980469	96.350098
20401.970213	-1214.874000	1970.010742	74.335503
20401.970213	-1214.874000	1969.041016	12.544406
20401.970213	-1214.874000	1968.071289	98.304588
20401.970213	-1214.874000	1967.101563	80.228645
20401.970213	-1214.874000	1966.130859	84.023712
20401.970213	-1214.874000	1965.161133	11.173171
20401.970213	-1214.874000	1964.190430	-91.482811
20401.970213	-1214.874000	1963.219727	172.480377
20401.970213	-1214.874000	1962.249023	342.548706
20401.970213	-1214.874000	1961.277344	143.132492
20401.970213	-1214.874000	1960.306641	-9.685163
20401.970213	-1214.874000	1959.334961	135.019699
20401.970213	-1214.874000	1958.363281	124.493744
20401.970213	-1214.874000	1957.391602	32.614017
20401.970213	-1214.874000	1956.419922	-20.078655
20401.970213	-1214.874000	1955.447266	133.573059
20401.970213	-1214.874000	1954.474609	203.427811
20401.970213	-1214.874000	1953.501953	211.659409
20401.970213	-1214.874000	1952.529297	173.053665
20401.970213	-1214.874000	1951.556641	-27.813866
20401.970213	-1214.874000	1950.583984	299.330383
20401.970213	-1214.874000	1949.610352	152.278000
20401.970213	-1214.874000	1948.636719	73.911423
20401.970213	-1214.874000	1947.663086	-63.447727
20401.970213	-1214.874000	1946.689453	110.842239
20401.970213	-1214.874000	1945.715820	-88.009850
20401.970213	-1214.874000	1944.741211	-186.289322
20401.970213	-1214.874000	1943.767578	-4.969067
20401.970213	-1214.874000	1942.792969	68.298134
20401.970213	-1214.874000	1941.818359	197.871277
20401.970213	-1214.874000	1940.842773	-285.559540
20401.970213	-1214.874000	1939.868164	-58.033028
20401.970213	-1214.874000	1938.892578	206.116989
20401.970213	-1214.874000	1937.916992	53.595566
20401.970213	-1214.874000	1936.941406	190.167130
20401.970213	-1214.874000	1935.965820	10.701344
20401.970213	-1214.874000	1934.990234	-4.649097
20401.970213	-1214.874000	1934.013672	-93.469223
20401.970213	-1214.874000	1933.037109	11.115095
20401.970213	-1214.874000	1932.060547	98.520599
20401.970213	-1214.874000	1931.083984	-149.350800
20401.970213	-1214.874000	1930.107422	77.500259
20401.970213	-1214.874000	1929.129883	-57.757313
20401.970213	-1214.874000	1928.153320	102.971588
20401.970213	-1214.874000	1927.175781	-78.677856
20401.970213	-1214.874000	1926.198242	-81.781013
20401.970213	-1214.874000	1925.219727	-79.981125
20401.970213	-1214.874000	1924.242188	-48.828426
20401.970213	-1214.874000	1923.263672	58.075409
20401.970213	-1214.874000	1922.285156	-57.336922
20401.970213	-1214.874000	1921.306641	-104.287308
20401.970213	-1214.874000	1920.328125	-95.021233
20401.970213	-1214.874000	1919.349609	-207.799957
20401.970213	-1214.874000	1918.370117	-137.423828
20401.970213	-1214.874000	1917.391602	-20.656565
20401.970213	-1214.874000	1916.412109	-79.588669
20401.970213	-1214.874000	1915.431641	203.099213
20401.970213	-1214.874000	1914.452148	-2.118062
20401.970213	-1214.874000	1913.472656	51.300346
20401.970213	-1214.874000	1912.492188	16.962719
20401.970213	-1214.874000	1911.511719	-17.313545
20401.970213	-1214.874000	1910.531250	67.909256
20401.970213	-1214.874000	1909.550781	-27.184233
20401.970213	-1214.874000	1908.569336	48.362617
20401.970213	-1214.874000	1907.588867	-256.086304
20401.970213	-1214.874000	1906.607422	21.739521
20401.970213	-1214.874000	1905.625977	-126.635498
20401.970213	-1214.874000	1904.644531	-158.033173
20401.970213	-1214.874000	1903.662109	-23.838945
20401.970213	-1214.874000	1902.680664	-123.277962
20401.970213	-1214.874000	1901.698242	-88.794472
20401.970213	-1214.874000	1900.715820	-100.490898
20401.970213	-1214.874000	1899.733398	-68.342880
20401.970213	-1214.874000	1898.750000	36.804947
20401.970213	-1214.874000	1897.767578	137.111115
20401.970213	-1214.874000	1896.784180	123.172501
20401.970213	-1214.874000	1895.800781	92.279465
20401.970213	-1214.874000	1894.817383	170.811371
20401.970213	-1214.874000	1893.833984	-17.899340
20401.970213	-1214.874000	1892.850586	-41.295746
20401.970213	-1214.874000	1891.866211	-13.628941
20401.970213	-1214.874000	1890.881836	60.217884
20401.970213	-1214.874000	1889.897461	-6.727866
20401.970213	-1214.874000	1888.913086	16.217398
20401.970213	-1214.874000	1887.927734	-28.756113
20401.970213	-1214.874000	1886.943359	-93.071075
20401.970213	-1214.874000	1885.958008	-171.875397
20401.970213	-1214.874000	1884.972656	142.346405
20401.970213	-1214.874000	1883.987305	209.129120
20401.970213	-1214.874000	1883.001953	130.447937
20401.970213	-1214.874000	1882.015625	30.016401
20401.970213	-1214.874000	1881.029297	-2.469802
20401.970213	-1214.874000	1880.042969	57.183079
20401.970213	-1214.874000	1879.056641	-13.985559
20401.970213	-1214.874000	1878.070313	-119.004730
20401.970213	-1214.874000	1877.083984	56.999813
20401.970213	-1214.874000	1876.096680	218.437820
20401.970213	-1214.874000	1875.109375	84.475113
20401.970213	-1214.874000	1874.122070	-56.670437
20401.970213	-1214.874000	1873.134766	-21.062258
20401.970213	-1214.874000	1872.146484	133.119461
20401.970213	-1214.874000	1871.159180	159.048553
20401.970213	-1214.874000	1870.170898	54.371437
20401.970213	-1214.874000	1869.182617	-26.063868
20401.970213	-1214.874000	1868.194336	164.351868
20401.970213	-1214.874000	1867.205078	187.905167
20401.970213	-1214.874000	1866.216797	136.538025
20401.970213	-1214.874000	1865.227539	17.535555
20401.970213	-1214.874000	1864.238281	-28.932226
20401.970213	-1214.874000	1863.249023	86.471291
20401.970213	-1214.874000	1862.259766	110.058273
20401.970213	-1214.874000	1861.269531	-6.419063
20401.970213	-1214.874000	1860.279297	46.145699
20401.970213	-1214.874000	1859.290039	168.690964
20401.970213	-1214.874000	1858.298828	3.987726
20401.970213	-1214.874000	1857.308594	254.363724
20401.970213	-1214.874000	1856.318359	-11.632053
20401.970213	-1214.874000	1855.327148	139.732925
20401.970213	-1214.874000	1854.335938	151.155792
20401.970213	-1214.874000	1853.344727	213.189743
20401.970213	-1214.874000	1852.353516	140.184814
20401.970213	-1214.874000	1851.362305	21.389502
20401.970213	-1214.874000	1850.370117	42.376022
20401.970213	-1214.874000	1849.377930	219.930374
20401.970213	-1214.874000	1848.385742	192.635956
20401.970213	-1214.874000	1847.393555	213.486359
20401.970213	-1214.874000	1846.401367	101.857925
20401.970213	-1214.874000	1845.408203	360.981873
20401.970213	-1214.874000	1844.415039	-8.266844
20401.970213	-1214.874000	1843.421875	241.070175
20401.970213	-1214.874000	1842.428711	360.336060
20401.970213	-1214.874000	1841.435547	226.914032
20401.970213	-1214.874000	1840.441406	358.061401
20401.970213	-1214.874000	1839.448242	330.395477
20401.970213	-1214.874000	1838.454102	300.275208
20401.970213	-1214.874000	1837.459961	330.203766
20401.970213	-1214.874000	1836.464844	196.624847
20401.970213	-1214.874000	1835.470703	320.151276
20401.970213	-1214.874000	1834.475586	282.593719
20401.970213	-1214.874000	1833.480469	417.928284
20401.970213	-1214.874000	1832.485352	401.839935
20401.970213	-1214.874000	1831.490234	116.755890
20401.970213	-1214.874000	1830.495117	436.675598
20401.970213	-1214.874000	1829.499023	417.958282
20401.970213	-1214.874000	1828.502930	511.956421
20401.970213	-1214.874000	1827.506836	315.514191
20401.970213	-1214.874000	1826.510742	330.161407
20401.970213	-1214.874000	1825.513672	586.950378
20401.970213	-1214.874000	1824.517578	435.898987
20401.970213	-1214.874000	1823.520508	344.744110
20401.970213	-1214.874000	1822.523438	380.571198
20401.970213	-1214.874000	1821.526367	380.335876
20401.970213	-1214.874000	1820.529297	303.322937
20401.970213	-1214.874000	1819.531250	92.068565
20401.970213	-1214.874000	1818.533203	223.310028
20401.970213	-1214.874000	1817.535156	330.445404
20401.970213	-1214.874000	1816.537109	274.613068
20401.970213	-1214.874000	1815.539063	331.201355
20401.970213	-1214.874000	1814.540039	174.628906
20401.970213	-1214.874000	1813.541992	549.250916
20401.970213	-1214.874000	1812.542969	502.515198
20401.970213	-1214.874000	1811.543945	474.811188
20401.970213	-1214.874000	1810.543945	279.571808
20401.970213	-1214.874000	1809.544922	273.189423
20401.970213	-1214.874000	1808.544922	202.123657
20401.970213	-1214.874000	1807.544922	111.830971
20401.970213	-1214.874000	1806.544922	164.828857
20401.970213	-1214.874000	1805.544922	174.662186
20401.970213	-1214.874000	1804.544922	358.746918
20401.970213	-1214.874000	1803.543945	93.579697
20401.970213	-1214.874000	1802.542969	384.782776
20401.970213	-1214.874000	1801.541992	4.820090
20401.970213	-1214.874000	1800.541016	-86.300476
20401.970213	-1214.874000	1799.539063	211.485596
20401.970213	-1214.874000	1798.538086	158.241882
20401.970213	-1214.874000	1797.536133	-9.658654
20401.970213	-1214.874000	1796.534180	141.984436
20401.970213	-1214.874000	1795.532227	-140.632324
20401.970213	-1214.874000	1794.529297	222.870422
20401.970213	-1214.874000	1793.527344	195.114487
20401.970213	-1214.874000	1792.524414	2.736197
20401.970213	-1214.874000	1791.521484	10.446638
20401.970213	-1214.874000	1790.518555	46.581161
20401.970213	-1214.874000	1789.514648	187.341766
20401.970213	-1214.874000	1788.511719	15.887118
20401.970213	-1214.874000	1787.507813	13.388280
20401.970213	-1214.874000	1786.503906	155.949860
20401.970213	-1214.874000	1785.500000	76.911278
20401.970213	-1214.874000	1784.496094	-106.986633
20401.970213	-1214.874000	1783.491211	-110.161797
20401.970213	-1214.874000	1782.486328	45.881805
20401.970213	-1214.874000	1781.481445	-119.416656
20401.970213	-1214.874000	1780.476563	-87.449020
20401.970213	-1214.874000	1779.471680	6.144836
20401.970213	-1214.874000	1778.465820	-157.227493
20401.970213	-1214.874000	1777.460938	-159.090820
20401.970213	-1214.874000	1776.455078	185.790985
20401.970213	-1214.874000	1775.449219	-13.712555
20401.970213	-1214.874000	1774.442383	95.462814
20401.970213	-1214.874000	1773.436523	-78.198380
20401.970213	-1214.874000	1772.429688	35.320004
20401.970213	-1214.874000	1771.422852	22.780899
20401.970213	-1214.874000	1770.416016	195.196136
20401.970213	-1214.874000	1769.409180	118.174271
20401.970213	-1214.874000	1768.402344	-115.609711
20401.970213	-1214.874000	1767.394531	44.281464
20401.970213	-1214.874000	1766.386719	-116.273918
20401.970213	-1214.874000	1765.378906	-23.231625
20401.970213	-1214.874000	1764.371094	-79.785645
20401.970213	-1214.874000	1763.362305	-89.120399
20401.970213	-1214.874000	1762.354492	31.713013
20401.970213	-1214.874000	1761.345703	-42.012135
20401.970213	-1214.874000	1760.336914	194.441177
20401.970213	-1214.874000	1759.328125	203.216064
20401.970213	-1214.874000	1758.318359	15.213284
20401.970213	-1214.874000	1757.308594	70.958633
20401.970213	-1214.874000	1756.299805	69.680832
20401.970213	-1214.874000	1755.290039	49.253670
20401.970213	-1214.874000	1754.279297	203.728073
20401.970213	-1214.874000	1753.269531	-6.396492
20401.970213	-1214.874000	1752.258789	-46.344902
20401.970213	-1214.874000	1751.249023	-17.879549
20401.970213	-1214.874000	1750.238281	31.637283
20401.970213	-1214.874000	1749.226563	-79.844864
20401.970213	-1214.874000	1748.215820	191.443146
20401.970213	-1214.874000	1747.204102	77.201477
20401.970213	-1214.874000	1746.193359	-242.746201
20401.970213	-1214.874000	1745.181641	108.109161
20401.970213	-1214.874000	1744.168945	-160.203598
20401.970213	-1214.874000	1743.157227	43.685375
20401.970213	-1214.874000	1742.144531	96.171783
20401.970213	-1214.874000	1741.132813	-38.029945
20401.970213	-1214.874000	1740.120117	-0.116568
20401.970213	-1214.874000	1739.106445	245.207535
20401.970213	-1214.874000	1738.093750	20.777161
20401.970213	-1214.874000	1737.080078	-104.723633
20401.970213	-1214.874000	1736.067383	80.930443
20401.970213	-1214.874000	1735.053711	117.749901
20401.970213	-1214.874000	1734.040039	201.500092
20401.970213	-1214.874000	1733.025391	-99.181793
20401.970213	-1214.874000	1732.011719	111.422417
20401.970213	-1214.874000	1730.997070	-17.541422
20401.970213	-1214.874000	1729.982422	-33.589287
20401.970213	-1214.874000	1728.967773	89.119301
20401.970213	-1214.874000	1727.952148	190.370224
20401.970213	-1214.874000	1726.937500	161.919785
20401.970213	-1214.874000	1725.921875	-66.809509
20401.970213	-1214.874000	1724.906250	123.242661
20401.970213	-1214.874000	1723.890625	211.849564
20401.970213	-1214.874000	1722.875000	493.125336
20401.970213	-1214.874000	1721.858398	47.316868
20401.970213	-1214.874000	1720.841797	149.386703
20401.970213	-1214.874000	1719.825195	472.224457
20401.970213	-1214.874000	1718.808594	486.813538
20401.970213	-1214.874000	1717.791992	416.598328
20401.970213	-1214.874000	1716.774414	482.478302
20401.970213	-1214.874000	1715.756836	381.344788
20401.970213	-1214.874000	1714.739258	848.474304
20401.970213	-1214.874000	1713.721680	638.904114
20401.970213	-1214.874000	1712.704102	865.940125
20401.970213	-1214.874000	1711.685547	1127.891235
20401.970213	-1214.874000	1710.667969	1291.003296
20401.970213	-1214.874000	1709.649414	1561.787476
20401.970213	-1214.874000	1708.630859	1576.557617
20401.970213	-1214.874000	1707.611328	1973.459717
20401.970213	-1214.874000	1706.592773	2090.969971
20401.970213	-1214.874000	1705.573242	2522.430908
20401.970213	-1214.874000	1704.553711	2555.012939
20401.970213	-1214.874000	1703.534180	2681.159424
20401.970213	-1214.874000	1702.513672	2907.823975
20401.970213	-1214.874000	1701.494141	2904.640137
20401.970213	-1214.874000	1700.473633	3027.755371
20401.970213	-1214.874000	1699.453125	2715.025146
20401.970213	-1214.874000	1698.432617	2922.084473
20401.970213	-1214.874000	1697.412109	3039.931152
20401.970213	-1214.874000	1696.390625	2981.984863
20401.970213	-1214.874000	1695.369141	2963.679443
20401.970213	-1214.874000	1694.347656	2765.050049
20401.970213	-1214.874000	1693.326172	3310.255371
20401.970213	-1214.874000	1692.304688	2900.808105
20401.970213	-1214.874000	1691.282227	3171.828125
20401.970213	-1214.874000	1690.260742	2967.993896
20401.970213	-1214.874000	1689.238281	2997.812744
20401.970213	-1214.874000	1688.214844	2950.312744
20401.970213	-1214.874000	1687.192383	2942.429932
20401.970213	-1214.874000	1686.168945	2861.947266
20401.970213	-1214.874000	1685.146484	2837.433594
20401.970213	-1214.874000	1684.123047	2630.598389
20401.970213	-1214.874000	1683.099609	2629.166504
20401.970213	-1214.874000	1682.075195	2618.226074
20401.970213	-1214.874000	1681.051758	2399.452148
20401.970213	-1214.874000	1680.027344	2252.934082
20401.970213	-1214.874000	1679.002930	2498.291260
20401.970213	-1214.874000	1677.978516	2281.558105
20401.970213	-1214.874000	1676.953125	2165.029541
20401.970213	-1214.874000	1675.928711	1990.149170
20401.970213	-1214.874000	1674.903320	1997.017456
20401.970213	-1214.874000	1673.877930	1896.536987
20401.970213	-1214.874000	1672.852539	1896.175781
20401.970213	-1214.874000	1671.826172	1737.227539
20401.970213	-1214.874000	1670.800781	1636.484253
20401.970213	-1214.874000	1669.774414	1593.857422
20401.970213	-1214.874000	1668.748047	1593.045044
20401.970213	-1214.874000	1667.721680	1852.868652
20401.970213	-1214.874000	1666.694336	1409.488770
20401.970213	-1214.874000	1665.667969	1331.574585
20401.970213	-1214.874000	1664.640625	1544.400757
20401.970213	-1214.874000	1663.613281	1477.878784
20401.970213	-1214.874000	1662.585938	1278.702515
20401.970213	-1214.874000	1661.557617	1498.050537
20401.970213	-1214.874000	1660.530273	1524.270752
20401.970213	-1214.874000	1659.501953	1503.862671
20401.970213	-1214.874000	1658.473633	1339.274414
20401.970213	-1214.874000	1657.444336	1662.592773
20401.970213	-1214.874000	1656.416016	1493.208984
20401.970213	-1214.874000	1655.386719	1542.110596
20401.970213	-1214.874000	1654.358398	1734.920532
20401.970213	-1214.874000	1653.328125	1621.028442
20401.970213	-1214.874000	1652.298828	1885.519531
20401.970213	-1214.874000	1651.269531	2015.214722
20401.970213	-1214.874000	1650.239258	2214.368164
20401.970213	-1214.874000	1649.208984	2042.164429
20401.970213	-1214.874000	1648.178711	2027.688721
20401.970213	-1214.874000	1647.148438	2337.832275
20401.970213	-1214.874000	1646.117188	2471.538086
20401.970213	-1214.874000	1645.086914	2702.525635
20401.970213	-1214.874000	1644.055664	2743.273682
20401.970213	-1214.874000	1643.024414	2987.873779
20401.970213	-1214.874000	1641.992188	3192.907227
20401.970213	-1214.874000	1640.960938	3328.344482
20401.970213	-1214.874000	1639.928711	3526.179443
20401.970213	-1214.874000	1638.896484	3638.214600
20401.970213	-1214.874000	1637.864258	4034.919434
20401.970213	-1214.874000	1636.832031	3922.203125
20401.970213	-1214.874000	1635.798828	3814.085938
20401.970213	-1214.874000	1634.766602	4184.955078
20401.970213	-1214.874000	1633.733398	4391.369629
20401.970213	-1214.874000	1632.699219	4440.364258
20401.970213	-1214.874000	1631.666016	4496.278320
20401.970213	-1214.874000	1630.632813	4644.623047
20401.970213	-1214.874000	1629.598633	4564.014648
20401.970213	-1214.874000	1628.564453	4892.476563
20401.970213	-1214.874000	1627.530273	4864.953125
20401.970213	-1214.874000	1626.495117	5160.820313
20401.970213	-1214.874000	1625.460938	4992.332520
20401.970213	-1214.874000	1624.425781	5170.260254
20401.970213	-1214.874000	1623.390625	5156.479004
20401.970213	-1214.874000	1622.355469	5165.780273
20401.970213	-1214.874000	1621.319336	5477.382324
20401.970213	-1214.874000	1620.284180	5329.707031
20401.970213	-1214.874000	1619.248047	5491.201172
20401.970213	-1214.874000	1618.211914	5505.017090
20401.970213	-1214.874000	1617.174805	5198.250000
20401.970213	-1214.874000	1616.138672	5853.117188
20401.970213	-1214.874000	1615.101563	5657.078125
20401.970213	-1214.874000	1614.065430	5528.000977
20401.970213	-1214.874000	1613.027344	5576.365234
20401.970213	-1214.874000	1611.990234	5815.985840
20401.970213	-1214.874000	1610.953125	5880.476563
20401.970213	-1214.874000	1609.915039	5820.575195
20401.970213	-1214.874000	1608.876953	5753.819336
20401.970213	-1214.874000	1607.838867	5908.123535
20401.970213	-1214.874000	1606.800781	6294.867676
20401.970213	-1214.874000	1605.761719	6380.011719
20401.970213	-1214.874000	1604.723633	6301.840820
20401.970213	-1214.874000	1603.684570	6221.411133
20401.970213	-1214.874000	1602.644531	6456.108887
20401.970213	-1214.874000	1601.605469	6486.147949
20401.970213	-1214.874000	1600.566406	6654.162109
20401.970213	-1214.874000	1599.526367	6500.343262
20401.970213	-1214.874000	1598.486328	6829.235352
20401.970213	-1214.874000	1597.446289	6804.224609
20401.970213	-1214.874000	1596.405273	6850.466309
20401.970213	-1214.874000	1595.365234	6942.721680
20401.970213	-1214.874000	1594.324219	7053.346680
20401.970213	-1214.874000	1593.283203	7230.576660
20401.970213	-1214.874000	1592.242188	6817.901855
20401.970213	-1214.874000	1591.200195	7309.629883
20401.970213	-1214.874000	1590.159180	7461.694824
20401.970213	-1214.874000	1589.117188	7331.583984
20401.970213	-1214.874000	1588.075195	7433.258301
20401.970213	-1214.874000	1587.032227	7301.051758
20401.970213	-1214.874000	1585.990234	7767.402344
20401.970213	-1214.874000	1584.947266	8112.145508
20401.970213	-1214.874000	1583.904297	7904.527344
20401.970213	-1214.874000	1582.861328	8072.865234
20401.970213	-1214.874000	1581.818359	7982.366699
20401.970213	-1214.874000	1580.775391	8242.440430
20401.970213	-1214.874000	1579.731445	7865.872559
20401.970213	-1214.874000	1578.687500	7810.093262
20401.970213	-1214.874000	1577.643555	7836.854492
20401.970213	-1214.874000	1576.598633	8067.375488
20401.970213	-1214.874000	1575.554688	7684.714355
20401.970213	-1214.874000	1574.509766	7663.753418
20401.970213	-1214.874000	1573.464844	7553.718750
20401.970213	-1214.874000	1572.419922	7567.336426
20401.970213	-1214.874000	1571.374023	6959.146484
20401.970213	-1214.874000	1570.329102	7000.558105
20401.970213	-1214.874000	1569.283203	6813.506836
20401.970213	-1214.874000	1568.237305	6825.460449
20401.970213	-1214.874000	1567.191406	6748.441895
20401.970213	-1214.874000	1566.144531	6527.664063
20401.970213	-1214.874000	1565.098633	6405.338867
20401.970213	-1214.874000	1564.051758	6052.564941
20401.970213	-1214.874000	1563.004883	5579.085449
20401.970213	-1214.874000	1561.957031	6062.225098
20401.970213	-1214.874000	1560.910156	5721.576172
20401.970213	-1214.874000	1559.862305	5787.288086
20401.970213	-1214.874000	1558.814453	5693.457520
20401.970213	-1214.874000	1557.766602	5456.143066
20401.970213	-1214.874000	1556.718750	5565.659668
20401.970213	-1214.874000	1555.669922	5385.748047
20401.970213	-1214.874000	1554.621094	5304.078125
20401.970213	-1214.874000	1553.573242	5261.371094
20401.970213	-1214.874000	1552.523438	5309.930664
20401.970213	-1214.874000	1551.474609	5401.946777
20401.970213	-1214.874000	1550.424805	5147.903809
20401.970213	-1214.874000	1549.375000	5315.375977
20401.970213	-1214.874000	1548.325195	4973.017090
20401.970213	-1214.874000	1547.275391	5136.262695
20401.970213	-1214.874000	1546.225586	5245.007324
20401.970213	-1214.874000	1545.174805	5171.855469
20401.970213	-1214.874000	1544.124023	4921.485840
20401.970213	-1214.874000	1543.073242	5155.829590
20401.970213	-1214.874000	1542.022461	4789.973633
20401.970213	-1214.874000	1540.970703	4388.055176
20401.970213	-1214.874000	1539.919922	4370.640625
20401.970213	-1214.874000	1538.868164	4053.437500
20401.970213	-1214.874000	1537.815430	4218.208008
20401.970213	-1214.874000	1536.763672	3940.173096
20401.970213	-1214.874000	1535.710938	3860.020508
20401.970213	-1214.874000	1534.659180	3757.416748
20401.970213	-1214.874000	1533.606445	3700.441406
20401.970213	-1214.874000	1532.552734	3641.407715
20401.970213	-1214.874000	1531.500000	3419.232910
20401.970213	-1214.874000	1530.446289	3544.479980
20401.970213	-1214.874000	1529.393555	3529.268555
20401.970213	-1214.874000	1528.338867	3577.741699
20401.970213	-1214.874000	1527.285156	3646.840088
20401.970213	-1214.874000	1526.231445	3292.179443
20401.970213	-1214.874000	1525.176758	3085.192383
20401.970213	-1214.874000	1524.122070	3184.450195
20401.970213	-1214.874000	1523.067383	3186.467773
20401.970213	-1214.874000	1522.012695	2901.010254
20401.970213	-1214.874000	1520.957031	3062.058594
20401.970213	-1214.874000	1519.901367	2783.971436
20401.970213	-1214.874000	1518.845703	2676.023926
20401.970213	-1214.874000	1517.790039	2778.863525
20401.970213	-1214.874000	1516.734375	2549.220703
20401.970213	-1214.874000	1515.677734	2566.516357
20401.970213	-1214.874000	1514.621094	2500.342285
20401.970213	-1214.874000	1513.564453	2310.036133
20401.970213	-1214.874000	1512.507813	2497.685059
20401.970213	-1214.874000	1511.450195	2127.054932
20401.970213	-1214.874000	1510.393555	2197.610352
20401.970213	-1214.874000	1509.335938	2107.909180
20401.970213	-1214.874000	1508.278320	2196.993164
20401.970213	-1214.874000	1507.219727	1967.745728
20401.970213	-1214.874000	1506.162109	1869.856689
20401.970213	-1214.874000	1505.103516	2074.834717
20401.970213	-1214.874000	1504.044922	1451.401733
20401.970213	-1214.874000	1502.986328	1487.592285
20401.970213	-1214.874000	1501.926758	1603.000122
20401.970213	-1214.874000	1500.868164	1348.585815
20401.970213	-1214.874000	1499.808594	1362.973511
20401.970213	-1214.874000	1498.749023	1323.481812
20401.970213	-1214.874000	1497.688477	1128.654663
20401.970213	-1214.874000	1496.628906	1206.987427
20401.970213	-1214.874000	1495.568359	1186.356323
20401.970213	-1214.874000	1494.507813	1048.803345
20401.970213	-1214.874000	1493.447266	1218.015015
20401.970213	-1214.874000	1492.386719	1135.109497
20401.970213	-1214.874000	1491.325195	1056.999146
20401.970213	-1214.874000	1490.263672	1215.637085
20401.970213	-1214.874000	1489.202148	1295.680298
20401.970213	-1214.874000	1488.140625	1184.627808
20401.970213	-1214.874000	1487.079102	1361.962646
20401.970213	-1214.874000	1486.016602	1557.487305
20401.970213	-1214.874000	1484.954102	1267.282227
20401.970213	-1214.874000	1483.891602	1380.076660
20401.970213	-1214.874000	1482.829102	1484.103760
20401.970213	-1214.874000	1481.765625	1491.670654
20401.970213	-1214.874000	1480.702148	1474.778687
20401.970213	-1214.874000	1479.638672	1653.682251
20401.970213	-1214.874000	1478.575195	1421.588989
20401.970213	-1214.874000	1477.511719	1553.792603
20401.970213	-1214.874000	1476.447266	1052.933350
20401.970213	-1214.874000	1475.382813	1086.915283
20401.970213	-1214.874000	1474.318359	1069.522339
20401.970213	-1214.874000	1473.253906	792.129761
20401.970213	-1214.874000	1472.189453	665.525269
20401.970213	-1214.874000	1471.124023	415.795624
20401.970213	-1214.874000	1470.058594	106.093582
20401.970213	-1214.874000	1468.993164	375.157806
20401.970213	-1214.874000	1467.927734	-169.126602
20401.970213	-1214.874000	1466.861328	55.804756
20401.970213	-1214.874000	1465.794922	-200.892639
20401.970213	-1214.874000	1464.728516	6.676001
20401.970213	-1214.874000	1463.662109	41.583172
20401.970213	-1214.874000	1462.594727	544.607178
20401.970213	-1214.874000	1461.528320	267.262604
20401.970213	-1214.874000	1460.460938	302.406830
20401.970213	-1214.874000	1459.393555	477.963104
20401.970213	-1214.874000	1458.326172	755.398315
20401.970213	-1214.874000	1457.257813	842.917725
20401.970213	-1214.874000	1456.189453	864.564819
20401.970213	-1214.874000	1455.121094	779.986145
20401.970213	-1214.874000	1454.052734	891.193420
20401.970213	-1214.874000	1452.984375	685.553711
20401.970213	-1214.874000	1451.915039	888.834229
20401.970213	-1214.874000	1450.845703	1062.844482
20401.970213	-1214.874000	1449.776367	918.476929
20401.970213	-1214.874000	1448.707031	1057.666992
20401.970213	-1214.874000	1447.636719	1040.741333
20401.970213	-1214.874000	1446.567383	960.331726
20401.970213	-1214.874000	1445.497070	1026.716675
20401.970213	-1214.874000	1444.425781	1283.535645
20401.970213	-1214.874000	1443.355469	1294.828613
20401.970213	-1214.874000	1442.285156	1383.311401
20401.970213	-1214.874000	1441.213867	1757.177368
20401.970213	-1214.874000	1440.142578	1720.223389
20401.970213	-1214.874000	1439.070313	1699.484985
20401.970213	-1214.874000	1437.999023	1590.439087
20401.970213	-1214.874000	1436.926758	1617.149658
20401.970213	-1214.874000	1435.854492	1848.386963
20401.970213	-1214.874000	1434.782227	1678.088013
20401.970213	-1214.874000	1433.709961	1587.832642
20401.970213	-1214.874000	1432.636719	1915.499512
20401.970213	-1214.874000	1431.563477	1825.937866
20401.970213	-1214.874000	1430.490234	1550.145386
20401.970213	-1214.874000	1429.416992	1646.467163
20401.970213	-1214.874000	1428.343750	1744.910400
20401.970213	-1214.874000	1427.269531	1739.751587
20401.970213	-1214.874000	1426.195313	1705.664795
20401.970213	-1214.874000	1425.121094	1437.854492
20401.970213	-1214.874000	1424.046875	1388.950806
20401.970213	-1214.874000	1422.971680	1376.776245
20401.970213	-1214.874000	1421.896484	1335.661621
20401.970213	-1214.874000	1420.821289	1434.846680
20401.970213	-1214.874000	1419.746094	1254.508301
20401.970213	-1214.874000	1418.669922	1131.128174
20401.970213	-1214.874000	1417.594727	1236.434326
20401.970213	-1214.874000	1416.518555	1269.842041
20401.970213	-1214.874000	1415.442383	1126.106445
20401.970213	-1214.874000	1414.365234	1161.954224
20401.970213	-1214.874000	1413.289063	1254.162231
20401.970213	-1214.874000	1412.211914	1239.587158
20401.970213	-1214.874000	1411.134766	1230.299316
20401.970213	-1214.874000	1410.057617	1190.559448
20401.970213	-1214.874000	1408.979492	1233.861206
20401.970213	-1214.874000	1407.902344	1178.586060
20401.970213	-1214.874000	1406.824219	1307.938721
20401.970213	-1214.874000	1405.746094	947.502014
20401.970213	-1214.874000	1404.666992	993.084778
20401.970213	-1214.874000	1403.588867	883.777344
20401.970213	-1214.874000	1402.509766	780.233826
20401.970213	-1214.874000	1401.430664	423.401001
20401.970213	-1214.874000	1400.351563	766.184021
20401.970213	-1214.874000	1399.271484	473.316681
20401.970213	-1214.874000	1398.192383	605.779419
20401.970213	-1214.874000	1397.112305	605.734436
20401.970213	-1214.874000	1396.031250	261.370667
20401.970213	-1214.874000	1394.951172	61.424969
20401.970213	-1214.874000	1393.871094	193.352127
20401.970213	-1214.874000	1392.790039	184.836441
20401.970213	-1214.874000	1391.708984	-177.437347
20401.970213	-1214.874000	1390.626953	-188.028641
20401.970213	-1214.874000	1389.545898	-118.685577
20401.970213	-1214.874000	1388.463867	-107.291107
20401.970213	-1214.874000	1387.381836	-98.235741
20401.970213	-1214.874000	1386.299805	101.346352
20401.970213	-1214.874000	1385.217773	3.692067
20401.970213	-1214.874000	1384.134766	123.219818
20401.970213	-1214.874000	1383.051758	142.926788
20401.970213	-1214.874000	1381.968750	-167.073227
20401.970213	-1214.874000	1380.885742	116.220268
20401.970213	-1214.874000	1379.802734	307.626129
20401.970213	-1214.874000	1378.718750	21.438782
20401.970213	-1214.874000	1377.634766	120.984291
20401.970213	-1214.874000	1376.550781	65.311913
20401.970213	-1214.874000	1375.465820	87.232323
20401.970213	-1214.874000	1374.381836	27.805302
20401.970213	-1214.874000	1373.296875	139.155884
20401.970213	-1214.874000	1372.211914	340.024933
20401.970213	-1214.874000	1371.126953	125.660881
20401.970213	-1214.874000	1370.041016	226.308975
20401.970213	-1214.874000	1368.955078	411.752350
20401.970213	-1214.874000	1367.869141	224.143707
20401.970213	-1214.874000	1366.783203	485.907135
20401.970213	-1214.874000	1365.697266	741.613220
20401.970213	-1214.874000	1364.610352	975.099976
20401.970213	-1214.874000	1363.523438	843.897522
20401.970213	-1214.874000	1362.436523	1260.775635
20401.970213	-1214.874000	1361.349609	1257.255981
20401.970213	-1214.874000	1360.261719	1546.808105
20401.970213	-1214.874000	1359.174805	1569.284790
20401.970213	-1214.874000	1358.086914	1490.767700
20401.970213	-1214.874000	1356.998047	1523.263306
20401.970213	-1214.874000	1355.910156	1436.906494
20401.970213	-1214.874000	1354.821289	1733.500610
20401.970213	-1214.874000	1353.732422	1606.386353
20401.970213	-1214.874000	1352.643555	1714.321899
20401.970213	-1214.874000	1351.554688	1874.105835
20401.970213	-1214.874000	1350.464844	2140.006592
20401.970213	-1214.874000	1349.375000	2265.586426
20401.970213	-1214.874000	1348.285156	2483.634521
20401.970213	-1214.874000	1347.195313	2665.883301
20401.970213	-1214.874000	1346.105469	3081.356689
20401.970213	-1214.874000	1345.014648	3174.567139
20401.970213	-1214.874000	1343.923828	3407.857910
20401.970213	-1214.874000	1342.833008	3746.576416
20401.970213	-1214.874000	1341.741211	4444.046875
20401.970213	-1214.874000	1340.650391	4892.576660
20401.970213	-1214.874000	1339.558594	5151.250977
20401.970213	-1214.874000	1338.466797	5336.962891
20401.970213	-1214.874000	1337.374023	5703.050293
20401.970213	-1214.874000	1336.282227	5815.112793
20401.970213	-1214.874000	1335.189453	5947.725098
20401.970213	-1214.874000	1334.096680	5989.294922
20401.970213	-1214.874000	1333.003906	6132.197266
20401.970213	-1214.874000	1331.910156	5767.978027
20401.970213	-1214.874000	1330.817383	5320.920410
20401.970213	-1214.874000	1329.723633	5242.685059
20401.970213	-1214.874000	1328.629883	4750.734863
20401.970213	-1214.874000	1327.535156	3959.470947
20401.970213	-1214.874000	1326.441406	3769.396484
20401.970213	-1214.874000	1325.346680	3785.636963
20401.970213	-1214.874000	1324.251953	3404.987061
20401.970213	-1214.874000	1323.156250	2886.972656
20401.970213	-1214.874000	1322.061523	2625.350342
20401.970213	-1214.874000	1320.965820	2375.001953
20401.970213	-1214.874000	1319.870117	2167.010986
20401.970213	-1214.874000	1318.774414	2077.852051
20401.970213	-1214.874000	1317.678711	1624.368286
20401.970213	-1214.874000	1316.582031	1661.979126
20401.970213	-1214.874000	1315.485352	1556.132324
20401.970213	-1214.874000	1314.388672	1310.652222
20401.970213	-1214.874000	1313.291016	1302.416992
20401.970213	-1214.874000	1312.194336	1112.700684
20401.970213	-1214.874000	1311.096680	1067.231079
20401.970213	-1214.874000	1309.999023	864.420593
20401.970213	-1214.874000	1308.901367	764.425049
20401.970213	-1214.874000	1307.802734	772.590271
20401.970213	-1214.874000	1306.705078	879.294617
20401.970213	-1214.874000	1305.606445	717.071655
20401.970213	-1214.874000	1304.506836	752.220337
20401.970213	-1214.874000	1303.408203	864.362366
20401.970213	-1214.874000	1302.308594	835.909058
20401.970213	-1214.874000	1301.208984	857.796997
20401.970213	-1214.874000	1300.109375	722.166626
20401.970213	-1214.874000	1299.009766	765.939575
20401.970213	-1214.874000	1297.909180	703.239868
20401.970213	-1214.874000	1296.808594	692.775330
20401.970213	-1214.874000	1295.708008	749.899048
20401.970213	-1214.874000	1294.607422	674.796509
20401.970213	-1214.874000	1293.506836	752.553406
20401.970213	-1214.874000	1292.405273	476.940552
20401.970213	-1214.874000	1291.303711	566.698547
20401.970213	-1214.874000	1290.202148	343.047791
20401.970213	-1214.874000	1289.099609	187.130600
20401.970213	-1214.874000	1287.998047	199.239883
20401.970213	-1214.874000	1286.895508	350.469147
20401.970213	-1214.874000	1285.792969	399.370880
20401.970213	-1214.874000	1284.689453	363.044769
20401.970213	-1214.874000	1283.586914	218.597534
20401.970213	-1214.874000	1282.483398	236.539307
20401.970213	-1214.874000	1281.379883	240.092224
20401.970213	-1214.874000	1280.276367	322.108612
20401.970213	-1214.874000	1279.171875	216.535126
20401.970213	-1214.874000	1278.067383	313.877899
20401.970213	-1214.874000	1276.962891	314.751923
20401.970213	-1214.874000	1275.858398	310.948029
20401.970213	-1214.874000	1274.753906	283.869263
20401.970213	-1214.874000	1273.648438	477.253632
20401.970213	-1214.874000	1272.542969	474.840363
20401.970213	-1214.874000	1271.437500	642.958374
20401.970213	-1214.874000	1270.331055	542.054749
20401.970213	-1214.874000	1269.225586	584.597961
20401.970213	-1214.874000	1268.119141	667.224670
20401.970213	-1214.874000	1267.012695	848.218872
20401.970213	-1214.874000	1265.906250	902.921082
20401.970213	-1214.874000	1264.798828	847.762146
20401.970213	-1214.874000	1263.691406	800.797302
20401.970213	-1214.874000	1262.583984	748.139648
20401.970213	-1214.874000	1261.476563	893.638611
20401.970213	-1214.874000	1260.368164	703.062988
20401.970213	-1214.874000	1259.260742	891.644348
20401.970213	-1214.874000	1258.152344	693.132202
20401.970213	-1214.874000	1257.043945	832.458740
20401.970213	-1214.874000	1255.934570	906.052002
20401.970213	-1214.874000	1254.825195	881.007080
20401.970213	-1214.874000	1253.716797	743.431763
20401.970213	-1214.874000	1252.606445	957.191711
20401.970213	-1214.874000	1251.497070	820.959106
20401.970213	-1214.874000	1250.387695	924.862244
20401.970213	-1214.874000	1249.277344	733.065613
20401.970213	-1214.874000	1248.166992	711.073486
20401.970213	-1214.874000	1247.055664	513.967407
20401.970213	-1214.874000	1245.945313	595.843811
20401.970213	-1214.874000	1244.833984	418.762360
20401.970213	-1214.874000	1243.722656	382.800476
20401.970213	-1214.874000	1242.611328	433.496216
20401.970213	-1214.874000	1241.499023	315.345245
20401.970213	-1214.874000	1240.387695	284.576752
20401.970213	-1214.874000	1239.275391	153.691925
20401.970213	-1214.874000	1238.162109	159.337173
20401.970213	-1214.874000	1237.049805	208.656815
20401.970213	-1214.874000	1235.936523	112.023094
20401.970213	-1214.874000	1234.823242	191.861191
20401.970213	-1214.874000	1233.709961	125.600777
20401.970213	-1214.874000	1232.596680	46.949886
20401.970213	-1214.874000	1231.482422	78.654182
20401.970213	-1214.874000	1230.369141	51.565170
20401.970213	-1214.874000	1229.253906	68.161942
20401.970213	-1214.874000	1228.139648	-10.881191
20401.970213	-1214.874000	1227.025391	18.385563
20401.970213	-1214.874000	1225.910156	-44.749222
20401.970213	-1214.874000	1224.794922	-42.529095
20401.970213	-1214.874000	1223.679688	75.299934
20401.970213	-1214.874000	1222.563477	-301.356415
20401.970213	-1214.874000	1221.447266	-256.492554
20401.970213	-1214.874000	1220.331055	-222.447266
20401.970213	-1214.874000	1219.214844	17.544270
20401.970213	-1214.874000	1218.098633	11.444098
20401.970213	-1214.874000	1216.981445	12.884377
20401.970213	-1214.874000	1215.864258	99.309380
20401.970213	-1214.874000	1214.747070	102.272011
20401.970213	-1214.874000	1213.629883	140.676773
20401.970213	-1214.874000	1212.511719	214.835373
20401.970213	-1214.874000	1211.393555	445.107330
20401.970213	-1214.874000	1210.275391	483.444061
20401.970213	-1214.874000	1209.157227	206.409256
20401.970213	-1214.874000	1208.038086	440.126038
20401.970213	-1214.874000	1206.918945	494.974640
20401.970213	-1214.874000	1205.799805	452.092072
20401.970213	-1214.874000	1204.680664	372.993256
20401.970213	-1214.874000	1203.560547	384.717194
20401.970213	-1214.874000	1202.441406	546.641846
20401.970213	-1214.874000	1201.321289	420.143677
20401.970213	-1214.874000	1200.200195	541.965027
20401.970213	-1214.874000	1199.080078	630.401367
20401.970213	-1214.874000	1197.958984	790.082581
20401.970213	-1214.874000	1196.837891	860.061462
20401.970213	-1214.874000	1195.716797	856.144043
20401.970213	-1214.874000	1194.594727	768.796692
20401.970213	-1214.874000	1193.473633	796.400391
20401.970213	-1214.874000	1192.351563	812.101257
20401.970213	-1214.874000	1191.229492	658.276550
20401.970213	-1214.874000	1190.106445	791.664917
20401.970213	-1214.874000	1188.984375	608.950623
20401.970213	-1214.874000	1187.861328	700.889648
20401.970213	-1214.874000	1186.738281	603.355774
20401.970213	-1214.874000	1185.614258	583.277649
20401.970213	-1214.874000	1184.491211	402.330627
20401.970213	-1214.874000	1183.367188	509.538574
20401.970213	-1214.874000	1182.243164	583.167236
20401.970213	-1214.874000	1181.119141	435.511139
20401.970213	-1214.874000	1179.994141	674.845337
20401.970213	-1214.874000	1178.869141	584.030579
20401.970213	-1214.874000	1177.744141	771.223755
20401.970213	-1214.874000	1176.619141	653.492920
20401.970213	-1214.874000	1175.493164	802.523987
20401.970213	-1214.874000	1174.368164	672.414734
20401.970213	-1214.874000	1173.242188	724.710144
20401.970213	-1214.874000	1172.115234	897.747681
20401.970213	-1214.874000	1170.989258	862.545532
20401.970213	-1214.874000	1169.862305	996.165833
20401.970213	-1214.874000	1168.735352	911.825684
20401.970213	-1214.874000	1167.608398	952.387207
20401.970213	-1214.874000	1166.481445	1006.433167
20401.970213	-1214.874000	1165.353516	969.874451
20401.970213	-1214.874000	1164.225586	1072.125854
20401.970213	-1214.874000	1163.097656	931.874695
20401.970213	-1214.874000	1161.968750	882.390076
20401.970213	-1214.874000	1160.840820	870.370728
20401.970213	-1214.874000	1159.711914	972.171204
20401.970213	-1214.874000	1158.583008	875.682434
20401.970213	-1214.874000	1157.453125	773.385925
20401.970213	-1214.874000	1156.324219	809.895508
20401.970213	-1214.874000	1155.194336	668.605896
20401.970213	-1214.874000	1154.064453	612.703430
20401.970213	-1214.874000	1152.933594	623.413391
20401.970213	-1214.874000	1151.803711	378.441467
20401.970213	-1214.874000	1150.672852	481.208771
20401.970213	-1214.874000	1149.541992	404.579956
20401.970213	-1214.874000	1148.411133	436.164459
20401.970213	-1214.874000	1147.279297	406.786743
20401.970213	-1214.874000	1146.147461	326.905518
20401.970213	-1214.874000	1145.015625	-22.756428
20401.970213	-1214.874000	1143.883789	100.322525
20401.970213	-1214.874000	1142.750977	149.359039
20401.970213	-1214.874000	1141.619141	230.731689
20401.970213	-1214.874000	1140.486328	55.480003
20401.970213	-1214.874000	1139.352539	88.977859
20401.970213	-1214.874000	1138.219727	87.233505
20401.970213	-1214.874000	1137.085938	9.169580
20401.970213	-1214.874000	1135.952148	65.313377
20401.970213	-1214.874000	1134.818359	173.418091
20401.970213	-1214.874000	1133.683594	18.001326
20401.970213	-1214.874000	1132.549805	119.836273
20401.970213	-1214.874000	1131.415039	197.831772
20401.970213	-1214.874000	1130.279297	76.537621
20401.970213	-1214.874000	1129.144531	37.670158
20401.970213	-1214.874000	1128.008789	13.133647
20401.970213	-1214.874000	1126.873047	96.162514
20401.970213	-1214.874000	1125.737305	107.559898
20401.970213	-1214.874000	1124.601563	-91.510681
20401.970213	-1214.874000	1123.464844	51.473282
20401.970213	-1214.874000	1122.328125	-92.696587
20401.970213	-1214.874000	1121.191406	2.390352
20401.970213	-1214.874000	1120.054688	-76.075958
20401.970213	-1214.874000	1118.916992	55.256630
20401.970213	-1214.874000	1117.779297	119.864883
20401.970213	-1214.874000	1116.641602	-44.770187
20401.970213	-1214.874000	1115.503906	-82.262276
20401.970213	-1214.874000	1114.365234	-27.974518
20401.970213	-1214.874000	1113.226563	-109.961807
20401.970213	-1214.874000	1112.087891	-31.730362
20401.970213	-1214.874000	1110.949219	-220.911392
20401.970213	-1214.874000	1109.809570	-170.507156
20401.970213	-1214.874000	1108.669922	-136.727249
20401.970213	-1214.874000	1107.530273	-132.685242
20401.970213	-1214.874000	1106.390625	-294.937073
20401.970213	-1214.874000	1105.250000	-211.152451
20401.970213	-1214.874000	1104.109375	-310.212250
20401.970213	-1214.874000	1102.968750	-63.899918
20401.970213	-1214.874000	1101.828125	-3.031094
20401.970213	-1214.874000	1100.686523	-120.146049
20401.970213	-1214.874000	1099.544922	-148.697357
20401.970213	-1214.874000	1098.403320	45.587288
20401.970213	-1214.874000	1097.261719	48.957729
20401.970213	-1214.874000	1096.120117	-36.198479
20401.970213	-1214.874000	1094.977539	-25.445614
20401.970213	-1214.874000	1093.834961	25.865078
20401.970213	-1214.874000	1092.691406	51.605602
20401.970213	-1214.874000	1091.548828	42.867504
20401.970213	-1214.874000	1090.405273	-66.025139
20401.970213	-1214.874000	1089.261719	-54.987438
20401.970213	-1214.874000	1088.118164	-56.978394
20401.970213	-1214.874000	1086.973633	-28.485962
20401.970213	-1214.874000	1085.829102	78.505859
20401.970213	-1214.874000	1084.684570	-108.804665
20401.970213	-1214.874000	1083.540039	63.633274
20401.970213	-1214.874000	1082.395508	-102.426361
20401.970213	-1214.874000	1081.250000	79.047424
20401.970213	-1214.874000	1080.104492	-24.461836
20401.970213	-1214.874000	1078.958984	-172.151306
20401.970213	-1214.874000	1077.812500	-113.624138
20401.970213	-1214.874000	1076.666016	-138.905136
20401.970213	-1214.874000	1075.519531	-47.399452
20401.970213	-1214.874000	1074.373047	-47.622540
20401.970213	-1214.874000	1073.226563	-32.170910
20401.970213	-1214.874000	1072.079102	51.059708
20401.970213	-1214.874000	1070.931641	64.417305
20401.970213	-1214.874000	1069.784180	-67.136963
20401.970213	-1214.874000	1068.635742	155.328949
20401.970213	-1214.874000	1067.487305	153.657608
20401.970213	-1214.874000	1066.338867	249.216461
20401.970213	-1214.874000	1065.190430	59.206947
20401.970213	-1214.874000	1064.041992	152.125427
20401.970213	-1214.874000	1062.892578	141.644608
20401.970213	-1214.874000	1061.743164	47.895847
20401.970213	-1214.874000	1060.593750	144.705643
20401.970213	-1214.874000	1059.443359	159.067612
20401.970213	-1214.874000	1058.292969	135.733673
20401.970213	-1214.874000	1057.142578	0.505967
20401.970213	-1214.874000	1055.992188	-4.774330
20401.970213	-1214.874000	1054.841797	78.143173
20401.970213	-1214.874000	1053.690430	-105.859802
20401.970213	-1214.874000	1052.539063	61.273083
20401.970213	-1214.874000	1051.387695	130.058853
20401.970213	-1214.874000	1050.235352	88.992172
20401.970213	-1214.874000	1049.083984	15.667927
20401.970213	-1214.874000	1047.931641	-64.893860
20401.970213	-1214.874000	1046.778320	-118.125694
20401.970213	-1214.874000	1045.625977	-56.037380
20401.970213	-1214.874000	1044.472656	33.367943
20401.970213	-1214.874000	1043.319336	66.702408
20401.970213	-1214.874000	1042.166016	101.985092
20401.970213	-1214.874000	1041.012695	11.821996
20401.970213	-1214.874000	1039.858398	99.993874
20401.970213	-1214.874000	1038.704102	73.671013
20401.970213	-1214.874000	1037.549805	92.825668
20401.970213	-1214.874000	1036.394531	107.048805
20401.970213	-1214.874000	1035.239258	107.902725
20401.970213	-1214.874000	1034.083984	32.313797
20401.970213	-1214.874000	1032.928711	138.256271
20401.970213	-1214.874000	1031.773438	93.373352
20401.970213	-1214.874000	1030.617188	199.833572
20401.970213	-1214.874000	1029.460938	83.059265
20401.970213	-1214.874000	1028.304688	76.809868
20401.970213	-1214.874000	1027.147461	139.323914
20401.970213	-1214.874000	1025.991211	73.048080
20401.970213	-1214.874000	1024.833984	68.171570
20401.970213	-1214.874000	1023.675781	-127.208603
20401.970213	-1214.874000	1022.518555	-96.056152
20401.970213	-1214.874000	1021.360352	-125.908150
20401.970213	-1214.874000	1020.202148	-56.000423
20401.970213	-1214.874000	1019.043945	-60.382046
20401.970213	-1214.874000	1017.884766	-92.643463
20401.970213	-1214.874000	1016.726563	-63.641739
20401.970213	-1214.874000	1015.567383	-65.242180
20401.970213	-1214.874000	1014.407227	-186.312531
20401.970213	-1214.874000	1013.248047	42.541824
20401.970213	-1214.874000	1012.087891	-58.743309
20401.970213	-1214.874000	1010.927734	29.227097
20401.970213	-1214.874000	1009.767578	-190.198517
20401.970213	-1214.874000	1008.606445	-21.835043
20401.970213	-1214.874000	1007.446289	-49.560173
20401.970213	-1214.874000	1006.285156	-8.987981
20401.970213	-1214.874000	1005.123047	-143.486130
20401.970213	-1214.874000	1003.961914	37.715797
20401.970213	-1214.874000	1002.799805	117.592964
20401.970213	-1214.874000	1001.637695	191.228821
20401.970213	-1214.874000	1000.475586	342.019714
20401.970213	-1214.874000	999.312500	124.901917
20401.970213	-1214.874000	998.149414	140.564682
20401.970213	-1214.874000	996.986328	161.224686
20401.970213	-1214.874000	995.823242	-66.239265
20401.970213	-1214.874000	994.659180	84.164368
20401.970213	-1214.874000	993.496094	28.401297
20401.970213	-1214.874000	992.332031	124.744682
20401.970213	-1214.874000	991.166992	178.422668
20401.970213	-1214.874000	990.002930	127.682793
20401.970213	-1214.874000	988.837891	-68.988472
20401.970213	-1214.874000	987.672852	-19.165573
20401.970213	-1214.874000	986.506836	140.955872
20401.970213	-1214.874000	985.341797	53.044136
20401.970213	-1214.874000	984.175781	307.630829
20401.970213	-1214.874000	983.009766	141.743469
20401.970213	-1214.874000	981.843750	106.252106
20401.970213	-1214.874000	980.676758	157.057373
20401.970213	-1214.874000	979.509766	-11.886159
20401.970213	-1214.874000	978.342773	13.893135
20401.970213	-1214.874000	977.175781	98.237991
20401.970213	-1214.874000	976.007813	234.253769
20401.970213	-1214.874000	974.839844	309.998932
20401.970213	-1214.874000	973.671875	143.562271
20401.970213	-1214.874000	972.503906	268.854950
20401.970213	-1214.874000	971.334961	363.819855
20401.970213	-1214.874000	970.166016	47.519684
20401.970213	-1214.874000	968.997070	385.702484
20401.970213	-1214.874000	967.828125	69.145584
20401.970213	-1214.874000	966.658203	191.548401
20401.970213	-1214.874000	965.488281	281.786499
20401.970213	-1214.874000	964.318359	171.713364
20401.970213	-1214.874000	963.148438	309.123901
20401.970213	-1214.874000	961.977539	136.129364
20401.970213	-1214.874000	960.806641	317.041168
20401.970213	-1214.874000	959.635742	150.656158
20401.970213	-1214.874000	958.463867	274.560944
20401.970213	-1214.874000	957.292969	317.015839
20401.970213	-1214.874000	956.121094	275.172424
20401.970213	-1214.874000	954.948242	237.085175
20401.970213	-1214.874000	953.776367	177.996307
20401.970213	-1214.874000	952.603516	264.511078
20401.970213	-1214.874000	951.430664	119.848778
20401.970213	-1214.874000	950.257813	246.296494
20401.970213	-1214.874000	949.084961	217.937210
20401.970213	-1214.874000	947.911133	81.507256
20401.970213	-1214.874000	946.737305	63.373653
20401.970213	-1214.874000	945.563477	66.177002
20401.970213	-1214.874000	944.388672	-14.438382
20401.970213	-1214.874000	943.213867	173.072464
20401.970213	-1214.874000	942.039063	316.640167
20401.970213	-1214.874000	940.864258	25.961021
20401.970213	-1214.874000	939.688477	109.339203
20401.970213	-1214.874000	938.513672	111.538223
20401.970213	-1214.874000	937.337891	74.253380
20401.970213	-1214.874000	936.161133	176.046936
20401.970213	-1214.874000	934.985352	217.530441
20401.970213	-1214.874000	933.808594	256.596039
20401.970213	-1214.874000	932.631836	374.746338
20401.970213	-1214.874000	931.454102	260.169800
20401.970213	-1214.874000	930.277344	89.569260
20401.970213	-1214.874000	929.099609	369.316895
20401.970213	-1214.874000	927.921875	221.354935
20401.970213	-1214.874000	926.743164	114.871651
20401.970213	-1214.874000	925.565430	-8.219737
20401.970213	-1214.874000	924.386719	154.958328
20401.970213	-1214.874000	923.208008	201.842438
20401.970213	-1214.874000	922.028320	32.959492
20401.970213	-1214.874000	920.849609	-34.322758
20401.970213	-1214.874000	919.669922	-31.283453
20401.970213	-1214.874000	919.474609	27.395311
20401.970213	-1214.874000	918.309570	-0.643589
20401.970213	-1214.874000	917.143555	41.732082
20401.970213	-1214.874000	915.977539	-104.509583
20401.970213	-1214.874000	914.810547	-58.098854
20401.970213	-1214.874000	913.644531	11.016139
20401.970213	-1214.874000	912.477539	11.719664
20401.970213	-1214.874000	911.310547	-72.509277
20401.970213	-1214.874000	910.143555	-30.500914
20401.970213	-1214.874000	908.975586	-205.844177
20401.970213	-1214.874000	907.807617	-27.377310
20401.970213	-1214.874000	906.639648	62.019619
20401.970213	-1214.874000	905.471680	-140.274658
20401.970213	-1214.874000	904.303711	-168.850174
20401.970213	-1214.874000	903.134766	-226.402542
20401.970213	-1214.874000	901.965820	-106.229782
20401.970213	-1214.874000	900.796875	-110.139717
20401.970213	-1214.874000	899.626953	-56.245087
20401.970213	-1214.874000	898.457031	-27.205145
20401.970213	-1214.874000	897.287109	121.557037
20401.970213	-1214.874000	896.117188	-10.590611
20401.970213	-1214.874000	894.947266	-58.091682
20401.970213	-1214.874000	893.776367	-10.675347
20401.970213	-1214.874000	892.605469	137.790314
20401.970213	-1214.874000	891.434570	-23.305300
20401.970213	-1214.874000	890.262695	83.767494
20401.970213	-1214.874000	889.091797	-11.342150
20401.970213	-1214.874000	887.919922	81.172058
20401.970213	-1214.874000	886.748047	-96.429909
20401.970213	-1214.874000	885.575195	-4.012246
20401.970213	-1214.874000	884.403320	-8.516406
20401.970213	-1214.874000	883.230469	-21.294590
20401.970213	-1214.874000	882.057617	-87.657021
20401.970213	-1214.874000	880.883789	-42.825493
20401.970213	-1214.874000	879.710938	-57.755875
20401.970213	-1214.874000	878.537109	-19.194199
20401.970213	-1214.874000	877.362305	198.364960
20401.970213	-1214.874000	876.188477	-26.580029
20401.970213	-1214.874000	875.013672	-64.263664
20401.970213	-1214.874000	873.839844	-32.035133
20401.970213	-1214.874000	872.664063	65.952988
20401.970213	-1214.874000	871.489258	-179.467819
20401.970213	-1214.874000	870.313477	-67.163147
20401.970213	-1214.874000	869.138672	75.890045
20401.970213	-1214.874000	867.962891	206.528183
20401.970213	-1214.874000	866.786133	-112.789276
20401.970213	-1214.874000	865.610352	-49.999107
20401.970213	-1214.874000	864.433594	-176.172287
20401.970213	-1214.874000	863.256836	-43.649017
20401.970213	-1214.874000	862.079102	-100.039314
20401.970213	-1214.874000	860.902344	124.705521
20401.970213	-1214.874000	859.724609	-79.470062
20401.970213	-1214.874000	858.546875	-55.897419
20401.970213	-1214.874000	857.368164	4.557446
20401.970213	-1214.874000	856.190430	-78.568344
20401.970213	-1214.874000	855.011719	80.217300
20401.970213	-1214.874000	853.833008	140.534241
20401.970213	-1214.874000	852.654297	-84.032104
20401.970213	-1214.874000	851.474609	152.440186
20401.970213	-1214.874000	850.294922	-2.437777
20401.970213	-1214.874000	849.115234	98.713333
20401.970213	-1214.874000	847.935547	-11.089471
20401.970213	-1214.874000	846.754883	-28.749561
20401.970213	-1214.874000	845.575195	90.701111
20401.970213	-1214.874000	844.393555	32.061356
20401.970213	-1214.874000	843.212891	-77.720795
20401.970213	-1214.874000	842.032227	-27.937437
20401.970213	-1214.874000	840.850586	119.964973
20401.970213	-1214.874000	839.668945	-6.181684
20401.970213	-1214.874000	838.486328	4.661434
20401.970213	-1214.874000	837.304688	-2.913445
20401.970213	-1214.874000	836.122070	67.142677
20401.970213	-1214.874000	834.939453	108.551361
20401.970213	-1214.874000	833.756836	39.633198
20401.970213	-1214.874000	832.573242	209.642746
20401.970213	-1214.874000	831.389648	75.366020
20401.970213	-1214.874000	830.206055	137.081604
20401.970213	-1214.874000	829.022461	298.751678
20401.970213	-1214.874000	827.838867	248.144043
20401.970213	-1214.874000	826.654297	150.622513
20401.970213	-1214.874000	825.469727	153.060043
20401.970213	-1214.874000	824.284180	110.622162
20401.970213	-1214.874000	823.099609	139.538010
20401.970213	-1214.874000	821.914063	170.464569
20401.970213	-1214.874000	820.728516	117.812889
20401.970213	-1214.874000	819.542969	101.840950
20401.970213	-1214.874000	818.356445	181.597961
20401.970213	-1214.874000	817.169922	112.639519
20401.970213	-1214.874000	815.983398	108.850533
20401.970213	-1214.874000	814.796875	60.263378
20401.970213	-1214.874000	813.609375	58.492592
20401.970213	-1214.874000	812.422852	-10.442489
20401.970213	-1214.874000	811.235352	-187.188919
20401.970213	-1214.874000	810.046875	0.215297
20401.970213	-1214.874000	808.859375	-58.539585
20401.970213	-1214.874000	807.670898	-162.013779
20401.970213	-1214.874000	806.482422	-98.772781
20401.970213	-1214.874000	805.293945	-173.770615
20401.970213	-1214.874000	804.104492	-78.069633
20401.970213	-1214.874000	802.915039	-10.864243
20401.970213	-1214.874000	801.725586	-152.901459
20401.970213	-1214.874000	800.536133	-219.759369
20401.970213	-1214.874000	799.345703	111.325729
20401.970213	-1214.874000	798.155273	7.876287
20401.970213	-1214.874000	796.964844	-125.984657
20401.970213	-1214.874000	795.774414	-146.181900
20401.970213	-1214.874000	794.583008	-52.783836
20401.970213	-1214.874000	793.392578	83.152908
20401.970213	-1214.874000	792.200195	66.939728
20401.970213	-1214.874000	791.008789	79.101105
20401.970213	-1214.874000	789.816406	-97.256653
20401.970213	-1214.874000	788.625000	-74.961617
20401.970213	-1214.874000	787.432617	40.507515
20401.970213	-1214.874000	786.239258	22.223879
20401.970213	-1214.874000	785.046875	-52.772385
20401.970213	-1214.874000	783.853516	-158.124130
20401.970213	-1214.874000	782.660156	42.233097
20401.970213	-1214.874000	781.465820	11.762929
20401.970213	-1214.874000	780.272461	72.349312
20401.970213	-1214.874000	779.078125	92.432281
20401.970213	-1214.874000	777.883789	65.971817
20401.970213	-1214.874000	776.688477	49.617016
20401.970213	-1214.874000	775.494141	-126.470757
20401.970213	-1214.874000	774.298828	113.912071
20401.970213	-1214.874000	773.103516	71.238197
20401.970213	-1214.874000	771.907227	79.081459
20401.970213	-1214.874000	770.711914	-26.223867
20401.970213	-1214.874000	769.515625	159.342072
20401.970213	-1214.874000	768.318359	-8.567597
20401.970213	-1214.874000	767.122070	122.373634
20401.970213	-1214.874000	765.924805	11.025383
20401.970213	-1214.874000	764.727539	149.947296
20401.970213	-1214.874000	763.530273	123.347191
20401.970213	-1214.874000	762.333008	106.827400
20401.970213	-1214.874000	761.134766	160.884445
20401.970213	-1214.874000	759.936523	-162.164200
20401.970213	-1214.874000	758.738281	12.849226
20401.970213	-1214.874000	757.540039	-90.375305
20401.970213	-1214.874000	756.340820	18.014112
20401.970213	-1214.874000	755.141602	104.176796
20401.970213	-1214.874000	753.942383	-144.086700
20401.970213	-1214.874000	752.742188	-64.006577
20401.970213	-1214.874000	751.541992	-120.893196
20401.970213	-1214.874000	750.341797	-22.772211
20401.970213	-1214.874000	749.141602	-65.595039
20401.970213	-1214.874000	747.941406	0.237663
20401.970213	-1214.874000	746.740234	25.786629
20401.970213	-1214.874000	745.539063	-157.876633
20401.970213	-1214.874000	744.337891	-170.555099
20401.970213	-1214.874000	743.135742	-58.598293
20401.970213	-1214.874000	741.933594	-5.002998
20401.970213	-1214.874000	740.731445	-100.167938
20401.970213	-1214.874000	739.529297	-66.723274
20401.970213	-1214.874000	738.326172	-65.457054
20401.970213	-1214.874000	737.124023	-34.087044
20401.970213	-1214.874000	735.919922	-81.066696
20401.970213	-1214.874000	734.716797	-37.708775
20401.970213	-1214.874000	733.513672	-46.579659
20401.970213	-1214.874000	732.309570	70.953400
20401.970213	-1214.874000	731.105469	-6.200023
20401.970213	-1214.874000	729.900391	16.948256
20401.970213	-1214.874000	728.696289	82.177788
20401.970213	-1214.874000	727.491211	73.166374
20401.970213	-1214.874000	726.286133	88.187927
20401.970213	-1214.874000	725.080078	-11.064375
20401.970213	-1214.874000	723.874023	80.060356
20401.970213	-1214.874000	722.668945	-19.200958
20401.970213	-1214.874000	721.461914	169.977783
20401.970213	-1214.874000	720.255859	114.739578
20401.970213	-1214.874000	719.048828	5.438709
20401.970213	-1214.874000	717.841797	-75.820702
20401.970213	-1214.874000	716.634766	-51.006729
20401.970213	-1214.874000	715.427734	-116.270088
20401.970213	-1214.874000	714.219727	-151.530090
20401.970213	-1214.874000	713.011719	-50.802658
20401.970213	-1214.874000	711.803711	7.861133
20401.970213	-1214.874000	710.594727	206.412003
20401.970213	-1214.874000	709.385742	141.010864
20401.970213	-1214.874000	708.176758	19.653517
20401.970213	-1214.874000	706.967773	-9.779484
20401.970213	-1214.874000	705.758789	-9.268907
20401.970213	-1214.874000	704.548828	121.019646
20401.970213	-1214.874000	703.338867	-24.320160
20401.970213	-1214.874000	702.127930	145.776505
20401.970213	-1214.874000	700.917969	200.011108
20401.970213	-1214.874000	699.707031	-3.219824
20401.970213	-1214.874000	698.496094	180.630615
20401.970213	-1214.874000	697.285156	-40.529659
20401.970213	-1214.874000	696.073242	105.293747
20401.970213	-1214.874000	694.861328	127.409538
20401.970213	-1214.874000	693.649414	53.801815
20401.970213	-1214.874000	692.436523	61.897526
20401.970213	-1214.874000	691.224609	69.956207
20401.970213	-1214.874000	690.011719	105.864220
20401.970213	-1214.874000	688.798828	167.612061
20401.970213	-1214.874000	687.584961	99.865837
20401.970213	-1214.874000	686.372070	408.377502
20401.970213	-1214.874000	685.158203	177.325241
20401.970213	-1214.874000	683.943359	228.906937
20401.970213	-1214.874000	682.729492	330.170654
20401.970213	-1214.874000	681.514648	186.688904
20401.970213	-1214.874000	680.299805	273.921173
20401.970213	-1214.874000	679.084961	188.096725
20401.970213	-1214.874000	677.869141	243.407867
20401.970213	-1214.874000	676.653320	201.271179
20401.970213	-1214.874000	675.437500	137.256805
20401.970213	-1214.874000	674.221680	321.558868
20401.970213	-1214.874000	673.004883	297.190826
20401.970213	-1214.874000	671.789063	378.041199
20401.970213	-1214.874000	670.571289	296.014923
20401.970213	-1214.874000	669.354492	565.321960
20401.970213	-1214.874000	668.136719	624.112305
20401.970213	-1214.874000	666.919922	480.460266
20401.970213	-1214.874000	665.701172	465.764679
20401.970213	-1214.874000	664.483398	476.819794
20401.970213	-1214.874000	663.264648	565.158264
20401.970213	-1214.874000	662.045898	671.261597
20401.970213	-1214.874000	660.827148	715.835754
20401.970213	-1214.874000	659.608398	671.178406
20401.970213	-1214.874000	658.388672	569.042114
20401.970213	-1214.874000	657.168945	629.329346
20401.970213	-1214.874000	655.949219	663.806702
20401.970213	-1214.874000	654.728516	597.247986
20401.970213	-1214.874000	653.507813	863.234558
20401.970213	-1214.874000	652.287109	576.899292
20401.970213	-1214.874000	651.066406	484.552551
20401.970213	-1214.874000	649.844727	568.267029
20401.970213	-1214.874000	648.623047	560.922119
20401.970213	-1214.874000	647.401367	652.410278
20401.970213	-1214.874000	646.179688	751.724792
20401.970213	-1214.874000	644.957031	688.872681
20401.970213	-1214.874000	643.734375	705.051880
20401.970213	-1214.874000	642.511719	705.376648
20401.970213	-1214.874000	641.289063	699.731750
20401.970213	-1214.874000	640.065430	526.177917
20401.970213	-1214.874000	638.841797	516.537292
20401.970213	-1214.874000	637.618164	573.977844
20401.970213	-1214.874000	636.393555	735.952820
20401.970213	-1214.874000	635.168945	765.609619
20401.970213	-1214.874000	633.944336	532.827271
20401.970213	-1214.874000	632.719727	668.939819
20401.970213	-1214.874000	631.494141	651.135803
20401.970213	-1214.874000	630.269531	522.891968
20401.970213	-1214.874000	629.042969	658.789185
20401.970213	-1214.874000	627.817383	538.394287
20401.970213	-1214.874000	626.590820	644.592896
20401.970213	-1214.874000	625.365234	644.332764
20401.970213	-1214.874000	624.137695	760.225647
20401.970213	-1214.874000	622.911133	637.773438
20401.970213	-1214.874000	621.683594	643.291138
20401.970213	-1214.874000	620.456055	660.575073
20401.970213	-1214.874000	619.228516	514.481995
20401.970213	-1214.874000	618.000977	561.216187
20401.970213	-1214.874000	616.772461	230.226532
20401.970213	-1214.874000	615.543945	418.507904
20401.970213	-1214.874000	614.314453	272.423248
20401.970213	-1214.874000	613.085938	663.006104
20401.970213	-1214.874000	611.856445	383.210663
20401.970213	-1214.874000	610.626953	506.297577
20401.970213	-1214.874000	609.397461	330.692810
20401.970213	-1214.874000	608.166992	184.581604
20401.970213	-1214.874000	606.936523	543.148438
20401.970213	-1214.874000	605.706055	204.582092
20401.970213	-1214.874000	604.474609	107.542282
20401.970213	-1214.874000	603.244141	342.152893
20401.970213	-1214.874000	602.012695	305.870758
20401.970213	-1214.874000	600.780273	120.486137
20401.970213	-1214.874000	599.548828	162.638748
20401.970213	-1214.874000	598.316406	310.611450
20401.970213	-1214.874000	597.083984	125.234512
20401.970213	-1214.874000	595.851563	118.250542
20401.970213	-1214.874000	594.618164	266.028076
20401.970213	-1214.874000	593.384766	209.965927
20401.970213	-1214.874000	592.151367	-14.548816
20401.970213	-1214.874000	590.917969	182.014542
20401.970213	-1214.874000	589.683594	110.237404
20401.970213	-1214.874000	588.449219	-2.647361
20401.970213	-1214.874000	587.214844	54.739605
20401.970213	-1214.874000	585.979492	4.454247
20401.970213	-1214.874000	584.745117	108.697510
20401.970213	-1214.874000	583.509766	-2.267798
20401.970213	-1214.874000	582.273438	86.217896
20401.970213	-1214.874000	581.038086	159.001205
20401.970213	-1214.874000	579.801758	-69.268463
20401.970213	-1214.874000	578.565430	-76.663643
20401.970213	-1214.874000	577.329102	-70.409424
20401.970213	-1214.874000	576.091797	-46.612099
20401.970213	-1214.874000	574.854492	-58.004280
20401.970213	-1214.874000	573.617188	223.437012
20401.970213	-1214.874000	572.378906	1.121038
20401.970213	-1214.874000	571.141602	147.719025
20401.970213	-1214.874000	569.903320	81.550980
20401.970213	-1214.874000	568.664063	118.767754
20401.970213	-1214.874000	567.425781	99.389305
20401.970213	-1214.874000	566.186523	40.991402
20401.970213	-1214.874000	564.947266	-71.990402
20401.970213	-1214.874000	563.708008	-17.330011
20401.970213	-1214.874000	562.467773	-151.737381
20401.970213	-1214.874000	561.227539	68.463303
20401.970213	-1214.874000	559.987305	-42.577034
20401.970213	-1214.874000	558.747070	-116.592239
20401.970213	-1214.874000	557.505859	37.193005
20401.970213	-1214.874000	556.264648	-227.616699
20401.970213	-1214.874000	555.023438	-36.938801
20401.970213	-1214.874000	553.781250	21.325220
20401.970213	-1214.874000	552.539063	-48.845001
20401.970213	-1214.874000	551.296875	38.530544
20401.970213	-1214.874000	550.054688	-72.485146
20401.970213	-1214.874000	548.811523	-27.951803
20401.970213	-1214.874000	547.569336	94.295494
20401.970213	-1214.874000	546.325195	-26.439177
20401.970213	-1214.874000	545.082031	119.030350
20401.970213	-1214.874000	543.837891	264.416992
20401.970213	-1214.874000	542.593750	246.599869
20401.970213	-1214.874000	541.349609	453.996429
20401.970213	-1214.874000	540.105469	405.058289
20401.970213	-1214.874000	538.860352	245.500977
20401.970213	-1214.874000	537.615234	225.700638
20401.970213	-1214.874000	536.369141	304.823914
20401.970213	-1214.874000	535.124023	205.474350
20401.970213	-1214.874000	533.877930	224.432007
20401.970213	-1214.874000	532.631836	185.209778
20401.970213	-1214.874000	531.384766	188.629486
20401.970213	-1214.874000	530.138672	141.656967
20401.970213	-1214.874000	528.891602	300.052643
20401.970213	-1214.874000	527.643555	245.297302
20401.970213	-1214.874000	526.396484	300.942688
20401.970213	-1214.874000	525.148438	159.062622
20401.970213	-1214.874000	523.900391	197.255859
20401.970213	-1214.874000	522.652344	183.170105
20401.970213	-1214.874000	521.403320	27.827196
20401.970213	-1214.874000	520.154297	211.077789
20401.970213	-1214.874000	518.905273	20.964039
20401.970213	-1214.874000	517.656250	-8.584197
20401.970213	-1214.874000	516.406250	68.195038
20401.970213	-1214.874000	515.156250	-102.469765
20401.970213	-1214.874000	513.906250	-174.516022
20401.970213	-1214.874000	512.655273	25.865978
20401.970213	-1214.874000	511.404297	-121.531860
20401.970213	-1214.874000	510.153320	-125.969307
20401.970213	-1214.874000	508.902344	-161.304810
20401.970213	-1214.874000	507.650391	-92.401657
20401.970213	-1214.874000	506.398438	-40.905540
20401.970213	-1214.874000	505.146484	0.910924
20401.970213	-1214.874000	503.893555	137.221451
20401.970213	-1214.874000	502.641602	207.892868
20401.970213	-1214.874000	501.388672	251.523682
20401.970213	-1214.874000	500.134766	73.418251
20401.970213	-1214.874000	498.881836	43.796848
20401.970213	-1214.874000	497.627930	-109.158211
20401.970213	-1214.874000	496.374023	23.078970
20401.970213	-1214.874000	495.119141	-145.243042
20401.970213	-1214.874000	493.865234	42.768742
20401.970213	-1214.874000	492.610352	13.115738
20401.970213	-1214.874000	491.355469	-139.734924
20401.970213	-1214.874000	490.099609	-76.990944
20401.970213	-1214.874000	488.843750	-10.441150
20401.970213	-1214.874000	487.587891	-245.957413
20401.970213	-1214.874000	486.332031	41.746552
20401.970213	-1214.874000	485.075195	-91.806763
20401.970213	-1214.874000	483.818359	149.559448
20401.970213	-1214.874000	482.561523	90.963326
20401.970213	-1214.874000	481.304688	-84.848160
20401.970213	-1214.874000	480.046875	62.154026
20401.970213	-1214.874000	478.789063	159.128922
20401.970213	-1214.874000	477.531250	29.431679
20401.970213	-1214.874000	476.272461	-132.879593
20401.970213	-1214.874000	475.013672	73.407661
20401.970213	-1214.874000	473.754883	30.087872
20401.970213	-1214.874000	472.496094	9.781545
20401.970213	-1214.874000	471.236328	-8.634273
20401.970213	-1214.874000	469.976563	15.118193
20401.970213	-1214.874000	468.716797	-26.370075
20401.970213	-1214.874000	467.456055	141.078430
20401.970213	-1214.874000	466.196289	9.421335
20401.970213	-1214.874000	464.935547	40.655949
20401.970213	-1214.874000	463.673828	112.061302
20401.970213	-1214.874000	462.413086	215.956253
20401.970213	-1214.874000	461.151367	252.728302
20401.970213	-1214.874000	459.889648	343.043396
20401.970213	-1214.874000	458.626953	528.968811
20401.970213	-1214.874000	457.364258	490.848083
20401.970213	-1214.874000	456.101563	238.389496
20401.970213	-1214.874000	454.838867	341.785553
20401.970213	-1214.874000	453.575195	360.915405
20401.970213	-1214.874000	452.312500	242.303833
20401.970213	-1214.874000	451.047852	242.186615
20401.970213	-1214.874000	449.784180	352.855774
20401.970213	-1214.874000	448.519531	209.248672
20401.970213	-1214.874000	447.254883	310.161469
20401.970213	-1214.874000	445.990234	298.252686
20401.970213	-1214.874000	444.725586	221.334076
20401.970213	-1214.874000	443.459961	260.812714
20401.970213	-1214.874000	442.194336	311.631989
20401.970213	-1214.874000	440.927734	562.702454
20401.970213	-1214.874000	439.662109	506.381989
20401.970213	-1214.874000	438.395508	514.828369
20401.970213	-1214.874000	437.127930	456.399292
20401.970213	-1214.874000	435.861328	264.412506
20401.970213	-1214.874000	434.593750	209.634399
20401.970213	-1214.874000	433.326172	251.954208
20401.970213	-1214.874000	432.058594	324.610046
20401.970213	-1214.874000	430.790039	286.592682
20401.970213	-1214.874000	429.521484	227.497238
20401.970213	-1214.874000	428.252930	158.755707
20401.970213	-1214.874000	426.984375	392.600708
20401.970213	-1214.874000	425.714844	184.577530
20401.970213	-1214.874000	424.445313	273.349518
20401.970213	-1214.874000	423.174805	283.893982
20401.970213	-1214.874000	421.905273	260.020599
20401.970213	-1214.874000	420.634766	215.043304
20401.970213	-1214.874000	419.364258	559.674011
20401.970213	-1214.874000	418.092773	280.428833
20401.970213	-1214.874000	416.822266	468.641296
20401.970213	-1214.874000	415.550781	525.437866
20401.970213	-1214.874000	414.278320	566.780396
20401.970213	-1214.874000	413.006836	602.184326
20401.970213	-1214.874000	411.734375	411.354767
20401.970213	-1214.874000	410.461914	273.517914
20401.970213	-1214.874000	409.188477	336.672729
20401.970213	-1214.874000	407.916016	336.921295
20401.970213	-1214.874000	406.642578	418.469238
20401.970213	-1214.874000	405.368164	461.752350
20401.970213	-1214.874000	404.094727	326.470093
20401.970213	-1214.874000	402.820313	316.072174
20401.970213	-1214.874000	401.545898	278.828674
20401.970213	-1214.874000	400.270508	332.239380
20401.970213	-1214.874000	398.996094	423.201874
20401.970213	-1214.874000	397.720703	426.630859
20401.970213	-1214.874000	396.444336	255.448654
20401.970213	-1214.874000	395.168945	373.702179
20401.970213	-1214.874000	393.892578	323.027435
20401.970213	-1214.874000	392.616211	415.836182
20401.970213	-1214.874000	391.339844	462.790771
20401.970213	-1214.874000	390.062500	272.813477
20401.970213	-1214.874000	388.785156	205.442123
20401.970213	-1214.874000	387.507813	205.744537
20401.970213	-1214.874000	386.229492	118.613838
20401.970213	-1214.874000	384.951172	93.437569
20401.970213	-1214.874000	383.672852	56.458515
20401.970213	-1214.874000	382.394531	408.231689
20401.970213	-1214.874000	381.115234	305.966949
20401.970213	-1214.874000	379.835938	190.009109
20401.970213	-1214.874000	378.556641	143.433792
20401.970213	-1214.874000	377.277344	236.029221
20401.970213	-1214.874000	375.997070	188.338333
20401.970213	-1214.874000	374.716797	32.533474
20401.970213	-1214.874000	373.435547	170.489075
20401.970213	-1214.874000	372.155273	245.548737
20401.970213	-1214.874000	370.874023	-23.273291
20401.970213	-1214.874000	369.591797	129.672104
20401.970213	-1214.874000	368.310547	80.223518
20401.970213	-1214.874000	367.028320	-116.893875
20401.970213	-1214.874000	365.746094	-79.109444
20401.970213	-1214.874000	364.463867	86.034615
20401.970213	-1214.874000	363.180664	84.622787
20401.970213	-1214.874000	361.897461	-38.045277
20401.970213	-1214.874000	360.614258	39.991039
20401.970213	-1214.874000	359.330078	-108.669029
20401.970213	-1214.874000	358.045898	108.843063
20401.970213	-1214.874000	356.761719	33.836433
20401.970213	-1214.874000	355.477539	-15.660452
20401.970213	-1214.874000	354.192383	20.462225
20401.970213	-1214.874000	352.907227	34.989922
20401.970213	-1214.874000	351.622070	112.498756
20401.970213	-1214.874000	350.336914	-62.780285
20401.970213	-1214.874000	349.050781	116.111732
20401.970213	-1214.874000	347.764648	17.815819
20401.970213	-1214.874000	346.477539	-11.996623
20401.970213	-1214.874000	345.191406	131.808716
20401.970213	-1214.874000	343.904297	-115.987808
20401.970213	-1214.874000	342.616211	-81.411125
20401.970213	-1214.874000	341.329102	-239.315674
20401.970213	-1214.874000	340.041016	228.226990
20401.970213	-1214.874000	338.752930	94.239090
20401.970213	-1214.874000	337.463867	-39.047600
20401.970213	-1214.874000	336.175781	-72.227585
20401.970213	-1214.874000	334.886719	-52.327568
20401.970213	-1214.874000	333.596680	29.955908
20401.970213	-1214.874000	332.307617	92.198517
20401.970213	-1214.874000	331.017578	-71.729332
20401.970213	-1214.874000	329.727539	-96.506546
20401.970213	-1214.874000	328.436523	75.738747
20401.970213	-1214.874000	327.146484	55.597088
20401.970213	-1214.874000	325.855469	247.296814
20401.970213	-1214.874000	324.563477	-99.606743
20401.970213	-1214.874000	323.272461	-187.827652
20401.970213	-1214.874000	321.980469	-41.977848
20401.970213	-1214.874000	320.688477	-47.369247
20401.970213	-1214.874000	319.395508	110.063400
20401.970213	-1214.874000	318.103516	26.585894
20401.970213	-1214.874000	316.810547	21.738588
20401.970213	-1214.874000	315.516602	-149.297638
20401.970213	-1214.874000	314.223633	45.963753
20401.970213	-1214.874000	312.929688	-143.531326
20401.970213	-1214.874000	311.635742	-67.826477
20401.970213	-1214.874000	310.340820	-68.767220
20401.970213	-1214.874000	309.045898	-30.584190
20401.970213	-1214.874000	307.750977	-248.122589
20401.970213	-1214.874000	306.456055	200.194672
20401.970213	-1214.874000	305.160156	21.462870
20401.970213	-1214.874000	303.865234	327.409088
20401.970213	-1214.874000	302.568359	392.345856
20401.970213	-1214.874000	301.272461	468.187531
20401.970213	-1214.874000	299.975586	547.288696
20401.970213	-1214.874000	298.678711	549.571106
