#X		#Y		#Wave		#Intensity
23204.150000	2448.972500	1999.980469	31.354065
23204.150000	2448.972500	1999.016602	107.159790
23204.150000	2448.972500	1998.052734	-65.115791
23204.150000	2448.972500	1997.087891	-79.423927
23204.150000	2448.972500	1996.123047	-141.496262
23204.150000	2448.972500	1995.158203	-10.997352
23204.150000	2448.972500	1994.193359	-121.443741
23204.150000	2448.972500	1993.228516	37.430817
23204.150000	2448.972500	1992.262695	-4.894710
23204.150000	2448.972500	1991.297852	-171.581741
23204.150000	2448.972500	1990.332031	151.261642
23204.150000	2448.972500	1989.366211	-6.617679
23204.150000	2448.972500	1988.399414	-380.205444
23204.150000	2448.972500	1987.433594	74.445465
23204.150000	2448.972500	1986.466797	-15.644179
23204.150000	2448.972500	1985.500977	133.642090
23204.150000	2448.972500	1984.534180	111.831985
23204.150000	2448.972500	1983.567383	-174.898758
23204.150000	2448.972500	1982.599609	141.025452
23204.150000	2448.972500	1981.632813	-101.997238
23204.150000	2448.972500	1980.665039	-81.008560
23204.150000	2448.972500	1979.697266	87.767311
23204.150000	2448.972500	1978.729492	58.546257
23204.150000	2448.972500	1977.761719	-20.409292
23204.150000	2448.972500	1976.792969	142.227783
23204.150000	2448.972500	1975.825195	-231.104507
23204.150000	2448.972500	1974.856445	49.287773
23204.150000	2448.972500	1973.887695	274.983582
23204.150000	2448.972500	1972.918945	132.763290
23204.150000	2448.972500	1971.949219	-4.758074
23204.150000	2448.972500	1970.980469	32.558407
23204.150000	2448.972500	1970.010742	-191.720978
23204.150000	2448.972500	1969.041016	227.146866
23204.150000	2448.972500	1968.071289	246.390076
23204.150000	2448.972500	1967.101563	134.804871
23204.150000	2448.972500	1966.130859	-63.176620
23204.150000	2448.972500	1965.161133	-15.002086
23204.150000	2448.972500	1964.190430	-26.142990
23204.150000	2448.972500	1963.219727	1.922872
23204.150000	2448.972500	1962.249023	-73.593628
23204.150000	2448.972500	1961.277344	261.762756
23204.150000	2448.972500	1960.306641	89.923904
23204.150000	2448.972500	1959.334961	348.538239
23204.150000	2448.972500	1958.363281	114.951828
23204.150000	2448.972500	1957.391602	-111.307312
23204.150000	2448.972500	1956.419922	-3.203645
23204.150000	2448.972500	1955.447266	330.913025
23204.150000	2448.972500	1954.474609	374.751709
23204.150000	2448.972500	1953.501953	133.396103
23204.150000	2448.972500	1952.529297	245.845642
23204.150000	2448.972500	1951.556641	193.568359
23204.150000	2448.972500	1950.583984	293.504639
23204.150000	2448.972500	1949.610352	-48.695229
23204.150000	2448.972500	1948.636719	-52.020222
23204.150000	2448.972500	1947.663086	-52.956318
23204.150000	2448.972500	1946.689453	56.488800
23204.150000	2448.972500	1945.715820	-40.282600
23204.150000	2448.972500	1944.741211	-107.629395
23204.150000	2448.972500	1943.767578	-69.516548
23204.150000	2448.972500	1942.792969	22.496244
23204.150000	2448.972500	1941.818359	35.975716
23204.150000	2448.972500	1940.842773	12.648020
23204.150000	2448.972500	1939.868164	-182.272568
23204.150000	2448.972500	1938.892578	176.705994
23204.150000	2448.972500	1937.916992	18.542421
23204.150000	2448.972500	1936.941406	80.902931
23204.150000	2448.972500	1935.965820	-11.071832
23204.150000	2448.972500	1934.990234	-78.530449
23204.150000	2448.972500	1934.013672	125.806625
23204.150000	2448.972500	1933.037109	352.102417
23204.150000	2448.972500	1932.060547	362.942230
23204.150000	2448.972500	1931.083984	-29.969652
23204.150000	2448.972500	1930.107422	-244.124405
23204.150000	2448.972500	1929.129883	180.247009
23204.150000	2448.972500	1928.153320	254.751495
23204.150000	2448.972500	1927.175781	96.955338
23204.150000	2448.972500	1926.198242	132.373947
23204.150000	2448.972500	1925.219727	329.125488
23204.150000	2448.972500	1924.242188	125.046600
23204.150000	2448.972500	1923.263672	13.919991
23204.150000	2448.972500	1922.285156	59.209648
23204.150000	2448.972500	1921.306641	155.807892
23204.150000	2448.972500	1920.328125	301.243622
23204.150000	2448.972500	1919.349609	-24.557899
23204.150000	2448.972500	1918.370117	-103.649086
23204.150000	2448.972500	1917.391602	100.438126
23204.150000	2448.972500	1916.412109	36.070038
23204.150000	2448.972500	1915.431641	135.228210
23204.150000	2448.972500	1914.452148	168.528549
23204.150000	2448.972500	1913.472656	-12.755691
23204.150000	2448.972500	1912.492188	-37.874622
23204.150000	2448.972500	1911.511719	-197.026123
23204.150000	2448.972500	1910.531250	-141.580856
23204.150000	2448.972500	1909.550781	-3.255323
23204.150000	2448.972500	1908.569336	-218.231506
23204.150000	2448.972500	1907.588867	-138.320618
23204.150000	2448.972500	1906.607422	31.724335
23204.150000	2448.972500	1905.625977	-158.654755
23204.150000	2448.972500	1904.644531	16.286091
23204.150000	2448.972500	1903.662109	-25.440050
23204.150000	2448.972500	1902.680664	-210.703873
23204.150000	2448.972500	1901.698242	-167.119720
23204.150000	2448.972500	1900.715820	-111.344002
23204.150000	2448.972500	1899.733398	-293.926117
23204.150000	2448.972500	1898.750000	-106.736046
23204.150000	2448.972500	1897.767578	70.696526
23204.150000	2448.972500	1896.784180	250.534622
23204.150000	2448.972500	1895.800781	-19.318228
23204.150000	2448.972500	1894.817383	-89.757500
23204.150000	2448.972500	1893.833984	-186.862350
23204.150000	2448.972500	1892.850586	-196.440491
23204.150000	2448.972500	1891.866211	124.337120
23204.150000	2448.972500	1890.881836	-108.634315
23204.150000	2448.972500	1889.897461	-93.840439
23204.150000	2448.972500	1888.913086	-299.917358
23204.150000	2448.972500	1887.927734	-163.680679
23204.150000	2448.972500	1886.943359	154.518082
23204.150000	2448.972500	1885.958008	-124.185333
23204.150000	2448.972500	1884.972656	-48.618912
23204.150000	2448.972500	1883.987305	201.555588
23204.150000	2448.972500	1883.001953	121.897041
23204.150000	2448.972500	1882.015625	-64.375137
23204.150000	2448.972500	1881.029297	-13.028688
23204.150000	2448.972500	1880.042969	-126.471657
23204.150000	2448.972500	1879.056641	-416.727356
23204.150000	2448.972500	1878.070313	-144.854309
23204.150000	2448.972500	1877.083984	-277.545837
23204.150000	2448.972500	1876.096680	-59.053432
23204.150000	2448.972500	1875.109375	-29.479124
23204.150000	2448.972500	1874.122070	-16.854252
23204.150000	2448.972500	1873.134766	114.356239
23204.150000	2448.972500	1872.146484	-23.066053
23204.150000	2448.972500	1871.159180	23.422651
23204.150000	2448.972500	1870.170898	33.610241
23204.150000	2448.972500	1869.182617	-219.810638
23204.150000	2448.972500	1868.194336	327.181244
23204.150000	2448.972500	1867.205078	330.035278
23204.150000	2448.972500	1866.216797	120.176025
23204.150000	2448.972500	1865.227539	-53.366631
23204.150000	2448.972500	1864.238281	-89.144279
23204.150000	2448.972500	1863.249023	-294.020569
23204.150000	2448.972500	1862.259766	-141.396255
23204.150000	2448.972500	1861.269531	-266.542877
23204.150000	2448.972500	1860.279297	-138.170258
23204.150000	2448.972500	1859.290039	-268.156036
23204.150000	2448.972500	1858.298828	-67.488098
23204.150000	2448.972500	1857.308594	133.068573
23204.150000	2448.972500	1856.318359	128.457153
23204.150000	2448.972500	1855.327148	396.366791
23204.150000	2448.972500	1854.335938	114.298714
23204.150000	2448.972500	1853.344727	-416.046417
23204.150000	2448.972500	1852.353516	71.053581
23204.150000	2448.972500	1851.362305	8.397013
23204.150000	2448.972500	1850.370117	-39.825298
23204.150000	2448.972500	1849.377930	1.061887
23204.150000	2448.972500	1848.385742	92.462349
23204.150000	2448.972500	1847.393555	68.168533
23204.150000	2448.972500	1846.401367	-69.349380
23204.150000	2448.972500	1845.408203	556.292480
23204.150000	2448.972500	1844.415039	158.646622
23204.150000	2448.972500	1843.421875	-19.918390
23204.150000	2448.972500	1842.428711	80.622337
23204.150000	2448.972500	1841.435547	80.014397
23204.150000	2448.972500	1840.441406	-43.335236
23204.150000	2448.972500	1839.448242	6.425861
23204.150000	2448.972500	1838.454102	46.471474
23204.150000	2448.972500	1837.459961	67.188553
23204.150000	2448.972500	1836.464844	85.407608
23204.150000	2448.972500	1835.470703	305.380157
23204.150000	2448.972500	1834.475586	-8.175696
23204.150000	2448.972500	1833.480469	199.537491
23204.150000	2448.972500	1832.485352	250.972427
23204.150000	2448.972500	1831.490234	271.075928
23204.150000	2448.972500	1830.495117	180.638641
23204.150000	2448.972500	1829.499023	378.160400
23204.150000	2448.972500	1828.502930	241.933319
23204.150000	2448.972500	1827.506836	259.207062
23204.150000	2448.972500	1826.510742	84.453949
23204.150000	2448.972500	1825.513672	22.378521
23204.150000	2448.972500	1824.517578	216.797104
23204.150000	2448.972500	1823.520508	221.619125
23204.150000	2448.972500	1822.523438	-32.563751
23204.150000	2448.972500	1821.526367	293.207214
23204.150000	2448.972500	1820.529297	86.785278
23204.150000	2448.972500	1819.531250	184.567795
23204.150000	2448.972500	1818.533203	246.256378
23204.150000	2448.972500	1817.535156	195.233643
23204.150000	2448.972500	1816.537109	452.970154
23204.150000	2448.972500	1815.539063	205.358337
23204.150000	2448.972500	1814.540039	70.195412
23204.150000	2448.972500	1813.541992	401.579895
23204.150000	2448.972500	1812.542969	84.313232
23204.150000	2448.972500	1811.543945	-15.294489
23204.150000	2448.972500	1810.543945	337.006592
23204.150000	2448.972500	1809.544922	492.952911
23204.150000	2448.972500	1808.544922	306.809784
23204.150000	2448.972500	1807.544922	125.366402
23204.150000	2448.972500	1806.544922	113.515480
23204.150000	2448.972500	1805.544922	-158.928421
23204.150000	2448.972500	1804.544922	3.357124
23204.150000	2448.972500	1803.543945	397.103546
23204.150000	2448.972500	1802.542969	55.022839
23204.150000	2448.972500	1801.541992	386.207031
23204.150000	2448.972500	1800.541016	84.511894
23204.150000	2448.972500	1799.539063	26.201511
23204.150000	2448.972500	1798.538086	220.687866
23204.150000	2448.972500	1797.536133	145.332779
23204.150000	2448.972500	1796.534180	198.640396
23204.150000	2448.972500	1795.532227	-17.734577
23204.150000	2448.972500	1794.529297	37.615845
23204.150000	2448.972500	1793.527344	431.294891
23204.150000	2448.972500	1792.524414	-50.108608
23204.150000	2448.972500	1791.521484	357.373352
23204.150000	2448.972500	1790.518555	340.415222
23204.150000	2448.972500	1789.514648	335.183990
23204.150000	2448.972500	1788.511719	3.480115
23204.150000	2448.972500	1787.507813	231.308807
23204.150000	2448.972500	1786.503906	182.687958
23204.150000	2448.972500	1785.500000	100.571434
23204.150000	2448.972500	1784.496094	-95.938431
23204.150000	2448.972500	1783.491211	411.746399
23204.150000	2448.972500	1782.486328	390.908356
23204.150000	2448.972500	1781.481445	91.591248
23204.150000	2448.972500	1780.476563	-122.194221
23204.150000	2448.972500	1779.471680	-112.597496
23204.150000	2448.972500	1778.465820	129.757767
23204.150000	2448.972500	1777.460938	77.113899
23204.150000	2448.972500	1776.455078	-94.533409
23204.150000	2448.972500	1775.449219	-95.253723
23204.150000	2448.972500	1774.442383	186.486893
23204.150000	2448.972500	1773.436523	-16.561741
23204.150000	2448.972500	1772.429688	150.676743
23204.150000	2448.972500	1771.422852	108.731346
23204.150000	2448.972500	1770.416016	232.747864
23204.150000	2448.972500	1769.409180	370.751038
23204.150000	2448.972500	1768.402344	162.082062
23204.150000	2448.972500	1767.394531	199.986633
23204.150000	2448.972500	1766.386719	126.198021
23204.150000	2448.972500	1765.378906	355.756744
23204.150000	2448.972500	1764.371094	63.426003
23204.150000	2448.972500	1763.362305	22.251644
23204.150000	2448.972500	1762.354492	-30.957109
23204.150000	2448.972500	1761.345703	-96.215706
23204.150000	2448.972500	1760.336914	-2.930093
23204.150000	2448.972500	1759.328125	-113.596657
23204.150000	2448.972500	1758.318359	-44.461384
23204.150000	2448.972500	1757.308594	-157.880692
23204.150000	2448.972500	1756.299805	149.916763
23204.150000	2448.972500	1755.290039	249.093063
23204.150000	2448.972500	1754.279297	-16.418886
23204.150000	2448.972500	1753.269531	-7.581350
23204.150000	2448.972500	1752.258789	346.383850
23204.150000	2448.972500	1751.249023	134.773132
23204.150000	2448.972500	1750.238281	-46.245438
23204.150000	2448.972500	1749.226563	-307.803223
23204.150000	2448.972500	1748.215820	21.458052
23204.150000	2448.972500	1747.204102	-176.634476
23204.150000	2448.972500	1746.193359	-34.612270
23204.150000	2448.972500	1745.181641	-34.611828
23204.150000	2448.972500	1744.168945	-237.961609
23204.150000	2448.972500	1743.157227	-28.183960
23204.150000	2448.972500	1742.144531	181.286667
23204.150000	2448.972500	1741.132813	142.622147
23204.150000	2448.972500	1740.120117	124.984970
23204.150000	2448.972500	1739.106445	71.730415
23204.150000	2448.972500	1738.093750	-257.722198
23204.150000	2448.972500	1737.080078	-124.969345
23204.150000	2448.972500	1736.067383	-108.016624
23204.150000	2448.972500	1735.053711	-393.101837
23204.150000	2448.972500	1734.040039	-44.154118
23204.150000	2448.972500	1733.025391	-65.605179
23204.150000	2448.972500	1732.011719	-162.648407
23204.150000	2448.972500	1730.997070	-10.142141
23204.150000	2448.972500	1729.982422	-227.727509
23204.150000	2448.972500	1728.967773	-82.749405
23204.150000	2448.972500	1727.952148	-213.550522
23204.150000	2448.972500	1726.937500	-102.003777
23204.150000	2448.972500	1725.921875	-75.461456
23204.150000	2448.972500	1724.906250	-260.932678
23204.150000	2448.972500	1723.890625	-6.551290
23204.150000	2448.972500	1722.875000	-208.841675
23204.150000	2448.972500	1721.858398	33.247097
23204.150000	2448.972500	1720.841797	-136.474869
23204.150000	2448.972500	1719.825195	-280.473267
23204.150000	2448.972500	1718.808594	-116.684517
23204.150000	2448.972500	1717.791992	96.197220
23204.150000	2448.972500	1716.774414	-217.559143
23204.150000	2448.972500	1715.756836	-132.017395
23204.150000	2448.972500	1714.739258	80.132286
23204.150000	2448.972500	1713.721680	245.037659
23204.150000	2448.972500	1712.704102	92.717583
23204.150000	2448.972500	1711.685547	-15.155472
23204.150000	2448.972500	1710.667969	-287.451935
23204.150000	2448.972500	1709.649414	-20.140781
23204.150000	2448.972500	1708.630859	-198.885910
23204.150000	2448.972500	1707.611328	-347.277130
23204.150000	2448.972500	1706.592773	-237.802521
23204.150000	2448.972500	1705.573242	192.657532
23204.150000	2448.972500	1704.553711	170.314926
23204.150000	2448.972500	1703.534180	-222.533844
23204.150000	2448.972500	1702.513672	-156.123825
23204.150000	2448.972500	1701.494141	-103.954956
23204.150000	2448.972500	1700.473633	41.696320
23204.150000	2448.972500	1699.453125	142.615158
23204.150000	2448.972500	1698.432617	72.381355
23204.150000	2448.972500	1697.412109	37.117729
23204.150000	2448.972500	1696.390625	-169.198654
23204.150000	2448.972500	1695.369141	134.573563
23204.150000	2448.972500	1694.347656	-139.874374
23204.150000	2448.972500	1693.326172	-114.944954
23204.150000	2448.972500	1692.304688	255.971085
23204.150000	2448.972500	1691.282227	6.861924
23204.150000	2448.972500	1690.260742	-148.768723
23204.150000	2448.972500	1689.238281	39.100410
23204.150000	2448.972500	1688.214844	123.882957
23204.150000	2448.972500	1687.192383	131.390198
23204.150000	2448.972500	1686.168945	302.251984
23204.150000	2448.972500	1685.146484	472.918915
23204.150000	2448.972500	1684.123047	-206.714035
23204.150000	2448.972500	1683.099609	183.142990
23204.150000	2448.972500	1682.075195	273.869751
23204.150000	2448.972500	1681.051758	14.343718
23204.150000	2448.972500	1680.027344	258.794861
23204.150000	2448.972500	1679.002930	642.996094
23204.150000	2448.972500	1677.978516	709.672241
23204.150000	2448.972500	1676.953125	368.028625
23204.150000	2448.972500	1675.928711	394.823059
23204.150000	2448.972500	1674.903320	225.620316
23204.150000	2448.972500	1673.877930	189.209610
23204.150000	2448.972500	1672.852539	693.335388
23204.150000	2448.972500	1671.826172	826.655701
23204.150000	2448.972500	1670.800781	782.784973
23204.150000	2448.972500	1669.774414	645.622986
23204.150000	2448.972500	1668.748047	673.723145
23204.150000	2448.972500	1667.721680	853.025452
23204.150000	2448.972500	1666.694336	668.997986
23204.150000	2448.972500	1665.667969	982.984802
23204.150000	2448.972500	1664.640625	961.656189
23204.150000	2448.972500	1663.613281	923.943237
23204.150000	2448.972500	1662.585938	1230.371826
23204.150000	2448.972500	1661.557617	1004.025085
23204.150000	2448.972500	1660.530273	1158.991943
23204.150000	2448.972500	1659.501953	1151.055420
23204.150000	2448.972500	1658.473633	1308.035645
23204.150000	2448.972500	1657.444336	1104.669678
23204.150000	2448.972500	1656.416016	1291.615845
23204.150000	2448.972500	1655.386719	1548.054688
23204.150000	2448.972500	1654.358398	1762.535400
23204.150000	2448.972500	1653.328125	1577.435669
23204.150000	2448.972500	1652.298828	1482.888672
23204.150000	2448.972500	1651.269531	1648.246704
23204.150000	2448.972500	1650.239258	1437.513916
23204.150000	2448.972500	1649.208984	1642.079956
23204.150000	2448.972500	1648.178711	1572.781128
23204.150000	2448.972500	1647.148438	1844.356567
23204.150000	2448.972500	1646.117188	1795.751709
23204.150000	2448.972500	1645.086914	2201.509033
23204.150000	2448.972500	1644.055664	2152.728027
23204.150000	2448.972500	1643.024414	2398.214355
23204.150000	2448.972500	1641.992188	2129.165283
23204.150000	2448.972500	1640.960938	2325.805664
23204.150000	2448.972500	1639.928711	2265.212891
23204.150000	2448.972500	1638.896484	2343.528809
23204.150000	2448.972500	1637.864258	2359.262207
23204.150000	2448.972500	1636.832031	2349.483887
23204.150000	2448.972500	1635.798828	2536.352051
23204.150000	2448.972500	1634.766602	2262.697266
23204.150000	2448.972500	1633.733398	2500.328857
23204.150000	2448.972500	1632.699219	2631.415771
23204.150000	2448.972500	1631.666016	2653.767334
23204.150000	2448.972500	1630.632813	2373.214844
23204.150000	2448.972500	1629.598633	2457.938232
23204.150000	2448.972500	1628.564453	2757.540771
23204.150000	2448.972500	1627.530273	2798.216553
23204.150000	2448.972500	1626.495117	3072.158691
23204.150000	2448.972500	1625.460938	2932.569092
23204.150000	2448.972500	1624.425781	3056.253174
23204.150000	2448.972500	1623.390625	3092.146484
23204.150000	2448.972500	1622.355469	3294.224121
23204.150000	2448.972500	1621.319336	3821.611328
23204.150000	2448.972500	1620.284180	3105.087646
23204.150000	2448.972500	1619.248047	3378.535156
23204.150000	2448.972500	1618.211914	3478.888916
23204.150000	2448.972500	1617.174805	3166.385498
23204.150000	2448.972500	1616.138672	3557.277100
23204.150000	2448.972500	1615.101563	3219.547363
23204.150000	2448.972500	1614.065430	3393.657715
23204.150000	2448.972500	1613.027344	4040.055908
23204.150000	2448.972500	1611.990234	3667.930176
23204.150000	2448.972500	1610.953125	3332.827637
23204.150000	2448.972500	1609.915039	3684.151123
23204.150000	2448.972500	1608.876953	3524.202148
23204.150000	2448.972500	1607.838867	3449.525146
23204.150000	2448.972500	1606.800781	3404.837402
23204.150000	2448.972500	1605.761719	3408.500488
23204.150000	2448.972500	1604.723633	3598.594238
23204.150000	2448.972500	1603.684570	3641.409668
23204.150000	2448.972500	1602.644531	3495.641113
23204.150000	2448.972500	1601.605469	3676.521973
23204.150000	2448.972500	1600.566406	3383.799316
23204.150000	2448.972500	1599.526367	3481.965332
23204.150000	2448.972500	1598.486328	3490.527344
23204.150000	2448.972500	1597.446289	3379.669678
23204.150000	2448.972500	1596.405273	3333.213135
23204.150000	2448.972500	1595.365234	3560.175781
23204.150000	2448.972500	1594.324219	3318.652588
23204.150000	2448.972500	1593.283203	3557.122803
23204.150000	2448.972500	1592.242188	3552.264648
23204.150000	2448.972500	1591.200195	3581.881836
23204.150000	2448.972500	1590.159180	3760.734131
23204.150000	2448.972500	1589.117188	3281.188721
23204.150000	2448.972500	1588.075195	3432.647705
23204.150000	2448.972500	1587.032227	3639.144043
23204.150000	2448.972500	1585.990234	3398.604248
23204.150000	2448.972500	1584.947266	3486.013428
23204.150000	2448.972500	1583.904297	3452.019775
23204.150000	2448.972500	1582.861328	3282.949707
23204.150000	2448.972500	1581.818359	3152.989746
23204.150000	2448.972500	1580.775391	2581.130615
23204.150000	2448.972500	1579.731445	3008.011230
23204.150000	2448.972500	1578.687500	3265.406006
23204.150000	2448.972500	1577.643555	2952.829102
23204.150000	2448.972500	1576.598633	3187.447510
23204.150000	2448.972500	1575.554688	2653.282715
23204.150000	2448.972500	1574.509766	2840.060547
23204.150000	2448.972500	1573.464844	2917.095459
23204.150000	2448.972500	1572.419922	2797.556396
23204.150000	2448.972500	1571.374023	2758.190186
23204.150000	2448.972500	1570.329102	2641.269531
23204.150000	2448.972500	1569.283203	2586.210449
23204.150000	2448.972500	1568.237305	2485.606689
23204.150000	2448.972500	1567.191406	2266.380127
23204.150000	2448.972500	1566.144531	2476.775146
23204.150000	2448.972500	1565.098633	2253.347900
23204.150000	2448.972500	1564.051758	2317.818359
23204.150000	2448.972500	1563.004883	2138.150635
23204.150000	2448.972500	1561.957031	2031.713867
23204.150000	2448.972500	1560.910156	2187.912842
23204.150000	2448.972500	1559.862305	2706.935791
23204.150000	2448.972500	1558.814453	2359.120850
23204.150000	2448.972500	1557.766602	2061.774658
23204.150000	2448.972500	1556.718750	2006.397583
23204.150000	2448.972500	1555.669922	2062.887451
23204.150000	2448.972500	1554.621094	2242.599365
23204.150000	2448.972500	1553.573242	2128.467285
23204.150000	2448.972500	1552.523438	2060.072021
23204.150000	2448.972500	1551.474609	2251.575684
23204.150000	2448.972500	1550.424805	2108.374023
23204.150000	2448.972500	1549.375000	2425.356445
23204.150000	2448.972500	1548.325195	2007.071777
23204.150000	2448.972500	1547.275391	2094.422363
23204.150000	2448.972500	1546.225586	2015.801147
23204.150000	2448.972500	1545.174805	1989.704956
23204.150000	2448.972500	1544.124023	2118.486816
23204.150000	2448.972500	1543.073242	2281.523682
23204.150000	2448.972500	1542.022461	1917.155518
23204.150000	2448.972500	1540.970703	2171.467773
23204.150000	2448.972500	1539.919922	2080.406738
23204.150000	2448.972500	1538.868164	1664.590820
23204.150000	2448.972500	1537.815430	1776.237427
23204.150000	2448.972500	1536.763672	2053.889160
23204.150000	2448.972500	1535.710938	1934.161865
23204.150000	2448.972500	1534.659180	1957.761108
23204.150000	2448.972500	1533.606445	1738.621948
23204.150000	2448.972500	1532.552734	1742.201904
23204.150000	2448.972500	1531.500000	1687.008179
23204.150000	2448.972500	1530.446289	1384.718994
23204.150000	2448.972500	1529.393555	1670.315430
23204.150000	2448.972500	1528.338867	1366.294800
23204.150000	2448.972500	1527.285156	1600.046143
23204.150000	2448.972500	1526.231445	1614.015869
23204.150000	2448.972500	1525.176758	1315.382446
23204.150000	2448.972500	1524.122070	1298.104126
23204.150000	2448.972500	1523.067383	1503.106079
23204.150000	2448.972500	1522.012695	1264.249512
23204.150000	2448.972500	1520.957031	1734.609741
23204.150000	2448.972500	1519.901367	1337.733887
23204.150000	2448.972500	1518.845703	1699.687866
23204.150000	2448.972500	1517.790039	1405.303345
23204.150000	2448.972500	1516.734375	1165.585693
23204.150000	2448.972500	1515.677734	1473.747803
23204.150000	2448.972500	1514.621094	1388.404175
23204.150000	2448.972500	1513.564453	1251.313965
23204.150000	2448.972500	1512.507813	779.847656
23204.150000	2448.972500	1511.450195	1165.662598
23204.150000	2448.972500	1510.393555	1131.149414
23204.150000	2448.972500	1509.335938	739.807068
23204.150000	2448.972500	1508.278320	805.291565
23204.150000	2448.972500	1507.219727	911.647583
23204.150000	2448.972500	1506.162109	659.107727
23204.150000	2448.972500	1505.103516	671.112244
23204.150000	2448.972500	1504.044922	523.067810
23204.150000	2448.972500	1502.986328	689.100525
23204.150000	2448.972500	1501.926758	408.457611
23204.150000	2448.972500	1500.868164	256.810303
23204.150000	2448.972500	1499.808594	26.513371
23204.150000	2448.972500	1498.749023	112.335442
23204.150000	2448.972500	1497.688477	108.171036
23204.150000	2448.972500	1496.628906	284.650330
23204.150000	2448.972500	1495.568359	193.071320
23204.150000	2448.972500	1494.507813	-202.456619
23204.150000	2448.972500	1493.447266	-74.807617
23204.150000	2448.972500	1492.386719	237.786774
23204.150000	2448.972500	1491.325195	54.999783
23204.150000	2448.972500	1490.263672	-120.691216
23204.150000	2448.972500	1489.202148	-181.217072
23204.150000	2448.972500	1488.140625	53.434700
23204.150000	2448.972500	1487.079102	-330.639465
23204.150000	2448.972500	1486.016602	-34.763226
23204.150000	2448.972500	1484.954102	58.801105
23204.150000	2448.972500	1483.891602	-337.725098
23204.150000	2448.972500	1482.829102	33.016201
23204.150000	2448.972500	1481.765625	48.651508
23204.150000	2448.972500	1480.702148	365.776733
23204.150000	2448.972500	1479.638672	20.083889
23204.150000	2448.972500	1478.575195	-138.698013
23204.150000	2448.972500	1477.511719	55.572159
23204.150000	2448.972500	1476.447266	317.484955
23204.150000	2448.972500	1475.382813	422.193512
23204.150000	2448.972500	1474.318359	80.596649
23204.150000	2448.972500	1473.253906	-18.137239
23204.150000	2448.972500	1472.189453	354.486359
23204.150000	2448.972500	1471.124023	-19.554083
23204.150000	2448.972500	1470.058594	95.650887
23204.150000	2448.972500	1468.993164	289.398438
23204.150000	2448.972500	1467.927734	319.864655
23204.150000	2448.972500	1466.861328	572.659790
23204.150000	2448.972500	1465.794922	558.655029
23204.150000	2448.972500	1464.728516	574.407227
23204.150000	2448.972500	1463.662109	397.701721
23204.150000	2448.972500	1462.594727	823.321594
23204.150000	2448.972500	1461.528320	1087.502075
23204.150000	2448.972500	1460.460938	757.979492
23204.150000	2448.972500	1459.393555	942.964905
23204.150000	2448.972500	1458.326172	666.886230
23204.150000	2448.972500	1457.257813	767.357788
23204.150000	2448.972500	1456.189453	944.441528
23204.150000	2448.972500	1455.121094	1068.186279
23204.150000	2448.972500	1454.052734	1486.529419
23204.150000	2448.972500	1452.984375	981.535400
23204.150000	2448.972500	1451.915039	1327.792358
23204.150000	2448.972500	1450.845703	1346.315918
23204.150000	2448.972500	1449.776367	1462.143066
23204.150000	2448.972500	1448.707031	1084.240356
23204.150000	2448.972500	1447.636719	939.677368
23204.150000	2448.972500	1446.567383	1013.789185
23204.150000	2448.972500	1445.497070	998.291565
23204.150000	2448.972500	1444.425781	1025.507446
23204.150000	2448.972500	1443.355469	1243.177979
23204.150000	2448.972500	1442.285156	1124.770020
23204.150000	2448.972500	1441.213867	880.926819
23204.150000	2448.972500	1440.142578	839.576965
23204.150000	2448.972500	1439.070313	1083.553955
23204.150000	2448.972500	1437.999023	814.834473
23204.150000	2448.972500	1436.926758	1289.261719
23204.150000	2448.972500	1435.854492	793.892090
23204.150000	2448.972500	1434.782227	1108.418335
23204.150000	2448.972500	1433.709961	945.326355
23204.150000	2448.972500	1432.636719	924.318054
23204.150000	2448.972500	1431.563477	676.018982
23204.150000	2448.972500	1430.490234	744.950012
23204.150000	2448.972500	1429.416992	840.462097
23204.150000	2448.972500	1428.343750	747.359253
23204.150000	2448.972500	1427.269531	560.510681
23204.150000	2448.972500	1426.195313	547.509155
23204.150000	2448.972500	1425.121094	418.807190
23204.150000	2448.972500	1424.046875	327.896179
23204.150000	2448.972500	1422.971680	419.343445
23204.150000	2448.972500	1421.896484	650.008362
23204.150000	2448.972500	1420.821289	703.071716
23204.150000	2448.972500	1419.746094	342.800262
23204.150000	2448.972500	1418.669922	371.705627
23204.150000	2448.972500	1417.594727	466.961456
23204.150000	2448.972500	1416.518555	227.068573
23204.150000	2448.972500	1415.442383	155.742096
23204.150000	2448.972500	1414.365234	226.514114
23204.150000	2448.972500	1413.289063	428.784637
23204.150000	2448.972500	1412.211914	314.228333
23204.150000	2448.972500	1411.134766	412.186157
23204.150000	2448.972500	1410.057617	190.653183
23204.150000	2448.972500	1408.979492	456.037598
23204.150000	2448.972500	1407.902344	260.539581
23204.150000	2448.972500	1406.824219	320.000183
23204.150000	2448.972500	1405.746094	417.534485
23204.150000	2448.972500	1404.666992	629.233154
23204.150000	2448.972500	1403.588867	789.431091
23204.150000	2448.972500	1402.509766	820.006348
23204.150000	2448.972500	1401.430664	625.498718
23204.150000	2448.972500	1400.351563	409.922577
23204.150000	2448.972500	1399.271484	773.063110
23204.150000	2448.972500	1398.192383	704.420593
23204.150000	2448.972500	1397.112305	921.887146
23204.150000	2448.972500	1396.031250	1139.811890
23204.150000	2448.972500	1394.951172	1100.955200
23204.150000	2448.972500	1393.871094	988.790344
23204.150000	2448.972500	1392.790039	997.754028
23204.150000	2448.972500	1391.708984	1185.356445
23204.150000	2448.972500	1390.626953	1121.716309
23204.150000	2448.972500	1389.545898	1068.521606
23204.150000	2448.972500	1388.463867	1120.392700
23204.150000	2448.972500	1387.381836	1220.352173
23204.150000	2448.972500	1386.299805	1572.621216
23204.150000	2448.972500	1385.217773	1318.378174
23204.150000	2448.972500	1384.134766	1485.653198
23204.150000	2448.972500	1383.051758	1311.067627
23204.150000	2448.972500	1381.968750	1435.067383
23204.150000	2448.972500	1380.885742	1365.580444
23204.150000	2448.972500	1379.802734	1369.396240
23204.150000	2448.972500	1378.718750	1332.860474
23204.150000	2448.972500	1377.634766	1323.984131
23204.150000	2448.972500	1376.550781	1556.730347
23204.150000	2448.972500	1375.465820	1479.900513
23204.150000	2448.972500	1374.381836	1310.351807
23204.150000	2448.972500	1373.296875	1041.374512
23204.150000	2448.972500	1372.211914	1347.296753
23204.150000	2448.972500	1371.126953	1326.022949
23204.150000	2448.972500	1370.041016	1401.000000
23204.150000	2448.972500	1368.955078	1431.401001
23204.150000	2448.972500	1367.869141	1299.171509
23204.150000	2448.972500	1366.783203	1359.030396
23204.150000	2448.972500	1365.697266	1166.760986
23204.150000	2448.972500	1364.610352	1437.346313
23204.150000	2448.972500	1363.523438	1158.343140
23204.150000	2448.972500	1362.436523	1457.603027
23204.150000	2448.972500	1361.349609	1619.013062
23204.150000	2448.972500	1360.261719	1166.880859
23204.150000	2448.972500	1359.174805	1202.929077
23204.150000	2448.972500	1358.086914	1382.853760
23204.150000	2448.972500	1356.998047	1448.719727
23204.150000	2448.972500	1355.910156	1317.703613
23204.150000	2448.972500	1354.821289	1287.221191
23204.150000	2448.972500	1353.732422	1362.397705
23204.150000	2448.972500	1352.643555	1261.494751
23204.150000	2448.972500	1351.554688	1151.274292
23204.150000	2448.972500	1350.464844	1378.133301
23204.150000	2448.972500	1349.375000	1511.985474
23204.150000	2448.972500	1348.285156	1241.303467
23204.150000	2448.972500	1347.195313	1103.427002
23204.150000	2448.972500	1346.105469	1452.484985
23204.150000	2448.972500	1345.014648	1131.068848
23204.150000	2448.972500	1343.923828	850.280579
23204.150000	2448.972500	1342.833008	1039.774414
23204.150000	2448.972500	1341.741211	965.462646
23204.150000	2448.972500	1340.650391	1050.565552
23204.150000	2448.972500	1339.558594	969.614868
23204.150000	2448.972500	1338.466797	1273.399170
23204.150000	2448.972500	1337.374023	1028.950562
23204.150000	2448.972500	1336.282227	943.478333
23204.150000	2448.972500	1335.189453	1083.552368
23204.150000	2448.972500	1334.096680	969.185303
23204.150000	2448.972500	1333.003906	949.582214
23204.150000	2448.972500	1331.910156	1203.101685
23204.150000	2448.972500	1330.817383	1018.033875
23204.150000	2448.972500	1329.723633	1024.006470
23204.150000	2448.972500	1328.629883	1030.310791
23204.150000	2448.972500	1327.535156	747.804199
23204.150000	2448.972500	1326.441406	1066.683716
23204.150000	2448.972500	1325.346680	1147.691528
23204.150000	2448.972500	1324.251953	1159.108521
23204.150000	2448.972500	1323.156250	1081.275024
23204.150000	2448.972500	1322.061523	660.984680
23204.150000	2448.972500	1320.965820	1058.515747
23204.150000	2448.972500	1319.870117	1085.232666
23204.150000	2448.972500	1318.774414	1022.147034
23204.150000	2448.972500	1317.678711	1082.752563
23204.150000	2448.972500	1316.582031	1168.958496
23204.150000	2448.972500	1315.485352	946.841614
23204.150000	2448.972500	1314.388672	920.665405
23204.150000	2448.972500	1313.291016	1095.214355
23204.150000	2448.972500	1312.194336	1058.096313
23204.150000	2448.972500	1311.096680	1274.201294
23204.150000	2448.972500	1309.999023	968.945007
23204.150000	2448.972500	1308.901367	1028.124268
23204.150000	2448.972500	1307.802734	927.524109
23204.150000	2448.972500	1306.705078	1025.845093
23204.150000	2448.972500	1305.606445	1099.491577
23204.150000	2448.972500	1304.506836	1125.231323
23204.150000	2448.972500	1303.408203	881.951721
23204.150000	2448.972500	1302.308594	1051.180908
23204.150000	2448.972500	1301.208984	1153.031250
23204.150000	2448.972500	1300.109375	1288.430298
23204.150000	2448.972500	1299.009766	1295.946167
23204.150000	2448.972500	1297.909180	1278.905518
23204.150000	2448.972500	1296.808594	1279.719360
23204.150000	2448.972500	1295.708008	1265.457886
23204.150000	2448.972500	1294.607422	1499.224121
23204.150000	2448.972500	1293.506836	1355.140747
23204.150000	2448.972500	1292.405273	1036.371216
23204.150000	2448.972500	1291.303711	1363.259399
23204.150000	2448.972500	1290.202148	1013.768005
23204.150000	2448.972500	1289.099609	1035.312378
23204.150000	2448.972500	1287.998047	931.721130
23204.150000	2448.972500	1286.895508	888.063538
23204.150000	2448.972500	1285.792969	570.800720
23204.150000	2448.972500	1284.689453	736.221252
23204.150000	2448.972500	1283.586914	874.407227
23204.150000	2448.972500	1282.483398	740.422485
23204.150000	2448.972500	1281.379883	1004.929077
23204.150000	2448.972500	1280.276367	850.721619
23204.150000	2448.972500	1279.171875	905.350708
23204.150000	2448.972500	1278.067383	834.575806
23204.150000	2448.972500	1276.962891	831.451355
23204.150000	2448.972500	1275.858398	728.736877
23204.150000	2448.972500	1274.753906	823.172302
23204.150000	2448.972500	1273.648438	963.993896
23204.150000	2448.972500	1272.542969	741.384949
23204.150000	2448.972500	1271.437500	711.032593
23204.150000	2448.972500	1270.331055	541.720154
23204.150000	2448.972500	1269.225586	670.030762
23204.150000	2448.972500	1268.119141	559.515625
23204.150000	2448.972500	1267.012695	427.025726
23204.150000	2448.972500	1265.906250	366.103851
23204.150000	2448.972500	1264.798828	430.125244
23204.150000	2448.972500	1263.691406	271.040405
23204.150000	2448.972500	1262.583984	125.425331
23204.150000	2448.972500	1261.476563	246.777847
23204.150000	2448.972500	1260.368164	44.867840
23204.150000	2448.972500	1259.260742	93.414757
23204.150000	2448.972500	1258.152344	147.032806
23204.150000	2448.972500	1257.043945	150.281799
23204.150000	2448.972500	1255.934570	81.869209
23204.150000	2448.972500	1254.825195	59.270859
23204.150000	2448.972500	1253.716797	15.605171
23204.150000	2448.972500	1252.606445	-70.284454
23204.150000	2448.972500	1251.497070	137.846207
23204.150000	2448.972500	1250.387695	46.036671
23204.150000	2448.972500	1249.277344	-82.698921
23204.150000	2448.972500	1248.166992	79.045006
23204.150000	2448.972500	1247.055664	5.157581
23204.150000	2448.972500	1245.945313	36.577053
23204.150000	2448.972500	1244.833984	21.007578
23204.150000	2448.972500	1243.722656	21.372362
23204.150000	2448.972500	1242.611328	-12.164582
23204.150000	2448.972500	1241.499023	55.008518
23204.150000	2448.972500	1240.387695	-172.242172
23204.150000	2448.972500	1239.275391	-128.556335
23204.150000	2448.972500	1238.162109	-167.738754
23204.150000	2448.972500	1237.049805	-80.303940
23204.150000	2448.972500	1235.936523	188.155167
23204.150000	2448.972500	1234.823242	192.587402
23204.150000	2448.972500	1233.709961	25.172482
23204.150000	2448.972500	1232.596680	-63.095406
23204.150000	2448.972500	1231.482422	-169.702271
23204.150000	2448.972500	1230.369141	-150.582169
23204.150000	2448.972500	1229.253906	-140.365234
23204.150000	2448.972500	1228.139648	-55.139904
23204.150000	2448.972500	1227.025391	99.834389
23204.150000	2448.972500	1225.910156	-33.574978
23204.150000	2448.972500	1224.794922	135.249161
23204.150000	2448.972500	1223.679688	142.267914
23204.150000	2448.972500	1222.563477	13.680581
23204.150000	2448.972500	1221.447266	-65.682602
23204.150000	2448.972500	1220.331055	-119.993324
23204.150000	2448.972500	1219.214844	-221.708420
23204.150000	2448.972500	1218.098633	-174.095230
23204.150000	2448.972500	1216.981445	-49.560097
23204.150000	2448.972500	1215.864258	-189.079132
23204.150000	2448.972500	1214.747070	-34.083702
23204.150000	2448.972500	1213.629883	60.160835
23204.150000	2448.972500	1212.511719	-162.857498
23204.150000	2448.972500	1211.393555	-56.766853
23204.150000	2448.972500	1210.275391	-194.279816
23204.150000	2448.972500	1209.157227	-279.731995
23204.150000	2448.972500	1208.038086	-190.881638
23204.150000	2448.972500	1206.918945	98.700035
23204.150000	2448.972500	1205.799805	180.874710
23204.150000	2448.972500	1204.680664	63.638901
23204.150000	2448.972500	1203.560547	-331.609619
23204.150000	2448.972500	1202.441406	-42.682808
23204.150000	2448.972500	1201.321289	-52.209377
23204.150000	2448.972500	1200.200195	163.564819
23204.150000	2448.972500	1199.080078	-38.443172
23204.150000	2448.972500	1197.958984	103.793793
23204.150000	2448.972500	1196.837891	-115.654137
23204.150000	2448.972500	1195.716797	-18.983692
23204.150000	2448.972500	1194.594727	24.032505
23204.150000	2448.972500	1193.473633	153.757690
23204.150000	2448.972500	1192.351563	115.380371
23204.150000	2448.972500	1191.229492	51.555202
23204.150000	2448.972500	1190.106445	165.263184
23204.150000	2448.972500	1188.984375	-2.375853
23204.150000	2448.972500	1187.861328	-81.601723
23204.150000	2448.972500	1186.738281	92.105843
23204.150000	2448.972500	1185.614258	-36.567352
23204.150000	2448.972500	1184.491211	-99.373749
23204.150000	2448.972500	1183.367188	-37.690517
23204.150000	2448.972500	1182.243164	23.286232
23204.150000	2448.972500	1181.119141	-43.620476
23204.150000	2448.972500	1179.994141	-116.279900
23204.150000	2448.972500	1178.869141	-216.442490
23204.150000	2448.972500	1177.744141	-268.994171
23204.150000	2448.972500	1176.619141	-220.820831
23204.150000	2448.972500	1175.493164	-264.499054
23204.150000	2448.972500	1174.368164	-94.043121
23204.150000	2448.972500	1173.242188	0.515922
23204.150000	2448.972500	1172.115234	-18.085011
23204.150000	2448.972500	1170.989258	-145.185684
23204.150000	2448.972500	1169.862305	103.004555
23204.150000	2448.972500	1168.735352	19.656208
23204.150000	2448.972500	1167.608398	62.414783
23204.150000	2448.972500	1166.481445	53.408234
23204.150000	2448.972500	1165.353516	-173.796280
23204.150000	2448.972500	1164.225586	-10.732828
23204.150000	2448.972500	1163.097656	-57.117153
23204.150000	2448.972500	1161.968750	-17.249556
23204.150000	2448.972500	1160.840820	-170.663025
23204.150000	2448.972500	1159.711914	-210.406555
23204.150000	2448.972500	1158.583008	214.568420
23204.150000	2448.972500	1157.453125	6.670242
23204.150000	2448.972500	1156.324219	-147.156555
23204.150000	2448.972500	1155.194336	-163.229370
23204.150000	2448.972500	1154.064453	-33.672928
23204.150000	2448.972500	1152.933594	-70.993340
23204.150000	2448.972500	1151.803711	-218.024368
23204.150000	2448.972500	1150.672852	-279.400696
23204.150000	2448.972500	1149.541992	-203.640976
23204.150000	2448.972500	1148.411133	-132.370880
23204.150000	2448.972500	1147.279297	253.168594
23204.150000	2448.972500	1146.147461	-166.587723
23204.150000	2448.972500	1145.015625	-140.702896
23204.150000	2448.972500	1143.883789	-31.374765
23204.150000	2448.972500	1142.750977	-163.366211
23204.150000	2448.972500	1141.619141	-147.748947
23204.150000	2448.972500	1140.486328	-71.233780
23204.150000	2448.972500	1139.352539	25.918667
23204.150000	2448.972500	1138.219727	161.256607
23204.150000	2448.972500	1137.085938	139.756058
23204.150000	2448.972500	1135.952148	427.452698
23204.150000	2448.972500	1134.818359	450.146942
23204.150000	2448.972500	1133.683594	411.299622
23204.150000	2448.972500	1132.549805	588.249451
23204.150000	2448.972500	1131.415039	715.580566
23204.150000	2448.972500	1130.279297	753.231812
23204.150000	2448.972500	1129.144531	1089.120605
23204.150000	2448.972500	1128.008789	1113.832642
23204.150000	2448.972500	1126.873047	1043.051025
23204.150000	2448.972500	1125.737305	1080.293335
23204.150000	2448.972500	1124.601563	1212.662598
23204.150000	2448.972500	1123.464844	834.605225
23204.150000	2448.972500	1122.328125	978.496521
23204.150000	2448.972500	1121.191406	927.906616
23204.150000	2448.972500	1120.054688	853.714294
23204.150000	2448.972500	1118.916992	1119.648560
23204.150000	2448.972500	1117.779297	966.159485
23204.150000	2448.972500	1116.641602	940.631836
23204.150000	2448.972500	1115.503906	717.461975
23204.150000	2448.972500	1114.365234	777.800354
23204.150000	2448.972500	1113.226563	648.609497
23204.150000	2448.972500	1112.087891	685.479126
23204.150000	2448.972500	1110.949219	633.430725
23204.150000	2448.972500	1109.809570	380.296082
23204.150000	2448.972500	1108.669922	543.176758
23204.150000	2448.972500	1107.530273	608.721375
23204.150000	2448.972500	1106.390625	747.297058
23204.150000	2448.972500	1105.250000	868.485107
23204.150000	2448.972500	1104.109375	474.280396
23204.150000	2448.972500	1102.968750	571.780701
23204.150000	2448.972500	1101.828125	747.753723
23204.150000	2448.972500	1100.686523	685.168945
23204.150000	2448.972500	1099.544922	826.617554
23204.150000	2448.972500	1098.403320	840.050842
23204.150000	2448.972500	1097.261719	1069.910400
23204.150000	2448.972500	1096.120117	771.118469
23204.150000	2448.972500	1094.977539	785.272827
23204.150000	2448.972500	1093.834961	548.770020
23204.150000	2448.972500	1092.691406	534.469360
23204.150000	2448.972500	1091.548828	608.225220
23204.150000	2448.972500	1090.405273	784.232422
23204.150000	2448.972500	1089.261719	614.739746
23204.150000	2448.972500	1088.118164	720.823608
23204.150000	2448.972500	1086.973633	786.915100
23204.150000	2448.972500	1085.829102	588.540771
23204.150000	2448.972500	1084.684570	518.095459
23204.150000	2448.972500	1083.540039	601.874512
23204.150000	2448.972500	1082.395508	568.331543
23204.150000	2448.972500	1081.250000	404.260284
23204.150000	2448.972500	1080.104492	594.402832
23204.150000	2448.972500	1078.958984	362.316254
23204.150000	2448.972500	1077.812500	632.333130
23204.150000	2448.972500	1076.666016	408.289642
23204.150000	2448.972500	1075.519531	609.932373
23204.150000	2448.972500	1074.373047	629.213074
23204.150000	2448.972500	1073.226563	596.095154
23204.150000	2448.972500	1072.079102	602.287598
23204.150000	2448.972500	1070.931641	595.812927
23204.150000	2448.972500	1069.784180	598.603210
23204.150000	2448.972500	1068.635742	682.283264
23204.150000	2448.972500	1067.487305	685.991150
23204.150000	2448.972500	1066.338867	643.311340
23204.150000	2448.972500	1065.190430	572.115723
23204.150000	2448.972500	1064.041992	866.115845
23204.150000	2448.972500	1062.892578	804.101990
23204.150000	2448.972500	1061.743164	850.599487
23204.150000	2448.972500	1060.593750	916.749695
23204.150000	2448.972500	1059.443359	840.881592
23204.150000	2448.972500	1058.292969	678.657715
23204.150000	2448.972500	1057.142578	708.080688
23204.150000	2448.972500	1055.992188	379.698242
23204.150000	2448.972500	1054.841797	624.403687
23204.150000	2448.972500	1053.690430	69.539185
23204.150000	2448.972500	1052.539063	476.992493
23204.150000	2448.972500	1051.387695	417.002686
23204.150000	2448.972500	1050.235352	529.745605
23204.150000	2448.972500	1049.083984	295.987213
23204.150000	2448.972500	1047.931641	383.244293
23204.150000	2448.972500	1046.778320	196.568192
23204.150000	2448.972500	1045.625977	606.446167
23204.150000	2448.972500	1044.472656	128.374893
23204.150000	2448.972500	1043.319336	156.438416
23204.150000	2448.972500	1042.166016	307.416931
23204.150000	2448.972500	1041.012695	542.162903
23204.150000	2448.972500	1039.858398	189.206787
23204.150000	2448.972500	1038.704102	623.377258
23204.150000	2448.972500	1037.549805	499.167358
23204.150000	2448.972500	1036.394531	200.378860
23204.150000	2448.972500	1035.239258	413.610199
23204.150000	2448.972500	1034.083984	279.174866
23204.150000	2448.972500	1032.928711	212.808212
23204.150000	2448.972500	1031.773438	344.948730
23204.150000	2448.972500	1030.617188	211.653534
23204.150000	2448.972500	1029.460938	105.365372
23204.150000	2448.972500	1028.304688	218.671219
23204.150000	2448.972500	1027.147461	292.870117
23204.150000	2448.972500	1025.991211	356.220428
23204.150000	2448.972500	1024.833984	254.082901
23204.150000	2448.972500	1023.675781	42.278595
23204.150000	2448.972500	1022.518555	347.966858
23204.150000	2448.972500	1021.360352	98.589890
23204.150000	2448.972500	1020.202148	77.915459
23204.150000	2448.972500	1019.043945	404.032532
23204.150000	2448.972500	1017.884766	129.600830
23204.150000	2448.972500	1016.726563	184.292358
23204.150000	2448.972500	1015.567383	244.642197
23204.150000	2448.972500	1014.407227	79.350433
23204.150000	2448.972500	1013.248047	151.034866
23204.150000	2448.972500	1012.087891	251.366852
23204.150000	2448.972500	1010.927734	103.441063
23204.150000	2448.972500	1009.767578	131.328918
23204.150000	2448.972500	1008.606445	-66.099518
23204.150000	2448.972500	1007.446289	-116.903343
23204.150000	2448.972500	1006.285156	51.525524
23204.150000	2448.972500	1005.123047	85.850090
23204.150000	2448.972500	1003.961914	164.574234
23204.150000	2448.972500	1002.799805	39.532154
23204.150000	2448.972500	1001.637695	175.514481
23204.150000	2448.972500	1000.475586	240.256729
23204.150000	2448.972500	999.312500	100.450668
23204.150000	2448.972500	998.149414	-228.620651
23204.150000	2448.972500	996.986328	42.329090
23204.150000	2448.972500	995.823242	191.631119
23204.150000	2448.972500	994.659180	514.191772
23204.150000	2448.972500	993.496094	-22.444715
23204.150000	2448.972500	992.332031	21.351484
23204.150000	2448.972500	991.166992	67.538361
23204.150000	2448.972500	990.002930	208.986725
23204.150000	2448.972500	988.837891	163.326004
23204.150000	2448.972500	987.672852	72.423866
23204.150000	2448.972500	986.506836	113.838547
23204.150000	2448.972500	985.341797	-80.181694
23204.150000	2448.972500	984.175781	172.148331
23204.150000	2448.972500	983.009766	278.905518
23204.150000	2448.972500	981.843750	61.731628
23204.150000	2448.972500	980.676758	-74.038025
23204.150000	2448.972500	979.509766	87.747833
23204.150000	2448.972500	978.342773	100.566917
23204.150000	2448.972500	977.175781	1.978957
23204.150000	2448.972500	976.007813	92.194038
23204.150000	2448.972500	974.839844	57.926151
23204.150000	2448.972500	973.671875	241.227203
23204.150000	2448.972500	972.503906	247.869827
23204.150000	2448.972500	971.334961	184.411560
23204.150000	2448.972500	970.166016	214.880997
23204.150000	2448.972500	968.997070	-102.781258
23204.150000	2448.972500	967.828125	236.746216
23204.150000	2448.972500	966.658203	156.630142
23204.150000	2448.972500	965.488281	258.770386
23204.150000	2448.972500	964.318359	254.181763
23204.150000	2448.972500	963.148438	110.011818
23204.150000	2448.972500	961.977539	106.507179
23204.150000	2448.972500	960.806641	-28.432125
23204.150000	2448.972500	959.635742	130.304367
23204.150000	2448.972500	958.463867	-7.822027
23204.150000	2448.972500	957.292969	-20.158466
23204.150000	2448.972500	956.121094	472.747772
23204.150000	2448.972500	954.948242	-143.260529
23204.150000	2448.972500	953.776367	-27.292082
23204.150000	2448.972500	952.603516	453.738434
23204.150000	2448.972500	951.430664	-51.821381
23204.150000	2448.972500	950.257813	-262.181488
23204.150000	2448.972500	949.084961	31.297859
23204.150000	2448.972500	947.911133	93.505295
23204.150000	2448.972500	946.737305	155.817780
23204.150000	2448.972500	945.563477	147.875000
23204.150000	2448.972500	944.388672	381.983490
23204.150000	2448.972500	943.213867	363.504608
23204.150000	2448.972500	942.039063	391.919861
23204.150000	2448.972500	940.864258	82.798508
23204.150000	2448.972500	939.688477	404.146179
23204.150000	2448.972500	938.513672	357.339233
23204.150000	2448.972500	937.337891	259.362518
23204.150000	2448.972500	936.161133	381.662170
23204.150000	2448.972500	934.985352	317.560028
23204.150000	2448.972500	933.808594	377.017242
23204.150000	2448.972500	932.631836	317.819244
23204.150000	2448.972500	931.454102	495.762360
23204.150000	2448.972500	930.277344	497.026001
23204.150000	2448.972500	929.099609	483.592621
23204.150000	2448.972500	927.921875	770.464417
23204.150000	2448.972500	926.743164	490.754089
23204.150000	2448.972500	925.565430	450.734802
23204.150000	2448.972500	924.386719	488.160339
23204.150000	2448.972500	923.208008	530.398193
23204.150000	2448.972500	922.028320	487.945648
23204.150000	2448.972500	920.849609	213.298676
23204.150000	2448.972500	919.669922	220.921783
23204.150000	2448.972500	919.474609	310.008942
23204.150000	2448.972500	918.309570	593.897461
23204.150000	2448.972500	917.143555	79.958321
23204.150000	2448.972500	915.977539	192.168350
23204.150000	2448.972500	914.810547	-164.434296
23204.150000	2448.972500	913.644531	-42.578281
23204.150000	2448.972500	912.477539	-85.018036
23204.150000	2448.972500	911.310547	126.109947
23204.150000	2448.972500	910.143555	-220.568710
23204.150000	2448.972500	908.975586	26.696918
23204.150000	2448.972500	907.807617	3.559409
23204.150000	2448.972500	906.639648	-215.015839
23204.150000	2448.972500	905.471680	-228.457947
23204.150000	2448.972500	904.303711	83.704323
23204.150000	2448.972500	903.134766	-243.276245
23204.150000	2448.972500	901.965820	-177.153366
23204.150000	2448.972500	900.796875	-94.188278
23204.150000	2448.972500	899.626953	-172.718094
23204.150000	2448.972500	898.457031	-51.236790
23204.150000	2448.972500	897.287109	5.150589
23204.150000	2448.972500	896.117188	-1.106307
23204.150000	2448.972500	894.947266	-98.864487
23204.150000	2448.972500	893.776367	-16.017786
23204.150000	2448.972500	892.605469	76.420197
23204.150000	2448.972500	891.434570	-129.581436
23204.150000	2448.972500	890.262695	47.058052
23204.150000	2448.972500	889.091797	156.264160
23204.150000	2448.972500	887.919922	41.768272
23204.150000	2448.972500	886.748047	18.689518
23204.150000	2448.972500	885.575195	123.042145
23204.150000	2448.972500	884.403320	-222.113632
23204.150000	2448.972500	883.230469	12.012069
23204.150000	2448.972500	882.057617	85.073494
23204.150000	2448.972500	880.883789	196.543777
23204.150000	2448.972500	879.710938	38.990910
23204.150000	2448.972500	878.537109	-20.045309
23204.150000	2448.972500	877.362305	28.976294
23204.150000	2448.972500	876.188477	164.379486
23204.150000	2448.972500	875.013672	-55.407295
23204.150000	2448.972500	873.839844	-203.134537
23204.150000	2448.972500	872.664063	-36.564949
23204.150000	2448.972500	871.489258	-340.101685
23204.150000	2448.972500	870.313477	-281.458984
23204.150000	2448.972500	869.138672	-239.625671
23204.150000	2448.972500	867.962891	-125.899979
23204.150000	2448.972500	866.786133	-69.721359
23204.150000	2448.972500	865.610352	-18.358038
23204.150000	2448.972500	864.433594	-98.743050
23204.150000	2448.972500	863.256836	-222.197083
23204.150000	2448.972500	862.079102	-489.243347
23204.150000	2448.972500	860.902344	-88.337639
23204.150000	2448.972500	859.724609	-249.995102
23204.150000	2448.972500	858.546875	-19.175173
23204.150000	2448.972500	857.368164	-302.776154
23204.150000	2448.972500	856.190430	-361.437469
23204.150000	2448.972500	855.011719	36.663494
23204.150000	2448.972500	853.833008	-306.536255
23204.150000	2448.972500	852.654297	0.562653
23204.150000	2448.972500	851.474609	-170.416687
23204.150000	2448.972500	850.294922	-248.140900
23204.150000	2448.972500	849.115234	-258.946198
23204.150000	2448.972500	847.935547	45.510845
23204.150000	2448.972500	846.754883	-297.252228
23204.150000	2448.972500	845.575195	-186.287155
23204.150000	2448.972500	844.393555	-283.013336
23204.150000	2448.972500	843.212891	-64.705505
23204.150000	2448.972500	842.032227	-376.152832
23204.150000	2448.972500	840.850586	-124.519524
23204.150000	2448.972500	839.668945	-225.954758
23204.150000	2448.972500	838.486328	-389.339600
23204.150000	2448.972500	837.304688	-385.792267
23204.150000	2448.972500	836.122070	-93.853737
23204.150000	2448.972500	834.939453	-331.046326
23204.150000	2448.972500	833.756836	-239.372482
23204.150000	2448.972500	832.573242	-123.916542
23204.150000	2448.972500	831.389648	-41.853172
23204.150000	2448.972500	830.206055	-33.641956
23204.150000	2448.972500	829.022461	50.734055
23204.150000	2448.972500	827.838867	-100.549988
23204.150000	2448.972500	826.654297	-325.539459
23204.150000	2448.972500	825.469727	-336.334839
23204.150000	2448.972500	824.284180	-275.776520
23204.150000	2448.972500	823.099609	-120.137070
23204.150000	2448.972500	821.914063	18.788221
23204.150000	2448.972500	820.728516	-222.681274
23204.150000	2448.972500	819.542969	-195.515060
23204.150000	2448.972500	818.356445	-272.914978
23204.150000	2448.972500	817.169922	-122.243301
23204.150000	2448.972500	815.983398	-183.030167
23204.150000	2448.972500	814.796875	-215.313507
23204.150000	2448.972500	813.609375	-192.992538
23204.150000	2448.972500	812.422852	-52.023392
23204.150000	2448.972500	811.235352	46.159595
23204.150000	2448.972500	810.046875	-81.114449
23204.150000	2448.972500	808.859375	-20.961773
23204.150000	2448.972500	807.670898	148.243683
23204.150000	2448.972500	806.482422	-280.172882
23204.150000	2448.972500	805.293945	85.736740
23204.150000	2448.972500	804.104492	-129.217926
23204.150000	2448.972500	802.915039	32.669151
23204.150000	2448.972500	801.725586	-11.655777
23204.150000	2448.972500	800.536133	100.343361
23204.150000	2448.972500	799.345703	-7.971376
23204.150000	2448.972500	798.155273	-31.034533
23204.150000	2448.972500	796.964844	-326.349152
23204.150000	2448.972500	795.774414	-316.265930
23204.150000	2448.972500	794.583008	155.205933
23204.150000	2448.972500	793.392578	89.413483
23204.150000	2448.972500	792.200195	-26.047688
23204.150000	2448.972500	791.008789	-42.183674
23204.150000	2448.972500	789.816406	10.220443
23204.150000	2448.972500	788.625000	436.037292
23204.150000	2448.972500	787.432617	119.563690
23204.150000	2448.972500	786.239258	195.411575
23204.150000	2448.972500	785.046875	-161.126328
23204.150000	2448.972500	783.853516	254.766083
23204.150000	2448.972500	782.660156	302.068481
23204.150000	2448.972500	781.465820	51.843464
23204.150000	2448.972500	780.272461	247.776535
23204.150000	2448.972500	779.078125	297.271301
23204.150000	2448.972500	777.883789	-4.854484
23204.150000	2448.972500	776.688477	84.676308
23204.150000	2448.972500	775.494141	9.020235
23204.150000	2448.972500	774.298828	140.844177
23204.150000	2448.972500	773.103516	185.331238
23204.150000	2448.972500	771.907227	114.256355
23204.150000	2448.972500	770.711914	335.346771
23204.150000	2448.972500	769.515625	424.354828
23204.150000	2448.972500	768.318359	273.011444
23204.150000	2448.972500	767.122070	397.194489
23204.150000	2448.972500	765.924805	460.048584
23204.150000	2448.972500	764.727539	645.218079
23204.150000	2448.972500	763.530273	561.941711
23204.150000	2448.972500	762.333008	285.682922
23204.150000	2448.972500	761.134766	442.339203
23204.150000	2448.972500	759.936523	32.015976
23204.150000	2448.972500	758.738281	207.325058
23204.150000	2448.972500	757.540039	319.007202
23204.150000	2448.972500	756.340820	129.695908
23204.150000	2448.972500	755.141602	581.957764
23204.150000	2448.972500	753.942383	401.910400
23204.150000	2448.972500	752.742188	231.257492
23204.150000	2448.972500	751.541992	307.196594
23204.150000	2448.972500	750.341797	70.718460
23204.150000	2448.972500	749.141602	247.436798
23204.150000	2448.972500	747.941406	144.684128
23204.150000	2448.972500	746.740234	224.925400
23204.150000	2448.972500	745.539063	450.506989
23204.150000	2448.972500	744.337891	244.296509
23204.150000	2448.972500	743.135742	406.274353
23204.150000	2448.972500	741.933594	228.109329
23204.150000	2448.972500	740.731445	-95.420746
23204.150000	2448.972500	739.529297	202.170914
23204.150000	2448.972500	738.326172	117.596733
23204.150000	2448.972500	737.124023	54.034683
23204.150000	2448.972500	735.919922	84.093567
23204.150000	2448.972500	734.716797	188.966263
23204.150000	2448.972500	733.513672	553.572144
23204.150000	2448.972500	732.309570	328.041229
23204.150000	2448.972500	731.105469	371.627075
23204.150000	2448.972500	729.900391	202.164536
23204.150000	2448.972500	728.696289	107.516411
23204.150000	2448.972500	727.491211	139.090195
23204.150000	2448.972500	726.286133	23.219900
23204.150000	2448.972500	725.080078	201.851379
23204.150000	2448.972500	723.874023	471.447754
23204.150000	2448.972500	722.668945	434.675659
23204.150000	2448.972500	721.461914	145.470703
23204.150000	2448.972500	720.255859	377.165833
23204.150000	2448.972500	719.048828	337.733643
23204.150000	2448.972500	717.841797	298.190491
23204.150000	2448.972500	716.634766	95.124786
23204.150000	2448.972500	715.427734	165.083923
23204.150000	2448.972500	714.219727	164.880081
23204.150000	2448.972500	713.011719	96.887482
23204.150000	2448.972500	711.803711	112.757080
23204.150000	2448.972500	710.594727	-48.746136
23204.150000	2448.972500	709.385742	92.775856
23204.150000	2448.972500	708.176758	126.870506
23204.150000	2448.972500	706.967773	235.388016
23204.150000	2448.972500	705.758789	294.787964
23204.150000	2448.972500	704.548828	274.813385
23204.150000	2448.972500	703.338867	-45.744553
23204.150000	2448.972500	702.127930	94.741730
23204.150000	2448.972500	700.917969	260.628296
23204.150000	2448.972500	699.707031	284.312103
23204.150000	2448.972500	698.496094	193.809509
23204.150000	2448.972500	697.285156	147.396591
23204.150000	2448.972500	696.073242	124.110512
23204.150000	2448.972500	694.861328	228.589127
23204.150000	2448.972500	693.649414	239.862457
23204.150000	2448.972500	692.436523	148.688080
23204.150000	2448.972500	691.224609	187.545227
23204.150000	2448.972500	690.011719	175.104401
23204.150000	2448.972500	688.798828	513.308838
23204.150000	2448.972500	687.584961	133.493774
23204.150000	2448.972500	686.372070	631.469604
23204.150000	2448.972500	685.158203	337.362976
23204.150000	2448.972500	683.943359	514.422363
23204.150000	2448.972500	682.729492	326.884827
23204.150000	2448.972500	681.514648	408.403595
23204.150000	2448.972500	680.299805	519.876038
23204.150000	2448.972500	679.084961	111.611694
23204.150000	2448.972500	677.869141	524.196899
23204.150000	2448.972500	676.653320	790.381104
23204.150000	2448.972500	675.437500	407.290253
23204.150000	2448.972500	674.221680	522.411804
23204.150000	2448.972500	673.004883	294.413605
23204.150000	2448.972500	671.789063	418.422089
23204.150000	2448.972500	670.571289	447.240967
23204.150000	2448.972500	669.354492	299.906708
23204.150000	2448.972500	668.136719	210.321686
23204.150000	2448.972500	666.919922	828.801025
23204.150000	2448.972500	665.701172	463.420349
23204.150000	2448.972500	664.483398	761.965881
23204.150000	2448.972500	663.264648	518.971863
23204.150000	2448.972500	662.045898	706.009949
23204.150000	2448.972500	660.827148	622.284668
23204.150000	2448.972500	659.608398	748.754456
23204.150000	2448.972500	658.388672	768.671631
23204.150000	2448.972500	657.168945	610.487488
23204.150000	2448.972500	655.949219	761.721191
23204.150000	2448.972500	654.728516	644.794617
23204.150000	2448.972500	653.507813	957.206543
23204.150000	2448.972500	652.287109	595.204651
23204.150000	2448.972500	651.066406	387.802155
23204.150000	2448.972500	649.844727	392.588593
23204.150000	2448.972500	648.623047	602.512573
23204.150000	2448.972500	647.401367	740.650085
23204.150000	2448.972500	646.179688	809.356262
23204.150000	2448.972500	644.957031	665.716309
23204.150000	2448.972500	643.734375	579.572083
23204.150000	2448.972500	642.511719	461.007507
23204.150000	2448.972500	641.289063	572.715820
23204.150000	2448.972500	640.065430	670.353943
23204.150000	2448.972500	638.841797	774.664917
23204.150000	2448.972500	637.618164	577.088257
23204.150000	2448.972500	636.393555	796.091064
23204.150000	2448.972500	635.168945	957.264587
23204.150000	2448.972500	633.944336	729.267212
23204.150000	2448.972500	632.719727	611.608765
23204.150000	2448.972500	631.494141	535.203247
23204.150000	2448.972500	630.269531	681.721252
23204.150000	2448.972500	629.042969	393.401886
23204.150000	2448.972500	627.817383	256.740967
23204.150000	2448.972500	626.590820	529.032349
23204.150000	2448.972500	625.365234	527.584839
23204.150000	2448.972500	624.137695	790.120056
23204.150000	2448.972500	622.911133	491.928894
23204.150000	2448.972500	621.683594	522.042419
23204.150000	2448.972500	620.456055	464.708496
23204.150000	2448.972500	619.228516	675.765564
23204.150000	2448.972500	618.000977	459.692688
23204.150000	2448.972500	616.772461	218.271606
23204.150000	2448.972500	615.543945	343.790009
23204.150000	2448.972500	614.314453	338.330139
23204.150000	2448.972500	613.085938	169.893555
23204.150000	2448.972500	611.856445	303.935028
23204.150000	2448.972500	610.626953	236.037903
23204.150000	2448.972500	609.397461	209.228424
23204.150000	2448.972500	608.166992	347.186005
23204.150000	2448.972500	606.936523	81.767929
23204.150000	2448.972500	605.706055	88.791618
23204.150000	2448.972500	604.474609	-197.442749
23204.150000	2448.972500	603.244141	-225.065796
23204.150000	2448.972500	602.012695	248.326462
23204.150000	2448.972500	600.780273	76.086311
23204.150000	2448.972500	599.548828	329.242249
23204.150000	2448.972500	598.316406	156.697601
23204.150000	2448.972500	597.083984	226.430191
23204.150000	2448.972500	595.851563	21.621033
23204.150000	2448.972500	594.618164	100.132019
23204.150000	2448.972500	593.384766	-155.199081
23204.150000	2448.972500	592.151367	7.500237
23204.150000	2448.972500	590.917969	-133.836975
23204.150000	2448.972500	589.683594	-17.239777
23204.150000	2448.972500	588.449219	-94.936150
23204.150000	2448.972500	587.214844	308.889893
23204.150000	2448.972500	585.979492	132.673859
23204.150000	2448.972500	584.745117	22.553307
23204.150000	2448.972500	583.509766	87.960075
23204.150000	2448.972500	582.273438	-268.780304
23204.150000	2448.972500	581.038086	19.808483
23204.150000	2448.972500	579.801758	-11.072835
23204.150000	2448.972500	578.565430	94.663506
23204.150000	2448.972500	577.329102	282.236115
23204.150000	2448.972500	576.091797	175.654022
23204.150000	2448.972500	574.854492	30.241760
23204.150000	2448.972500	573.617188	178.522705
23204.150000	2448.972500	572.378906	203.626740
23204.150000	2448.972500	571.141602	139.807632
23204.150000	2448.972500	569.903320	116.823151
23204.150000	2448.972500	568.664063	350.815613
23204.150000	2448.972500	567.425781	284.289520
23204.150000	2448.972500	566.186523	-32.554543
23204.150000	2448.972500	564.947266	228.191071
23204.150000	2448.972500	563.708008	231.786285
23204.150000	2448.972500	562.467773	242.049835
23204.150000	2448.972500	561.227539	224.909286
23204.150000	2448.972500	559.987305	-117.254272
23204.150000	2448.972500	558.747070	-70.964050
23204.150000	2448.972500	557.505859	9.233171
23204.150000	2448.972500	556.264648	23.427519
23204.150000	2448.972500	555.023438	-35.148285
23204.150000	2448.972500	553.781250	117.240005
23204.150000	2448.972500	552.539063	-163.953873
23204.150000	2448.972500	551.296875	-84.428810
23204.150000	2448.972500	550.054688	-5.047719
23204.150000	2448.972500	548.811523	180.753448
23204.150000	2448.972500	547.569336	-75.714897
23204.150000	2448.972500	546.325195	-39.808388
23204.150000	2448.972500	545.082031	5.061795
23204.150000	2448.972500	543.837891	-183.572632
23204.150000	2448.972500	542.593750	-290.677155
23204.150000	2448.972500	541.349609	-243.827560
23204.150000	2448.972500	540.105469	-233.318375
23204.150000	2448.972500	538.860352	-195.757919
23204.150000	2448.972500	537.615234	-137.931732
23204.150000	2448.972500	536.369141	-98.334999
23204.150000	2448.972500	535.124023	-278.269226
23204.150000	2448.972500	533.877930	-453.701813
23204.150000	2448.972500	532.631836	-421.095764
23204.150000	2448.972500	531.384766	-261.987579
23204.150000	2448.972500	530.138672	-60.059238
23204.150000	2448.972500	528.891602	-470.739502
23204.150000	2448.972500	527.643555	-205.768478
23204.150000	2448.972500	526.396484	-354.345459
23204.150000	2448.972500	525.148438	30.051556
23204.150000	2448.972500	523.900391	-260.913300
23204.150000	2448.972500	522.652344	-380.245636
23204.150000	2448.972500	521.403320	-154.285233
23204.150000	2448.972500	520.154297	-339.164734
23204.150000	2448.972500	518.905273	-449.573547
23204.150000	2448.972500	517.656250	-104.367027
23204.150000	2448.972500	516.406250	-208.137131
23204.150000	2448.972500	515.156250	-372.786102
23204.150000	2448.972500	513.906250	-325.526886
23204.150000	2448.972500	512.655273	-339.201660
23204.150000	2448.972500	511.404297	-69.021278
23204.150000	2448.972500	510.153320	-317.105133
23204.150000	2448.972500	508.902344	-743.045288
23204.150000	2448.972500	507.650391	-189.385315
23204.150000	2448.972500	506.398438	-385.644928
23204.150000	2448.972500	505.146484	-397.301086
23204.150000	2448.972500	503.893555	-93.973877
23204.150000	2448.972500	502.641602	-389.221710
23204.150000	2448.972500	501.388672	-133.329269
23204.150000	2448.972500	500.134766	21.210459
23204.150000	2448.972500	498.881836	-255.998962
23204.150000	2448.972500	497.627930	-121.791412
23204.150000	2448.972500	496.374023	48.287651
23204.150000	2448.972500	495.119141	220.494415
23204.150000	2448.972500	493.865234	93.854073
23204.150000	2448.972500	492.610352	-61.971634
23204.150000	2448.972500	491.355469	-188.567596
23204.150000	2448.972500	490.099609	68.724281
23204.150000	2448.972500	488.843750	298.947815
23204.150000	2448.972500	487.587891	311.386414
23204.150000	2448.972500	486.332031	43.364391
23204.150000	2448.972500	485.075195	82.699463
23204.150000	2448.972500	483.818359	182.538528
23204.150000	2448.972500	482.561523	147.789459
23204.150000	2448.972500	481.304688	169.069016
23204.150000	2448.972500	480.046875	412.155273
23204.150000	2448.972500	478.789063	229.405518
23204.150000	2448.972500	477.531250	24.305202
23204.150000	2448.972500	476.272461	233.569382
23204.150000	2448.972500	475.013672	538.992432
23204.150000	2448.972500	473.754883	246.541672
23204.150000	2448.972500	472.496094	75.043724
23204.150000	2448.972500	471.236328	156.419922
23204.150000	2448.972500	469.976563	461.440521
23204.150000	2448.972500	468.716797	721.554626
23204.150000	2448.972500	467.456055	382.196564
23204.150000	2448.972500	466.196289	358.195557
23204.150000	2448.972500	464.935547	459.312836
23204.150000	2448.972500	463.673828	160.295410
23204.150000	2448.972500	462.413086	180.874313
23204.150000	2448.972500	461.151367	328.694733
23204.150000	2448.972500	459.889648	150.328201
23204.150000	2448.972500	458.626953	364.933868
23204.150000	2448.972500	457.364258	387.397339
23204.150000	2448.972500	456.101563	304.880249
23204.150000	2448.972500	454.838867	418.682678
23204.150000	2448.972500	453.575195	257.935303
23204.150000	2448.972500	452.312500	304.615906
23204.150000	2448.972500	451.047852	197.281540
23204.150000	2448.972500	449.784180	506.821075
23204.150000	2448.972500	448.519531	156.329269
23204.150000	2448.972500	447.254883	195.861725
23204.150000	2448.972500	445.990234	355.572052
23204.150000	2448.972500	444.725586	216.601761
23204.150000	2448.972500	443.459961	28.545340
23204.150000	2448.972500	442.194336	143.240646
23204.150000	2448.972500	440.927734	35.113285
23204.150000	2448.972500	439.662109	229.577042
23204.150000	2448.972500	438.395508	192.359314
23204.150000	2448.972500	437.127930	206.132431
23204.150000	2448.972500	435.861328	413.235565
23204.150000	2448.972500	434.593750	46.329853
23204.150000	2448.972500	433.326172	277.417358
23204.150000	2448.972500	432.058594	370.382202
23204.150000	2448.972500	430.790039	-96.938164
23204.150000	2448.972500	429.521484	55.572868
23204.150000	2448.972500	428.252930	287.735596
23204.150000	2448.972500	426.984375	341.873840
23204.150000	2448.972500	425.714844	184.765991
23204.150000	2448.972500	424.445313	149.529526
23204.150000	2448.972500	423.174805	422.472717
23204.150000	2448.972500	421.905273	240.140945
23204.150000	2448.972500	420.634766	257.190430
23204.150000	2448.972500	419.364258	440.227814
23204.150000	2448.972500	418.092773	148.279144
23204.150000	2448.972500	416.822266	235.196426
23204.150000	2448.972500	415.550781	385.936462
23204.150000	2448.972500	414.278320	569.416931
23204.150000	2448.972500	413.006836	584.034851
23204.150000	2448.972500	411.734375	644.690918
23204.150000	2448.972500	410.461914	195.515289
23204.150000	2448.972500	409.188477	461.156830
23204.150000	2448.972500	407.916016	336.618530
23204.150000	2448.972500	406.642578	233.709869
23204.150000	2448.972500	405.368164	322.768005
23204.150000	2448.972500	404.094727	238.698761
23204.150000	2448.972500	402.820313	368.574890
23204.150000	2448.972500	401.545898	548.634277
23204.150000	2448.972500	400.270508	332.233154
23204.150000	2448.972500	398.996094	77.715919
23204.150000	2448.972500	397.720703	226.969162
23204.150000	2448.972500	396.444336	178.785950
23204.150000	2448.972500	395.168945	-119.679825
23204.150000	2448.972500	393.892578	181.832031
23204.150000	2448.972500	392.616211	210.852798
23204.150000	2448.972500	391.339844	362.640991
23204.150000	2448.972500	390.062500	169.202621
23204.150000	2448.972500	388.785156	149.259857
23204.150000	2448.972500	387.507813	258.549286
23204.150000	2448.972500	386.229492	249.914246
23204.150000	2448.972500	384.951172	90.359604
23204.150000	2448.972500	383.672852	496.390930
23204.150000	2448.972500	382.394531	21.805925
23204.150000	2448.972500	381.115234	161.068344
23204.150000	2448.972500	379.835938	259.483307
23204.150000	2448.972500	378.556641	-143.288895
23204.150000	2448.972500	377.277344	239.038055
23204.150000	2448.972500	375.997070	78.322975
23204.150000	2448.972500	374.716797	59.458569
23204.150000	2448.972500	373.435547	-61.999115
23204.150000	2448.972500	372.155273	-59.329437
23204.150000	2448.972500	370.874023	-51.523216
23204.150000	2448.972500	369.591797	-93.611862
23204.150000	2448.972500	368.310547	32.153950
23204.150000	2448.972500	367.028320	2.385016
23204.150000	2448.972500	365.746094	-42.162739
23204.150000	2448.972500	364.463867	-125.699471
23204.150000	2448.972500	363.180664	28.492861
23204.150000	2448.972500	361.897461	136.935989
23204.150000	2448.972500	360.614258	133.728851
23204.150000	2448.972500	359.330078	-196.306763
23204.150000	2448.972500	358.045898	-62.808929
23204.150000	2448.972500	356.761719	145.460297
23204.150000	2448.972500	355.477539	-155.190109
23204.150000	2448.972500	354.192383	13.724552
23204.150000	2448.972500	352.907227	-126.602913
23204.150000	2448.972500	351.622070	-23.527479
23204.150000	2448.972500	350.336914	-188.006973
23204.150000	2448.972500	349.050781	-39.248371
23204.150000	2448.972500	347.764648	-269.823334
23204.150000	2448.972500	346.477539	-49.402340
23204.150000	2448.972500	345.191406	-8.945463
23204.150000	2448.972500	343.904297	92.300140
23204.150000	2448.972500	342.616211	-113.555603
23204.150000	2448.972500	341.329102	-359.211456
23204.150000	2448.972500	340.041016	-80.329514
23204.150000	2448.972500	338.752930	-235.458801
23204.150000	2448.972500	337.463867	-4.275199
23204.150000	2448.972500	336.175781	-213.524979
23204.150000	2448.972500	334.886719	-139.524841
23204.150000	2448.972500	333.596680	77.557579
23204.150000	2448.972500	332.307617	-255.008896
23204.150000	2448.972500	331.017578	-140.859161
23204.150000	2448.972500	329.727539	-445.283844
23204.150000	2448.972500	328.436523	-187.642014
23204.150000	2448.972500	327.146484	-49.404995
23204.150000	2448.972500	325.855469	-414.997314
23204.150000	2448.972500	324.563477	-518.154724
23204.150000	2448.972500	323.272461	-214.907242
23204.150000	2448.972500	321.980469	-232.292114
23204.150000	2448.972500	320.688477	-192.765335
23204.150000	2448.972500	319.395508	32.055725
23204.150000	2448.972500	318.103516	-133.342087
23204.150000	2448.972500	316.810547	-59.165302
23204.150000	2448.972500	315.516602	-44.226990
23204.150000	2448.972500	314.223633	-175.475510
23204.150000	2448.972500	312.929688	-58.954487
23204.150000	2448.972500	311.635742	244.216751
23204.150000	2448.972500	310.340820	-24.022240
23204.150000	2448.972500	309.045898	107.553810
23204.150000	2448.972500	307.750977	340.412598
23204.150000	2448.972500	306.456055	548.168091
23204.150000	2448.972500	305.160156	713.141357
23204.150000	2448.972500	303.865234	698.546753
23204.150000	2448.972500	302.568359	1003.959839
23204.150000	2448.972500	301.272461	1288.251587
23204.150000	2448.972500	299.975586	1527.038452
23204.150000	2448.972500	298.678711	1837.721680
