#X		#Y		#Wave		#Intensity
23206.801117	2443.096500	1999.980469	-58.303989
23206.801117	2443.096500	1999.016602	-110.187172
23206.801117	2443.096500	1998.052734	38.182808
23206.801117	2443.096500	1997.087891	-334.162781
23206.801117	2443.096500	1996.123047	-12.876467
23206.801117	2443.096500	1995.158203	55.371269
23206.801117	2443.096500	1994.193359	138.220230
23206.801117	2443.096500	1993.228516	22.708452
23206.801117	2443.096500	1992.262695	95.190186
23206.801117	2443.096500	1991.297852	-52.878220
23206.801117	2443.096500	1990.332031	-5.568883
23206.801117	2443.096500	1989.366211	41.527515
23206.801117	2443.096500	1988.399414	229.444321
23206.801117	2443.096500	1987.433594	310.744202
23206.801117	2443.096500	1986.466797	238.516815
23206.801117	2443.096500	1985.500977	57.351521
23206.801117	2443.096500	1984.534180	81.290024
23206.801117	2443.096500	1983.567383	245.955551
23206.801117	2443.096500	1982.599609	69.389153
23206.801117	2443.096500	1981.632813	73.112411
23206.801117	2443.096500	1980.665039	-76.454002
23206.801117	2443.096500	1979.697266	-132.234787
23206.801117	2443.096500	1978.729492	14.376641
23206.801117	2443.096500	1977.761719	123.785545
23206.801117	2443.096500	1976.792969	-213.749039
23206.801117	2443.096500	1975.825195	-161.314362
23206.801117	2443.096500	1974.856445	-44.836922
23206.801117	2443.096500	1973.887695	86.307213
23206.801117	2443.096500	1972.918945	91.515686
23206.801117	2443.096500	1971.949219	153.364670
23206.801117	2443.096500	1970.980469	67.166496
23206.801117	2443.096500	1970.010742	116.519447
23206.801117	2443.096500	1969.041016	259.447540
23206.801117	2443.096500	1968.071289	57.247112
23206.801117	2443.096500	1967.101563	59.565929
23206.801117	2443.096500	1966.130859	106.172295
23206.801117	2443.096500	1965.161133	108.371681
23206.801117	2443.096500	1964.190430	-19.990189
23206.801117	2443.096500	1963.219727	48.616158
23206.801117	2443.096500	1962.249023	255.006775
23206.801117	2443.096500	1961.277344	-144.162216
23206.801117	2443.096500	1960.306641	148.238693
23206.801117	2443.096500	1959.334961	-34.326656
23206.801117	2443.096500	1958.363281	-5.311623
23206.801117	2443.096500	1957.391602	193.360977
23206.801117	2443.096500	1956.419922	114.083611
23206.801117	2443.096500	1955.447266	130.696121
23206.801117	2443.096500	1954.474609	-91.137962
23206.801117	2443.096500	1953.501953	163.851425
23206.801117	2443.096500	1952.529297	-18.621378
23206.801117	2443.096500	1951.556641	-228.059952
23206.801117	2443.096500	1950.583984	7.131648
23206.801117	2443.096500	1949.610352	193.117752
23206.801117	2443.096500	1948.636719	13.201983
23206.801117	2443.096500	1947.663086	-68.458496
23206.801117	2443.096500	1946.689453	105.159599
23206.801117	2443.096500	1945.715820	273.805054
23206.801117	2443.096500	1944.741211	140.626083
23206.801117	2443.096500	1943.767578	-156.848663
23206.801117	2443.096500	1942.792969	190.797516
23206.801117	2443.096500	1941.818359	143.545364
23206.801117	2443.096500	1940.842773	187.029099
23206.801117	2443.096500	1939.868164	103.046486
23206.801117	2443.096500	1938.892578	95.078453
23206.801117	2443.096500	1937.916992	-179.947388
23206.801117	2443.096500	1936.941406	-114.343552
23206.801117	2443.096500	1935.965820	-51.200985
23206.801117	2443.096500	1934.990234	-90.917320
23206.801117	2443.096500	1934.013672	-59.599987
23206.801117	2443.096500	1933.037109	-140.882355
23206.801117	2443.096500	1932.060547	-63.033352
23206.801117	2443.096500	1931.083984	168.965088
23206.801117	2443.096500	1930.107422	-247.441284
23206.801117	2443.096500	1929.129883	101.953339
23206.801117	2443.096500	1928.153320	-6.099434
23206.801117	2443.096500	1927.175781	110.864212
23206.801117	2443.096500	1926.198242	-33.782806
23206.801117	2443.096500	1925.219727	-100.137627
23206.801117	2443.096500	1924.242188	168.349823
23206.801117	2443.096500	1923.263672	-34.808884
23206.801117	2443.096500	1922.285156	116.346748
23206.801117	2443.096500	1921.306641	76.954308
23206.801117	2443.096500	1920.328125	15.616183
23206.801117	2443.096500	1919.349609	137.434723
23206.801117	2443.096500	1918.370117	7.796903
23206.801117	2443.096500	1917.391602	58.828342
23206.801117	2443.096500	1916.412109	41.536606
23206.801117	2443.096500	1915.431641	192.609818
23206.801117	2443.096500	1914.452148	-24.686033
23206.801117	2443.096500	1913.472656	60.526081
23206.801117	2443.096500	1912.492188	-241.972488
23206.801117	2443.096500	1911.511719	-183.535446
23206.801117	2443.096500	1910.531250	267.320953
23206.801117	2443.096500	1909.550781	133.146866
23206.801117	2443.096500	1908.569336	-59.436657
23206.801117	2443.096500	1907.588867	162.192352
23206.801117	2443.096500	1906.607422	149.933914
23206.801117	2443.096500	1905.625977	198.568756
23206.801117	2443.096500	1904.644531	76.766975
23206.801117	2443.096500	1903.662109	-169.124908
23206.801117	2443.096500	1902.680664	-195.876816
23206.801117	2443.096500	1901.698242	-69.309494
23206.801117	2443.096500	1900.715820	81.546074
23206.801117	2443.096500	1899.733398	293.161560
23206.801117	2443.096500	1898.750000	-258.935974
23206.801117	2443.096500	1897.767578	-59.486359
23206.801117	2443.096500	1896.784180	125.306755
23206.801117	2443.096500	1895.800781	-78.866112
23206.801117	2443.096500	1894.817383	91.282028
23206.801117	2443.096500	1893.833984	113.153343
23206.801117	2443.096500	1892.850586	173.882431
23206.801117	2443.096500	1891.866211	176.296005
23206.801117	2443.096500	1890.881836	156.850113
23206.801117	2443.096500	1889.897461	-163.653717
23206.801117	2443.096500	1888.913086	-127.211853
23206.801117	2443.096500	1887.927734	-22.833609
23206.801117	2443.096500	1886.943359	35.389427
23206.801117	2443.096500	1885.958008	-156.303345
23206.801117	2443.096500	1884.972656	18.331188
23206.801117	2443.096500	1883.987305	367.498718
23206.801117	2443.096500	1883.001953	202.482117
23206.801117	2443.096500	1882.015625	294.483795
23206.801117	2443.096500	1881.029297	-13.492378
23206.801117	2443.096500	1880.042969	93.018997
23206.801117	2443.096500	1879.056641	54.096634
23206.801117	2443.096500	1878.070313	-105.954193
23206.801117	2443.096500	1877.083984	-101.274536
23206.801117	2443.096500	1876.096680	203.651337
23206.801117	2443.096500	1875.109375	82.327309
23206.801117	2443.096500	1874.122070	159.512726
23206.801117	2443.096500	1873.134766	144.672958
23206.801117	2443.096500	1872.146484	3.986688
23206.801117	2443.096500	1871.159180	-3.622567
23206.801117	2443.096500	1870.170898	3.252734
23206.801117	2443.096500	1869.182617	-76.969315
23206.801117	2443.096500	1868.194336	-89.497169
23206.801117	2443.096500	1867.205078	4.312480
23206.801117	2443.096500	1866.216797	-75.977821
23206.801117	2443.096500	1865.227539	82.960968
23206.801117	2443.096500	1864.238281	176.562744
23206.801117	2443.096500	1863.249023	-68.101677
23206.801117	2443.096500	1862.259766	-1.161643
23206.801117	2443.096500	1861.269531	56.049347
23206.801117	2443.096500	1860.279297	-120.992653
23206.801117	2443.096500	1859.290039	121.984505
23206.801117	2443.096500	1858.298828	302.076630
23206.801117	2443.096500	1857.308594	250.405807
23206.801117	2443.096500	1856.318359	191.464584
23206.801117	2443.096500	1855.327148	243.443604
23206.801117	2443.096500	1854.335938	215.764557
23206.801117	2443.096500	1853.344727	28.906517
23206.801117	2443.096500	1852.353516	271.153259
23206.801117	2443.096500	1851.362305	-43.506386
23206.801117	2443.096500	1850.370117	46.727348
23206.801117	2443.096500	1849.377930	148.910248
23206.801117	2443.096500	1848.385742	-54.932682
23206.801117	2443.096500	1847.393555	107.308548
23206.801117	2443.096500	1846.401367	267.012482
23206.801117	2443.096500	1845.408203	224.360382
23206.801117	2443.096500	1844.415039	-181.808350
23206.801117	2443.096500	1843.421875	259.217865
23206.801117	2443.096500	1842.428711	88.850784
23206.801117	2443.096500	1841.435547	334.652618
23206.801117	2443.096500	1840.441406	262.798492
23206.801117	2443.096500	1839.448242	335.179413
23206.801117	2443.096500	1838.454102	215.109695
23206.801117	2443.096500	1837.459961	222.409775
23206.801117	2443.096500	1836.464844	200.784790
23206.801117	2443.096500	1835.470703	30.101988
23206.801117	2443.096500	1834.475586	275.032562
23206.801117	2443.096500	1833.480469	152.272293
23206.801117	2443.096500	1832.485352	19.865913
23206.801117	2443.096500	1831.490234	314.823975
23206.801117	2443.096500	1830.495117	285.490112
23206.801117	2443.096500	1829.499023	49.656807
23206.801117	2443.096500	1828.502930	15.402199
23206.801117	2443.096500	1827.506836	180.213470
23206.801117	2443.096500	1826.510742	52.205746
23206.801117	2443.096500	1825.513672	202.368546
23206.801117	2443.096500	1824.517578	388.349487
23206.801117	2443.096500	1823.520508	51.502598
23206.801117	2443.096500	1822.523438	162.936905
23206.801117	2443.096500	1821.526367	204.728546
23206.801117	2443.096500	1820.529297	210.461517
23206.801117	2443.096500	1819.531250	170.572144
23206.801117	2443.096500	1818.533203	212.034103
23206.801117	2443.096500	1817.535156	222.244949
23206.801117	2443.096500	1816.537109	225.165680
23206.801117	2443.096500	1815.539063	374.007324
23206.801117	2443.096500	1814.540039	5.699941
23206.801117	2443.096500	1813.541992	135.170807
23206.801117	2443.096500	1812.542969	-51.333481
23206.801117	2443.096500	1811.543945	355.364777
23206.801117	2443.096500	1810.543945	180.626877
23206.801117	2443.096500	1809.544922	127.799049
23206.801117	2443.096500	1808.544922	206.367325
23206.801117	2443.096500	1807.544922	401.919098
23206.801117	2443.096500	1806.544922	14.162590
23206.801117	2443.096500	1805.544922	106.705559
23206.801117	2443.096500	1804.544922	65.319778
23206.801117	2443.096500	1803.543945	112.205811
23206.801117	2443.096500	1802.542969	194.778793
23206.801117	2443.096500	1801.541992	272.427765
23206.801117	2443.096500	1800.541016	278.317169
23206.801117	2443.096500	1799.539063	136.110123
23206.801117	2443.096500	1798.538086	432.906403
23206.801117	2443.096500	1797.536133	211.754303
23206.801117	2443.096500	1796.534180	64.512169
23206.801117	2443.096500	1795.532227	136.614105
23206.801117	2443.096500	1794.529297	94.111359
23206.801117	2443.096500	1793.527344	306.592316
23206.801117	2443.096500	1792.524414	147.037811
23206.801117	2443.096500	1791.521484	332.966034
23206.801117	2443.096500	1790.518555	144.630554
23206.801117	2443.096500	1789.514648	106.315521
23206.801117	2443.096500	1788.511719	53.605709
23206.801117	2443.096500	1787.507813	98.418411
23206.801117	2443.096500	1786.503906	-47.374954
23206.801117	2443.096500	1785.500000	128.111084
23206.801117	2443.096500	1784.496094	-84.519234
23206.801117	2443.096500	1783.491211	254.833145
23206.801117	2443.096500	1782.486328	1.559709
23206.801117	2443.096500	1781.481445	-68.594589
23206.801117	2443.096500	1780.476563	60.911087
23206.801117	2443.096500	1779.471680	-99.831589
23206.801117	2443.096500	1778.465820	-158.426224
23206.801117	2443.096500	1777.460938	175.043900
23206.801117	2443.096500	1776.455078	-83.443825
23206.801117	2443.096500	1775.449219	142.712097
23206.801117	2443.096500	1774.442383	152.487732
23206.801117	2443.096500	1773.436523	48.140697
23206.801117	2443.096500	1772.429688	188.272507
23206.801117	2443.096500	1771.422852	112.186401
23206.801117	2443.096500	1770.416016	66.857018
23206.801117	2443.096500	1769.409180	0.059825
23206.801117	2443.096500	1768.402344	108.739258
23206.801117	2443.096500	1767.394531	-131.476944
23206.801117	2443.096500	1766.386719	74.167282
23206.801117	2443.096500	1765.378906	-268.173615
23206.801117	2443.096500	1764.371094	5.918526
23206.801117	2443.096500	1763.362305	-248.835220
23206.801117	2443.096500	1762.354492	-62.793514
23206.801117	2443.096500	1761.345703	-14.391418
23206.801117	2443.096500	1760.336914	5.436580
23206.801117	2443.096500	1759.328125	-121.725258
23206.801117	2443.096500	1758.318359	193.876877
23206.801117	2443.096500	1757.308594	109.086235
23206.801117	2443.096500	1756.299805	-18.400877
23206.801117	2443.096500	1755.290039	-56.034481
23206.801117	2443.096500	1754.279297	107.354401
23206.801117	2443.096500	1753.269531	67.094948
23206.801117	2443.096500	1752.258789	362.615387
23206.801117	2443.096500	1751.249023	-68.156891
23206.801117	2443.096500	1750.238281	28.403160
23206.801117	2443.096500	1749.226563	-83.249245
23206.801117	2443.096500	1748.215820	261.215363
23206.801117	2443.096500	1747.204102	253.296448
23206.801117	2443.096500	1746.193359	46.793667
23206.801117	2443.096500	1745.181641	-39.282204
23206.801117	2443.096500	1744.168945	-97.115517
23206.801117	2443.096500	1743.157227	92.912529
23206.801117	2443.096500	1742.144531	-12.384236
23206.801117	2443.096500	1741.132813	-146.076981
23206.801117	2443.096500	1740.120117	-3.719441
23206.801117	2443.096500	1739.106445	-267.401154
23206.801117	2443.096500	1738.093750	13.878763
23206.801117	2443.096500	1737.080078	-120.211426
23206.801117	2443.096500	1736.067383	21.560074
23206.801117	2443.096500	1735.053711	-112.714035
23206.801117	2443.096500	1734.040039	-44.318295
23206.801117	2443.096500	1733.025391	-60.924091
23206.801117	2443.096500	1732.011719	-134.182510
23206.801117	2443.096500	1730.997070	-52.039715
23206.801117	2443.096500	1729.982422	159.515182
23206.801117	2443.096500	1728.967773	201.308197
23206.801117	2443.096500	1727.952148	9.850140
23206.801117	2443.096500	1726.937500	202.104324
23206.801117	2443.096500	1725.921875	-48.345108
23206.801117	2443.096500	1724.906250	-6.995474
23206.801117	2443.096500	1723.890625	-208.116364
23206.801117	2443.096500	1722.875000	-89.337685
23206.801117	2443.096500	1721.858398	-210.623764
23206.801117	2443.096500	1720.841797	-16.865982
23206.801117	2443.096500	1719.825195	-34.881718
23206.801117	2443.096500	1718.808594	-41.242237
23206.801117	2443.096500	1717.791992	-92.355705
23206.801117	2443.096500	1716.774414	-110.668282
23206.801117	2443.096500	1715.756836	-91.485832
23206.801117	2443.096500	1714.739258	37.983711
23206.801117	2443.096500	1713.721680	-149.725388
23206.801117	2443.096500	1712.704102	-48.665737
23206.801117	2443.096500	1711.685547	75.720032
23206.801117	2443.096500	1710.667969	-95.748978
23206.801117	2443.096500	1709.649414	-79.534332
23206.801117	2443.096500	1708.630859	16.347864
23206.801117	2443.096500	1707.611328	-26.306019
23206.801117	2443.096500	1706.592773	-45.569706
23206.801117	2443.096500	1705.573242	120.306519
23206.801117	2443.096500	1704.553711	-225.031906
23206.801117	2443.096500	1703.534180	116.428902
23206.801117	2443.096500	1702.513672	80.366814
23206.801117	2443.096500	1701.494141	79.390602
23206.801117	2443.096500	1700.473633	43.178944
23206.801117	2443.096500	1699.453125	-53.996296
23206.801117	2443.096500	1698.432617	-50.526443
23206.801117	2443.096500	1697.412109	-16.704182
23206.801117	2443.096500	1696.390625	-125.772903
23206.801117	2443.096500	1695.369141	-26.594217
23206.801117	2443.096500	1694.347656	72.469902
23206.801117	2443.096500	1693.326172	262.655121
23206.801117	2443.096500	1692.304688	134.597565
23206.801117	2443.096500	1691.282227	249.703903
23206.801117	2443.096500	1690.260742	-2.362693
23206.801117	2443.096500	1689.238281	259.849487
23206.801117	2443.096500	1688.214844	26.405067
23206.801117	2443.096500	1687.192383	113.121925
23206.801117	2443.096500	1686.168945	129.635986
23206.801117	2443.096500	1685.146484	106.385483
23206.801117	2443.096500	1684.123047	50.369411
23206.801117	2443.096500	1683.099609	136.739746
23206.801117	2443.096500	1682.075195	204.324646
23206.801117	2443.096500	1681.051758	96.789352
23206.801117	2443.096500	1680.027344	143.235031
23206.801117	2443.096500	1679.002930	44.953529
23206.801117	2443.096500	1677.978516	471.496094
23206.801117	2443.096500	1676.953125	321.755157
23206.801117	2443.096500	1675.928711	325.928650
23206.801117	2443.096500	1674.903320	316.045105
23206.801117	2443.096500	1673.877930	278.144623
23206.801117	2443.096500	1672.852539	610.741455
23206.801117	2443.096500	1671.826172	258.144714
23206.801117	2443.096500	1670.800781	310.984589
23206.801117	2443.096500	1669.774414	335.795929
23206.801117	2443.096500	1668.748047	588.753906
23206.801117	2443.096500	1667.721680	287.477295
23206.801117	2443.096500	1666.694336	419.210632
23206.801117	2443.096500	1665.667969	118.003311
23206.801117	2443.096500	1664.640625	228.700531
23206.801117	2443.096500	1663.613281	427.720795
23206.801117	2443.096500	1662.585938	463.816620
23206.801117	2443.096500	1661.557617	809.132935
23206.801117	2443.096500	1660.530273	705.577759
23206.801117	2443.096500	1659.501953	562.497986
23206.801117	2443.096500	1658.473633	707.633606
23206.801117	2443.096500	1657.444336	1050.181152
23206.801117	2443.096500	1656.416016	1067.338135
23206.801117	2443.096500	1655.386719	945.083862
23206.801117	2443.096500	1654.358398	964.529907
23206.801117	2443.096500	1653.328125	1204.491455
23206.801117	2443.096500	1652.298828	1302.751953
23206.801117	2443.096500	1651.269531	1250.094116
23206.801117	2443.096500	1650.239258	1253.116821
23206.801117	2443.096500	1649.208984	1109.958496
23206.801117	2443.096500	1648.178711	1393.651978
23206.801117	2443.096500	1647.148438	1401.241821
23206.801117	2443.096500	1646.117188	1392.572998
23206.801117	2443.096500	1645.086914	1478.964111
23206.801117	2443.096500	1644.055664	1567.615234
23206.801117	2443.096500	1643.024414	1741.969727
23206.801117	2443.096500	1641.992188	1624.304077
23206.801117	2443.096500	1640.960938	1546.079712
23206.801117	2443.096500	1639.928711	1562.822632
23206.801117	2443.096500	1638.896484	1581.876709
23206.801117	2443.096500	1637.864258	1677.325562
23206.801117	2443.096500	1636.832031	1647.746704
23206.801117	2443.096500	1635.798828	1909.760742
23206.801117	2443.096500	1634.766602	1729.766113
23206.801117	2443.096500	1633.733398	1785.793213
23206.801117	2443.096500	1632.699219	2003.693237
23206.801117	2443.096500	1631.666016	1888.546387
23206.801117	2443.096500	1630.632813	1660.170166
23206.801117	2443.096500	1629.598633	1773.987915
23206.801117	2443.096500	1628.564453	2014.886230
23206.801117	2443.096500	1627.530273	1703.470093
23206.801117	2443.096500	1626.495117	1884.244751
23206.801117	2443.096500	1625.460938	1991.073364
23206.801117	2443.096500	1624.425781	2277.992432
23206.801117	2443.096500	1623.390625	2098.439209
23206.801117	2443.096500	1622.355469	1879.739258
23206.801117	2443.096500	1621.319336	2198.884521
23206.801117	2443.096500	1620.284180	2047.219971
23206.801117	2443.096500	1619.248047	1861.026733
23206.801117	2443.096500	1618.211914	2108.573975
23206.801117	2443.096500	1617.174805	2187.693115
23206.801117	2443.096500	1616.138672	1980.926392
23206.801117	2443.096500	1615.101563	2196.121582
23206.801117	2443.096500	1614.065430	2309.873291
23206.801117	2443.096500	1613.027344	2179.328613
23206.801117	2443.096500	1611.990234	2150.261230
23206.801117	2443.096500	1610.953125	2165.014893
23206.801117	2443.096500	1609.915039	1843.550659
23206.801117	2443.096500	1608.876953	2224.535400
23206.801117	2443.096500	1607.838867	2165.716553
23206.801117	2443.096500	1606.800781	2321.023682
23206.801117	2443.096500	1605.761719	2310.616943
23206.801117	2443.096500	1604.723633	2196.744141
23206.801117	2443.096500	1603.684570	2393.496582
23206.801117	2443.096500	1602.644531	2238.332520
23206.801117	2443.096500	1601.605469	2235.060547
23206.801117	2443.096500	1600.566406	2408.865967
23206.801117	2443.096500	1599.526367	2467.720459
23206.801117	2443.096500	1598.486328	2496.737793
23206.801117	2443.096500	1597.446289	2528.100586
23206.801117	2443.096500	1596.405273	2345.864502
23206.801117	2443.096500	1595.365234	2744.846436
23206.801117	2443.096500	1594.324219	2443.361572
23206.801117	2443.096500	1593.283203	2706.833252
23206.801117	2443.096500	1592.242188	2407.903564
23206.801117	2443.096500	1591.200195	2912.368408
23206.801117	2443.096500	1590.159180	2556.292480
23206.801117	2443.096500	1589.117188	2393.113770
23206.801117	2443.096500	1588.075195	2608.511963
23206.801117	2443.096500	1587.032227	2484.503906
23206.801117	2443.096500	1585.990234	2610.533936
23206.801117	2443.096500	1584.947266	2376.701660
23206.801117	2443.096500	1583.904297	2608.269531
23206.801117	2443.096500	1582.861328	2564.868164
23206.801117	2443.096500	1581.818359	2567.381348
23206.801117	2443.096500	1580.775391	2377.579834
23206.801117	2443.096500	1579.731445	2394.023926
23206.801117	2443.096500	1578.687500	2254.857422
23206.801117	2443.096500	1577.643555	2626.298096
23206.801117	2443.096500	1576.598633	2173.758057
23206.801117	2443.096500	1575.554688	2373.633545
23206.801117	2443.096500	1574.509766	2273.812256
23206.801117	2443.096500	1573.464844	2126.087402
23206.801117	2443.096500	1572.419922	2234.643799
23206.801117	2443.096500	1571.374023	1995.704590
23206.801117	2443.096500	1570.329102	1791.254761
23206.801117	2443.096500	1569.283203	2016.645630
23206.801117	2443.096500	1568.237305	1842.160522
23206.801117	2443.096500	1567.191406	1772.934937
23206.801117	2443.096500	1566.144531	1740.372437
23206.801117	2443.096500	1565.098633	2059.625000
23206.801117	2443.096500	1564.051758	2102.570068
23206.801117	2443.096500	1563.004883	1826.005859
23206.801117	2443.096500	1561.957031	1666.047119
23206.801117	2443.096500	1560.910156	1558.749146
23206.801117	2443.096500	1559.862305	1684.300903
23206.801117	2443.096500	1558.814453	1481.443604
23206.801117	2443.096500	1557.766602	1693.840210
23206.801117	2443.096500	1556.718750	1286.069824
23206.801117	2443.096500	1555.669922	1195.433228
23206.801117	2443.096500	1554.621094	1503.811646
23206.801117	2443.096500	1553.573242	1411.126587
23206.801117	2443.096500	1552.523438	1576.023071
23206.801117	2443.096500	1551.474609	1417.520264
23206.801117	2443.096500	1550.424805	1297.904663
23206.801117	2443.096500	1549.375000	1469.904663
23206.801117	2443.096500	1548.325195	1377.880249
23206.801117	2443.096500	1547.275391	1408.918579
23206.801117	2443.096500	1546.225586	982.660950
23206.801117	2443.096500	1545.174805	1325.698120
23206.801117	2443.096500	1544.124023	1222.872925
23206.801117	2443.096500	1543.073242	1154.324951
23206.801117	2443.096500	1542.022461	994.974854
23206.801117	2443.096500	1540.970703	885.818115
23206.801117	2443.096500	1539.919922	974.587036
23206.801117	2443.096500	1538.868164	663.476868
23206.801117	2443.096500	1537.815430	977.424377
23206.801117	2443.096500	1536.763672	812.076965
23206.801117	2443.096500	1535.710938	926.265564
23206.801117	2443.096500	1534.659180	970.158508
23206.801117	2443.096500	1533.606445	855.237549
23206.801117	2443.096500	1532.552734	690.548645
23206.801117	2443.096500	1531.500000	637.265320
23206.801117	2443.096500	1530.446289	613.623840
23206.801117	2443.096500	1529.393555	837.396851
23206.801117	2443.096500	1528.338867	872.955994
23206.801117	2443.096500	1527.285156	842.883972
23206.801117	2443.096500	1526.231445	525.034851
23206.801117	2443.096500	1525.176758	710.644226
23206.801117	2443.096500	1524.122070	656.097107
23206.801117	2443.096500	1523.067383	536.003540
23206.801117	2443.096500	1522.012695	486.321014
23206.801117	2443.096500	1520.957031	436.789459
23206.801117	2443.096500	1519.901367	360.246490
23206.801117	2443.096500	1518.845703	492.163361
23206.801117	2443.096500	1517.790039	243.892136
23206.801117	2443.096500	1516.734375	145.226257
23206.801117	2443.096500	1515.677734	252.638611
23206.801117	2443.096500	1514.621094	81.899727
23206.801117	2443.096500	1513.564453	332.058868
23206.801117	2443.096500	1512.507813	159.399689
23206.801117	2443.096500	1511.450195	36.688526
23206.801117	2443.096500	1510.393555	354.956573
23206.801117	2443.096500	1509.335938	203.165878
23206.801117	2443.096500	1508.278320	-34.279140
23206.801117	2443.096500	1507.219727	96.739891
23206.801117	2443.096500	1506.162109	279.807709
23206.801117	2443.096500	1505.103516	216.807327
23206.801117	2443.096500	1504.044922	-6.320336
23206.801117	2443.096500	1502.986328	-7.996876
23206.801117	2443.096500	1501.926758	331.254181
23206.801117	2443.096500	1500.868164	302.734802
23206.801117	2443.096500	1499.808594	-16.643250
23206.801117	2443.096500	1498.749023	77.009323
23206.801117	2443.096500	1497.688477	-171.992615
23206.801117	2443.096500	1496.628906	122.614632
23206.801117	2443.096500	1495.568359	11.507540
23206.801117	2443.096500	1494.507813	340.065033
23206.801117	2443.096500	1493.447266	208.984573
23206.801117	2443.096500	1492.386719	21.787806
23206.801117	2443.096500	1491.325195	-59.324875
23206.801117	2443.096500	1490.263672	-2.885319
23206.801117	2443.096500	1489.202148	51.432774
23206.801117	2443.096500	1488.140625	-94.456429
23206.801117	2443.096500	1487.079102	20.931557
23206.801117	2443.096500	1486.016602	-45.835045
23206.801117	2443.096500	1484.954102	-85.423630
23206.801117	2443.096500	1483.891602	284.515472
23206.801117	2443.096500	1482.829102	-35.910313
23206.801117	2443.096500	1481.765625	91.361961
23206.801117	2443.096500	1480.702148	-89.218582
23206.801117	2443.096500	1479.638672	-127.980057
23206.801117	2443.096500	1478.575195	22.179085
23206.801117	2443.096500	1477.511719	42.145535
23206.801117	2443.096500	1476.447266	84.713303
23206.801117	2443.096500	1475.382813	-14.046186
23206.801117	2443.096500	1474.318359	150.019333
23206.801117	2443.096500	1473.253906	284.946899
23206.801117	2443.096500	1472.189453	171.009827
23206.801117	2443.096500	1471.124023	21.539923
23206.801117	2443.096500	1470.058594	284.723053
23206.801117	2443.096500	1468.993164	433.451599
23206.801117	2443.096500	1467.927734	405.571198
23206.801117	2443.096500	1466.861328	458.203156
23206.801117	2443.096500	1465.794922	345.683136
23206.801117	2443.096500	1464.728516	521.571411
23206.801117	2443.096500	1463.662109	720.207764
23206.801117	2443.096500	1462.594727	661.901428
23206.801117	2443.096500	1461.528320	480.613312
23206.801117	2443.096500	1460.460938	623.874573
23206.801117	2443.096500	1459.393555	1028.467163
23206.801117	2443.096500	1458.326172	723.859497
23206.801117	2443.096500	1457.257813	1066.074585
23206.801117	2443.096500	1456.189453	774.438904
23206.801117	2443.096500	1455.121094	858.000793
23206.801117	2443.096500	1454.052734	1180.029541
23206.801117	2443.096500	1452.984375	1140.144043
23206.801117	2443.096500	1451.915039	1093.031860
23206.801117	2443.096500	1450.845703	1088.942383
23206.801117	2443.096500	1449.776367	1007.273743
23206.801117	2443.096500	1448.707031	1158.529419
23206.801117	2443.096500	1447.636719	1313.085205
23206.801117	2443.096500	1446.567383	1093.395630
23206.801117	2443.096500	1445.497070	1109.954712
23206.801117	2443.096500	1444.425781	1272.182495
23206.801117	2443.096500	1443.355469	819.505249
23206.801117	2443.096500	1442.285156	1183.429810
23206.801117	2443.096500	1441.213867	1165.047485
23206.801117	2443.096500	1440.142578	1044.998535
23206.801117	2443.096500	1439.070313	1150.448975
23206.801117	2443.096500	1437.999023	1042.341309
23206.801117	2443.096500	1436.926758	1075.788818
23206.801117	2443.096500	1435.854492	1322.150024
23206.801117	2443.096500	1434.782227	1141.846558
23206.801117	2443.096500	1433.709961	1202.018311
23206.801117	2443.096500	1432.636719	1301.732178
23206.801117	2443.096500	1431.563477	1014.894958
23206.801117	2443.096500	1430.490234	1063.174194
23206.801117	2443.096500	1429.416992	892.885681
23206.801117	2443.096500	1428.343750	957.548279
23206.801117	2443.096500	1427.269531	1120.309570
23206.801117	2443.096500	1426.195313	699.421448
23206.801117	2443.096500	1425.121094	806.873474
23206.801117	2443.096500	1424.046875	1020.217773
23206.801117	2443.096500	1422.971680	551.084717
23206.801117	2443.096500	1421.896484	913.835083
23206.801117	2443.096500	1420.821289	865.640076
23206.801117	2443.096500	1419.746094	934.448181
23206.801117	2443.096500	1418.669922	726.663757
23206.801117	2443.096500	1417.594727	863.060181
23206.801117	2443.096500	1416.518555	958.253479
23206.801117	2443.096500	1415.442383	891.433716
23206.801117	2443.096500	1414.365234	753.595398
23206.801117	2443.096500	1413.289063	778.737549
23206.801117	2443.096500	1412.211914	903.729065
23206.801117	2443.096500	1411.134766	1136.976196
23206.801117	2443.096500	1410.057617	945.019226
23206.801117	2443.096500	1408.979492	888.896240
23206.801117	2443.096500	1407.902344	797.685059
23206.801117	2443.096500	1406.824219	1141.431519
23206.801117	2443.096500	1405.746094	938.785461
23206.801117	2443.096500	1404.666992	919.886841
23206.801117	2443.096500	1403.588867	809.720764
23206.801117	2443.096500	1402.509766	1036.064453
23206.801117	2443.096500	1401.430664	1104.573120
23206.801117	2443.096500	1400.351563	1003.374634
23206.801117	2443.096500	1399.271484	1230.072632
23206.801117	2443.096500	1398.192383	1047.252563
23206.801117	2443.096500	1397.112305	1206.085205
23206.801117	2443.096500	1396.031250	1225.843506
23206.801117	2443.096500	1394.951172	1518.895386
23206.801117	2443.096500	1393.871094	1122.094482
23206.801117	2443.096500	1392.790039	1373.699341
23206.801117	2443.096500	1391.708984	1180.635498
23206.801117	2443.096500	1390.626953	1220.862793
23206.801117	2443.096500	1389.545898	1116.454712
23206.801117	2443.096500	1388.463867	953.765930
23206.801117	2443.096500	1387.381836	1245.975098
23206.801117	2443.096500	1386.299805	1065.282593
23206.801117	2443.096500	1385.217773	1107.535034
23206.801117	2443.096500	1384.134766	1120.222168
23206.801117	2443.096500	1383.051758	801.372009
23206.801117	2443.096500	1381.968750	1149.245483
23206.801117	2443.096500	1380.885742	784.138306
23206.801117	2443.096500	1379.802734	904.469482
23206.801117	2443.096500	1378.718750	833.272278
23206.801117	2443.096500	1377.634766	737.179565
23206.801117	2443.096500	1376.550781	941.922791
23206.801117	2443.096500	1375.465820	906.191650
23206.801117	2443.096500	1374.381836	1094.297241
23206.801117	2443.096500	1373.296875	838.668823
23206.801117	2443.096500	1372.211914	788.858765
23206.801117	2443.096500	1371.126953	877.256775
23206.801117	2443.096500	1370.041016	1044.224731
23206.801117	2443.096500	1368.955078	1139.080566
23206.801117	2443.096500	1367.869141	964.422546
23206.801117	2443.096500	1366.783203	904.035034
23206.801117	2443.096500	1365.697266	792.049683
23206.801117	2443.096500	1364.610352	813.451965
23206.801117	2443.096500	1363.523438	909.354126
23206.801117	2443.096500	1362.436523	944.118286
23206.801117	2443.096500	1361.349609	747.782532
23206.801117	2443.096500	1360.261719	758.797424
23206.801117	2443.096500	1359.174805	754.114075
23206.801117	2443.096500	1358.086914	715.056763
23206.801117	2443.096500	1356.998047	664.396057
23206.801117	2443.096500	1355.910156	876.824768
23206.801117	2443.096500	1354.821289	801.112976
23206.801117	2443.096500	1353.732422	790.930664
23206.801117	2443.096500	1352.643555	965.796265
23206.801117	2443.096500	1351.554688	1037.069946
23206.801117	2443.096500	1350.464844	962.146423
23206.801117	2443.096500	1349.375000	860.082092
23206.801117	2443.096500	1348.285156	902.801636
23206.801117	2443.096500	1347.195313	924.786316
23206.801117	2443.096500	1346.105469	739.826050
23206.801117	2443.096500	1345.014648	900.069763
23206.801117	2443.096500	1343.923828	515.284424
23206.801117	2443.096500	1342.833008	663.468872
23206.801117	2443.096500	1341.741211	784.854248
23206.801117	2443.096500	1340.650391	648.041382
23206.801117	2443.096500	1339.558594	686.106995
23206.801117	2443.096500	1338.466797	614.661438
23206.801117	2443.096500	1337.374023	813.645142
23206.801117	2443.096500	1336.282227	604.627136
23206.801117	2443.096500	1335.189453	555.706116
23206.801117	2443.096500	1334.096680	788.037048
23206.801117	2443.096500	1333.003906	379.820099
23206.801117	2443.096500	1331.910156	628.200867
23206.801117	2443.096500	1330.817383	631.177612
23206.801117	2443.096500	1329.723633	753.437439
23206.801117	2443.096500	1328.629883	623.111694
23206.801117	2443.096500	1327.535156	707.674377
23206.801117	2443.096500	1326.441406	849.396667
23206.801117	2443.096500	1325.346680	832.044312
23206.801117	2443.096500	1324.251953	986.986694
23206.801117	2443.096500	1323.156250	743.108215
23206.801117	2443.096500	1322.061523	900.714722
23206.801117	2443.096500	1320.965820	1014.390747
23206.801117	2443.096500	1319.870117	807.368713
23206.801117	2443.096500	1318.774414	1094.022461
23206.801117	2443.096500	1317.678711	954.792358
23206.801117	2443.096500	1316.582031	1138.676270
23206.801117	2443.096500	1315.485352	990.603760
23206.801117	2443.096500	1314.388672	957.048279
23206.801117	2443.096500	1313.291016	904.986450
23206.801117	2443.096500	1312.194336	834.112061
23206.801117	2443.096500	1311.096680	862.264343
23206.801117	2443.096500	1309.999023	997.302246
23206.801117	2443.096500	1308.901367	716.337891
23206.801117	2443.096500	1307.802734	735.463379
23206.801117	2443.096500	1306.705078	692.254944
23206.801117	2443.096500	1305.606445	753.007202
23206.801117	2443.096500	1304.506836	725.625305
23206.801117	2443.096500	1303.408203	911.226440
23206.801117	2443.096500	1302.308594	910.689331
23206.801117	2443.096500	1301.208984	957.171509
23206.801117	2443.096500	1300.109375	914.732544
23206.801117	2443.096500	1299.009766	667.265686
23206.801117	2443.096500	1297.909180	686.668091
23206.801117	2443.096500	1296.808594	801.161621
23206.801117	2443.096500	1295.708008	731.579102
23206.801117	2443.096500	1294.607422	772.044495
23206.801117	2443.096500	1293.506836	791.625061
23206.801117	2443.096500	1292.405273	758.210083
23206.801117	2443.096500	1291.303711	533.841736
23206.801117	2443.096500	1290.202148	615.671265
23206.801117	2443.096500	1289.099609	506.892761
23206.801117	2443.096500	1287.998047	540.985840
23206.801117	2443.096500	1286.895508	645.642639
23206.801117	2443.096500	1285.792969	411.401154
23206.801117	2443.096500	1284.689453	478.365784
23206.801117	2443.096500	1283.586914	198.901840
23206.801117	2443.096500	1282.483398	345.639954
23206.801117	2443.096500	1281.379883	391.650391
23206.801117	2443.096500	1280.276367	566.743652
23206.801117	2443.096500	1279.171875	330.100342
23206.801117	2443.096500	1278.067383	627.110046
23206.801117	2443.096500	1276.962891	512.865417
23206.801117	2443.096500	1275.858398	225.372330
23206.801117	2443.096500	1274.753906	223.388519
23206.801117	2443.096500	1273.648438	362.395416
23206.801117	2443.096500	1272.542969	249.221039
23206.801117	2443.096500	1271.437500	264.580261
23206.801117	2443.096500	1270.331055	282.298218
23206.801117	2443.096500	1269.225586	231.201981
23206.801117	2443.096500	1268.119141	84.375580
23206.801117	2443.096500	1267.012695	160.476196
23206.801117	2443.096500	1265.906250	130.425674
23206.801117	2443.096500	1264.798828	297.575623
23206.801117	2443.096500	1263.691406	183.925964
23206.801117	2443.096500	1262.583984	236.634933
23206.801117	2443.096500	1261.476563	29.973043
23206.801117	2443.096500	1260.368164	32.785046
23206.801117	2443.096500	1259.260742	200.069931
23206.801117	2443.096500	1258.152344	222.111954
23206.801117	2443.096500	1257.043945	-73.672859
23206.801117	2443.096500	1255.934570	-59.461246
23206.801117	2443.096500	1254.825195	177.334717
23206.801117	2443.096500	1253.716797	57.795193
23206.801117	2443.096500	1252.606445	-59.070080
23206.801117	2443.096500	1251.497070	-8.801003
23206.801117	2443.096500	1250.387695	-97.029366
23206.801117	2443.096500	1249.277344	-127.425087
23206.801117	2443.096500	1248.166992	-29.846432
23206.801117	2443.096500	1247.055664	-138.257294
23206.801117	2443.096500	1245.945313	-116.018692
23206.801117	2443.096500	1244.833984	-52.968651
23206.801117	2443.096500	1243.722656	-52.487820
23206.801117	2443.096500	1242.611328	78.965919
23206.801117	2443.096500	1241.499023	34.275303
23206.801117	2443.096500	1240.387695	-28.565029
23206.801117	2443.096500	1239.275391	122.094078
23206.801117	2443.096500	1238.162109	70.746841
23206.801117	2443.096500	1237.049805	9.592138
23206.801117	2443.096500	1235.936523	82.569061
23206.801117	2443.096500	1234.823242	-16.902050
23206.801117	2443.096500	1233.709961	27.439720
23206.801117	2443.096500	1232.596680	8.435374
23206.801117	2443.096500	1231.482422	85.279045
23206.801117	2443.096500	1230.369141	153.449234
23206.801117	2443.096500	1229.253906	-17.783634
23206.801117	2443.096500	1228.139648	-275.053833
23206.801117	2443.096500	1227.025391	-247.230667
23206.801117	2443.096500	1225.910156	-23.012728
23206.801117	2443.096500	1224.794922	-100.515488
23206.801117	2443.096500	1223.679688	-293.600037
23206.801117	2443.096500	1222.563477	-241.793106
23206.801117	2443.096500	1221.447266	-78.340958
23206.801117	2443.096500	1220.331055	-60.180809
23206.801117	2443.096500	1219.214844	-34.620010
23206.801117	2443.096500	1218.098633	-166.252991
23206.801117	2443.096500	1216.981445	-183.862488
23206.801117	2443.096500	1215.864258	-28.282419
23206.801117	2443.096500	1214.747070	-50.884560
23206.801117	2443.096500	1213.629883	73.879265
23206.801117	2443.096500	1212.511719	78.526024
23206.801117	2443.096500	1211.393555	57.844032
23206.801117	2443.096500	1210.275391	54.431278
23206.801117	2443.096500	1209.157227	185.331085
23206.801117	2443.096500	1208.038086	84.673607
23206.801117	2443.096500	1206.918945	335.364502
23206.801117	2443.096500	1205.799805	152.136551
23206.801117	2443.096500	1204.680664	177.539963
23206.801117	2443.096500	1203.560547	34.312187
23206.801117	2443.096500	1202.441406	9.341784
23206.801117	2443.096500	1201.321289	-81.820602
23206.801117	2443.096500	1200.200195	128.309708
23206.801117	2443.096500	1199.080078	20.527784
23206.801117	2443.096500	1197.958984	120.351837
23206.801117	2443.096500	1196.837891	89.749489
23206.801117	2443.096500	1195.716797	168.357910
23206.801117	2443.096500	1194.594727	113.102745
23206.801117	2443.096500	1193.473633	128.152618
23206.801117	2443.096500	1192.351563	100.075134
23206.801117	2443.096500	1191.229492	106.255157
23206.801117	2443.096500	1190.106445	-13.612264
23206.801117	2443.096500	1188.984375	-122.080780
23206.801117	2443.096500	1187.861328	-122.410271
23206.801117	2443.096500	1186.738281	-138.540833
23206.801117	2443.096500	1185.614258	68.266373
23206.801117	2443.096500	1184.491211	-12.768465
23206.801117	2443.096500	1183.367188	-7.430951
23206.801117	2443.096500	1182.243164	-30.533031
23206.801117	2443.096500	1181.119141	-161.522369
23206.801117	2443.096500	1179.994141	73.725388
23206.801117	2443.096500	1178.869141	-109.045860
23206.801117	2443.096500	1177.744141	-189.898010
23206.801117	2443.096500	1176.619141	-54.304096
23206.801117	2443.096500	1175.493164	-66.194595
23206.801117	2443.096500	1174.368164	66.432907
23206.801117	2443.096500	1173.242188	-8.968748
23206.801117	2443.096500	1172.115234	1.471049
23206.801117	2443.096500	1170.989258	137.550949
23206.801117	2443.096500	1169.862305	-18.034307
23206.801117	2443.096500	1168.735352	160.820053
23206.801117	2443.096500	1167.608398	-113.100121
23206.801117	2443.096500	1166.481445	108.514435
23206.801117	2443.096500	1165.353516	88.077583
23206.801117	2443.096500	1164.225586	11.724614
23206.801117	2443.096500	1163.097656	222.375183
23206.801117	2443.096500	1161.968750	-36.767914
23206.801117	2443.096500	1160.840820	112.703392
23206.801117	2443.096500	1159.711914	55.773991
23206.801117	2443.096500	1158.583008	-7.817976
23206.801117	2443.096500	1157.453125	-17.675573
23206.801117	2443.096500	1156.324219	-132.386337
23206.801117	2443.096500	1155.194336	34.719742
23206.801117	2443.096500	1154.064453	85.246315
23206.801117	2443.096500	1152.933594	200.550095
23206.801117	2443.096500	1151.803711	71.743210
23206.801117	2443.096500	1150.672852	111.343941
23206.801117	2443.096500	1149.541992	104.009865
23206.801117	2443.096500	1148.411133	120.233032
23206.801117	2443.096500	1147.279297	-22.392782
23206.801117	2443.096500	1146.147461	-94.484207
23206.801117	2443.096500	1145.015625	34.222313
23206.801117	2443.096500	1143.883789	25.287201
23206.801117	2443.096500	1142.750977	-77.062164
23206.801117	2443.096500	1141.619141	-199.386368
23206.801117	2443.096500	1140.486328	-86.739380
23206.801117	2443.096500	1139.352539	206.805298
23206.801117	2443.096500	1138.219727	183.246033
23206.801117	2443.096500	1137.085938	12.310776
23206.801117	2443.096500	1135.952148	158.845398
23206.801117	2443.096500	1134.818359	116.235573
23206.801117	2443.096500	1133.683594	135.648743
23206.801117	2443.096500	1132.549805	209.158096
23206.801117	2443.096500	1131.415039	327.086731
23206.801117	2443.096500	1130.279297	538.518494
23206.801117	2443.096500	1129.144531	565.131348
23206.801117	2443.096500	1128.008789	605.171021
23206.801117	2443.096500	1126.873047	686.737793
23206.801117	2443.096500	1125.737305	566.638306
23206.801117	2443.096500	1124.601563	419.776886
23206.801117	2443.096500	1123.464844	447.656433
23206.801117	2443.096500	1122.328125	300.114807
23206.801117	2443.096500	1121.191406	401.399139
23206.801117	2443.096500	1120.054688	362.528015
23206.801117	2443.096500	1118.916992	549.009094
23206.801117	2443.096500	1117.779297	608.437195
23206.801117	2443.096500	1116.641602	368.481506
23206.801117	2443.096500	1115.503906	437.912506
23206.801117	2443.096500	1114.365234	234.062790
23206.801117	2443.096500	1113.226563	321.860626
23206.801117	2443.096500	1112.087891	165.199631
23206.801117	2443.096500	1110.949219	14.238135
23206.801117	2443.096500	1109.809570	228.222595
23206.801117	2443.096500	1108.669922	176.591248
23206.801117	2443.096500	1107.530273	197.556137
23206.801117	2443.096500	1106.390625	103.853737
23206.801117	2443.096500	1105.250000	328.152161
23206.801117	2443.096500	1104.109375	119.693634
23206.801117	2443.096500	1102.968750	360.340607
23206.801117	2443.096500	1101.828125	246.385223
23206.801117	2443.096500	1100.686523	319.050140
23206.801117	2443.096500	1099.544922	212.898087
23206.801117	2443.096500	1098.403320	198.388245
23206.801117	2443.096500	1097.261719	474.804016
23206.801117	2443.096500	1096.120117	436.390717
23206.801117	2443.096500	1094.977539	292.231018
23206.801117	2443.096500	1093.834961	188.634171
23206.801117	2443.096500	1092.691406	316.963989
23206.801117	2443.096500	1091.548828	329.664246
23206.801117	2443.096500	1090.405273	312.122589
23206.801117	2443.096500	1089.261719	290.812469
23206.801117	2443.096500	1088.118164	259.739044
23206.801117	2443.096500	1086.973633	301.673126
23206.801117	2443.096500	1085.829102	480.864777
23206.801117	2443.096500	1084.684570	387.238068
23206.801117	2443.096500	1083.540039	268.859680
23206.801117	2443.096500	1082.395508	168.107758
23206.801117	2443.096500	1081.250000	129.858429
23206.801117	2443.096500	1080.104492	117.026062
23206.801117	2443.096500	1078.958984	-48.873440
23206.801117	2443.096500	1077.812500	124.560287
23206.801117	2443.096500	1076.666016	323.619720
23206.801117	2443.096500	1075.519531	381.532684
23206.801117	2443.096500	1074.373047	182.434250
23206.801117	2443.096500	1073.226563	135.368668
23206.801117	2443.096500	1072.079102	295.596405
23206.801117	2443.096500	1070.931641	99.593826
23206.801117	2443.096500	1069.784180	267.845612
23206.801117	2443.096500	1068.635742	198.449020
23206.801117	2443.096500	1067.487305	345.735077
23206.801117	2443.096500	1066.338867	141.445313
23206.801117	2443.096500	1065.190430	259.423798
23206.801117	2443.096500	1064.041992	480.945251
23206.801117	2443.096500	1062.892578	377.183899
23206.801117	2443.096500	1061.743164	349.000305
23206.801117	2443.096500	1060.593750	442.628204
23206.801117	2443.096500	1059.443359	265.995575
23206.801117	2443.096500	1058.292969	342.579285
23206.801117	2443.096500	1057.142578	232.243057
23206.801117	2443.096500	1055.992188	201.334854
23206.801117	2443.096500	1054.841797	480.670471
23206.801117	2443.096500	1053.690430	472.082916
23206.801117	2443.096500	1052.539063	215.779861
23206.801117	2443.096500	1051.387695	191.731384
23206.801117	2443.096500	1050.235352	145.023300
23206.801117	2443.096500	1049.083984	46.262413
23206.801117	2443.096500	1047.931641	56.408974
23206.801117	2443.096500	1046.778320	71.160500
23206.801117	2443.096500	1045.625977	86.898476
23206.801117	2443.096500	1044.472656	226.743057
23206.801117	2443.096500	1043.319336	148.497025
23206.801117	2443.096500	1042.166016	118.210556
23206.801117	2443.096500	1041.012695	236.326447
23206.801117	2443.096500	1039.858398	258.900787
23206.801117	2443.096500	1038.704102	-25.792709
23206.801117	2443.096500	1037.549805	100.126198
23206.801117	2443.096500	1036.394531	126.193993
23206.801117	2443.096500	1035.239258	144.069244
23206.801117	2443.096500	1034.083984	224.115616
23206.801117	2443.096500	1032.928711	319.637207
23206.801117	2443.096500	1031.773438	332.041687
23206.801117	2443.096500	1030.617188	54.368210
23206.801117	2443.096500	1029.460938	216.743347
23206.801117	2443.096500	1028.304688	129.420441
23206.801117	2443.096500	1027.147461	355.065521
23206.801117	2443.096500	1025.991211	192.595703
23206.801117	2443.096500	1024.833984	242.777222
23206.801117	2443.096500	1023.675781	307.774414
23206.801117	2443.096500	1022.518555	205.161880
23206.801117	2443.096500	1021.360352	86.336449
23206.801117	2443.096500	1020.202148	152.788269
23206.801117	2443.096500	1019.043945	4.163266
23206.801117	2443.096500	1017.884766	-112.886497
23206.801117	2443.096500	1016.726563	94.231506
23206.801117	2443.096500	1015.567383	24.028019
23206.801117	2443.096500	1014.407227	33.441826
23206.801117	2443.096500	1013.248047	-74.001740
23206.801117	2443.096500	1012.087891	-124.829239
23206.801117	2443.096500	1010.927734	113.387245
23206.801117	2443.096500	1009.767578	-51.654606
23206.801117	2443.096500	1008.606445	5.714571
23206.801117	2443.096500	1007.446289	-165.154343
23206.801117	2443.096500	1006.285156	158.324051
23206.801117	2443.096500	1005.123047	139.081680
23206.801117	2443.096500	1003.961914	-190.162231
23206.801117	2443.096500	1002.799805	279.173645
23206.801117	2443.096500	1001.637695	222.554565
23206.801117	2443.096500	1000.475586	-12.940951
23206.801117	2443.096500	999.312500	6.417742
23206.801117	2443.096500	998.149414	55.295246
23206.801117	2443.096500	996.986328	-111.010208
23206.801117	2443.096500	995.823242	-52.618359
23206.801117	2443.096500	994.659180	-24.139515
23206.801117	2443.096500	993.496094	224.343369
23206.801117	2443.096500	992.332031	-26.955219
23206.801117	2443.096500	991.166992	-21.659000
23206.801117	2443.096500	990.002930	-128.071472
23206.801117	2443.096500	988.837891	-107.048615
23206.801117	2443.096500	987.672852	-19.678518
23206.801117	2443.096500	986.506836	-7.622484
23206.801117	2443.096500	985.341797	119.652153
23206.801117	2443.096500	984.175781	-220.367096
23206.801117	2443.096500	983.009766	89.249397
23206.801117	2443.096500	981.843750	-14.082024
23206.801117	2443.096500	980.676758	-94.949570
23206.801117	2443.096500	979.509766	-171.321030
23206.801117	2443.096500	978.342773	-168.768311
23206.801117	2443.096500	977.175781	-121.287201
23206.801117	2443.096500	976.007813	-13.157419
23206.801117	2443.096500	974.839844	-58.810535
23206.801117	2443.096500	973.671875	192.647324
23206.801117	2443.096500	972.503906	-97.133102
23206.801117	2443.096500	971.334961	10.621033
23206.801117	2443.096500	970.166016	109.016357
23206.801117	2443.096500	968.997070	42.545364
23206.801117	2443.096500	967.828125	-102.502571
23206.801117	2443.096500	966.658203	43.143353
23206.801117	2443.096500	965.488281	-261.998047
23206.801117	2443.096500	964.318359	-98.896217
23206.801117	2443.096500	963.148438	-160.747147
23206.801117	2443.096500	961.977539	41.082161
23206.801117	2443.096500	960.806641	32.098877
23206.801117	2443.096500	959.635742	-37.392040
23206.801117	2443.096500	958.463867	122.989418
23206.801117	2443.096500	957.292969	-125.362663
23206.801117	2443.096500	956.121094	-100.513756
23206.801117	2443.096500	954.948242	-129.422653
23206.801117	2443.096500	953.776367	-54.125824
23206.801117	2443.096500	952.603516	-78.898842
23206.801117	2443.096500	951.430664	-228.817429
23206.801117	2443.096500	950.257813	-156.484863
23206.801117	2443.096500	949.084961	168.217239
23206.801117	2443.096500	947.911133	-88.492455
23206.801117	2443.096500	946.737305	224.541824
23206.801117	2443.096500	945.563477	95.862289
23206.801117	2443.096500	944.388672	24.333996
23206.801117	2443.096500	943.213867	-0.733906
23206.801117	2443.096500	942.039063	74.544525
23206.801117	2443.096500	940.864258	155.811081
23206.801117	2443.096500	939.688477	165.071365
23206.801117	2443.096500	938.513672	91.299095
23206.801117	2443.096500	937.337891	249.238632
23206.801117	2443.096500	936.161133	115.823700
23206.801117	2443.096500	934.985352	288.464630
23206.801117	2443.096500	933.808594	176.484802
23206.801117	2443.096500	932.631836	206.683655
23206.801117	2443.096500	931.454102	66.953354
23206.801117	2443.096500	930.277344	86.488564
23206.801117	2443.096500	929.099609	403.329224
23206.801117	2443.096500	927.921875	252.938980
23206.801117	2443.096500	926.743164	166.275269
23206.801117	2443.096500	925.565430	111.453773
23206.801117	2443.096500	924.386719	270.984009
23206.801117	2443.096500	923.208008	230.986893
23206.801117	2443.096500	922.028320	169.791824
23206.801117	2443.096500	920.849609	49.206039
23206.801117	2443.096500	919.669922	54.189064
23206.801117	2443.096500	919.474609	207.274002
23206.801117	2443.096500	918.309570	-97.821175
23206.801117	2443.096500	917.143555	-106.046150
23206.801117	2443.096500	915.977539	-133.360062
23206.801117	2443.096500	914.810547	-27.188496
23206.801117	2443.096500	913.644531	-204.953568
23206.801117	2443.096500	912.477539	11.288384
23206.801117	2443.096500	911.310547	-7.626793
23206.801117	2443.096500	910.143555	36.961086
23206.801117	2443.096500	908.975586	-30.668591
23206.801117	2443.096500	907.807617	35.036839
23206.801117	2443.096500	906.639648	-60.108158
23206.801117	2443.096500	905.471680	-64.269585
23206.801117	2443.096500	904.303711	-38.838070
23206.801117	2443.096500	903.134766	-193.168121
23206.801117	2443.096500	901.965820	362.890625
23206.801117	2443.096500	900.796875	140.866486
23206.801117	2443.096500	899.626953	-104.328545
23206.801117	2443.096500	898.457031	7.626857
23206.801117	2443.096500	897.287109	265.272675
23206.801117	2443.096500	896.117188	246.127457
23206.801117	2443.096500	894.947266	98.167679
23206.801117	2443.096500	893.776367	15.697846
23206.801117	2443.096500	892.605469	-20.323000
23206.801117	2443.096500	891.434570	201.101166
23206.801117	2443.096500	890.262695	367.565796
23206.801117	2443.096500	889.091797	107.842636
23206.801117	2443.096500	887.919922	286.873627
23206.801117	2443.096500	886.748047	143.207642
23206.801117	2443.096500	885.575195	-65.766953
23206.801117	2443.096500	884.403320	-7.005820
23206.801117	2443.096500	883.230469	-66.289886
23206.801117	2443.096500	882.057617	-104.500839
23206.801117	2443.096500	880.883789	17.370630
23206.801117	2443.096500	879.710938	-44.047989
23206.801117	2443.096500	878.537109	-65.452827
23206.801117	2443.096500	877.362305	24.702787
23206.801117	2443.096500	876.188477	-51.470165
23206.801117	2443.096500	875.013672	-79.231422
23206.801117	2443.096500	873.839844	80.231216
23206.801117	2443.096500	872.664063	-199.987061
23206.801117	2443.096500	871.489258	249.599289
23206.801117	2443.096500	870.313477	194.384659
23206.801117	2443.096500	869.138672	97.126678
23206.801117	2443.096500	867.962891	16.704041
23206.801117	2443.096500	866.786133	207.349899
23206.801117	2443.096500	865.610352	65.969444
23206.801117	2443.096500	864.433594	8.642400
23206.801117	2443.096500	863.256836	26.913067
23206.801117	2443.096500	862.079102	112.339195
23206.801117	2443.096500	860.902344	33.978447
23206.801117	2443.096500	859.724609	62.658432
23206.801117	2443.096500	858.546875	-40.882175
23206.801117	2443.096500	857.368164	-8.046653
23206.801117	2443.096500	856.190430	119.128075
23206.801117	2443.096500	855.011719	-45.240532
23206.801117	2443.096500	853.833008	-83.777008
23206.801117	2443.096500	852.654297	51.647293
23206.801117	2443.096500	851.474609	-95.912056
23206.801117	2443.096500	850.294922	-94.679146
23206.801117	2443.096500	849.115234	42.685604
23206.801117	2443.096500	847.935547	45.931911
23206.801117	2443.096500	846.754883	178.974625
23206.801117	2443.096500	845.575195	125.615044
23206.801117	2443.096500	844.393555	40.860859
23206.801117	2443.096500	843.212891	85.852257
23206.801117	2443.096500	842.032227	28.281376
23206.801117	2443.096500	840.850586	217.534592
23206.801117	2443.096500	839.668945	109.715134
23206.801117	2443.096500	838.486328	66.732742
23206.801117	2443.096500	837.304688	-43.158817
23206.801117	2443.096500	836.122070	-10.910254
23206.801117	2443.096500	834.939453	19.205744
23206.801117	2443.096500	833.756836	-25.930285
23206.801117	2443.096500	832.573242	179.571747
23206.801117	2443.096500	831.389648	34.124775
23206.801117	2443.096500	830.206055	-2.723689
23206.801117	2443.096500	829.022461	25.121729
23206.801117	2443.096500	827.838867	-3.425241
23206.801117	2443.096500	826.654297	-31.989309
23206.801117	2443.096500	825.469727	133.436310
23206.801117	2443.096500	824.284180	-91.264351
23206.801117	2443.096500	823.099609	188.731384
23206.801117	2443.096500	821.914063	164.190918
23206.801117	2443.096500	820.728516	100.022476
23206.801117	2443.096500	819.542969	223.406387
23206.801117	2443.096500	818.356445	65.425720
23206.801117	2443.096500	817.169922	97.039604
23206.801117	2443.096500	815.983398	141.102158
23206.801117	2443.096500	814.796875	-31.446537
23206.801117	2443.096500	813.609375	0.063383
23206.801117	2443.096500	812.422852	-57.980431
23206.801117	2443.096500	811.235352	-51.523056
23206.801117	2443.096500	810.046875	-109.602074
23206.801117	2443.096500	808.859375	131.841263
23206.801117	2443.096500	807.670898	54.955410
23206.801117	2443.096500	806.482422	-310.954559
23206.801117	2443.096500	805.293945	-15.683903
23206.801117	2443.096500	804.104492	-61.430237
23206.801117	2443.096500	802.915039	19.558878
23206.801117	2443.096500	801.725586	102.551628
23206.801117	2443.096500	800.536133	-136.483612
23206.801117	2443.096500	799.345703	98.024963
23206.801117	2443.096500	798.155273	184.981308
23206.801117	2443.096500	796.964844	190.902603
23206.801117	2443.096500	795.774414	-46.042572
23206.801117	2443.096500	794.583008	-102.408516
23206.801117	2443.096500	793.392578	-5.280167
23206.801117	2443.096500	792.200195	73.101120
23206.801117	2443.096500	791.008789	66.383171
23206.801117	2443.096500	789.816406	-102.088295
23206.801117	2443.096500	788.625000	-28.016108
23206.801117	2443.096500	787.432617	-18.261732
23206.801117	2443.096500	786.239258	51.530800
23206.801117	2443.096500	785.046875	-44.475872
23206.801117	2443.096500	783.853516	27.272577
23206.801117	2443.096500	782.660156	125.862198
23206.801117	2443.096500	781.465820	77.377937
23206.801117	2443.096500	780.272461	93.029633
23206.801117	2443.096500	779.078125	164.501190
23206.801117	2443.096500	777.883789	-74.447357
23206.801117	2443.096500	776.688477	125.181885
23206.801117	2443.096500	775.494141	-184.072800
23206.801117	2443.096500	774.298828	-236.856918
23206.801117	2443.096500	773.103516	94.835838
23206.801117	2443.096500	771.907227	-9.753628
23206.801117	2443.096500	770.711914	121.215050
23206.801117	2443.096500	769.515625	293.398804
23206.801117	2443.096500	768.318359	112.257149
23206.801117	2443.096500	767.122070	11.676598
23206.801117	2443.096500	765.924805	171.232788
23206.801117	2443.096500	764.727539	45.807343
23206.801117	2443.096500	763.530273	93.739777
23206.801117	2443.096500	762.333008	92.077637
23206.801117	2443.096500	761.134766	-8.656277
23206.801117	2443.096500	759.936523	82.410057
23206.801117	2443.096500	758.738281	82.653305
23206.801117	2443.096500	757.540039	113.766533
23206.801117	2443.096500	756.340820	-83.982506
23206.801117	2443.096500	755.141602	25.352640
23206.801117	2443.096500	753.942383	68.655479
23206.801117	2443.096500	752.742188	99.525688
23206.801117	2443.096500	751.541992	64.422546
23206.801117	2443.096500	750.341797	-30.436419
23206.801117	2443.096500	749.141602	-255.005554
23206.801117	2443.096500	747.941406	144.099640
23206.801117	2443.096500	746.740234	57.344883
23206.801117	2443.096500	745.539063	-27.374752
23206.801117	2443.096500	744.337891	124.430748
23206.801117	2443.096500	743.135742	16.995514
23206.801117	2443.096500	741.933594	125.433540
23206.801117	2443.096500	740.731445	155.653809
23206.801117	2443.096500	739.529297	31.661974
23206.801117	2443.096500	738.326172	119.305305
23206.801117	2443.096500	737.124023	75.374062
23206.801117	2443.096500	735.919922	325.112366
23206.801117	2443.096500	734.716797	-41.361923
23206.801117	2443.096500	733.513672	54.197842
23206.801117	2443.096500	732.309570	334.393585
23206.801117	2443.096500	731.105469	78.786095
23206.801117	2443.096500	729.900391	247.942062
23206.801117	2443.096500	728.696289	6.698399
23206.801117	2443.096500	727.491211	56.724709
23206.801117	2443.096500	726.286133	131.274399
23206.801117	2443.096500	725.080078	-60.776436
23206.801117	2443.096500	723.874023	-21.199667
23206.801117	2443.096500	722.668945	57.234009
23206.801117	2443.096500	721.461914	340.450684
23206.801117	2443.096500	720.255859	308.041718
23206.801117	2443.096500	719.048828	-2.932247
23206.801117	2443.096500	717.841797	222.603851
23206.801117	2443.096500	716.634766	-31.027714
23206.801117	2443.096500	715.427734	-139.304504
23206.801117	2443.096500	714.219727	-358.093933
23206.801117	2443.096500	713.011719	-116.554039
23206.801117	2443.096500	711.803711	-51.077396
23206.801117	2443.096500	710.594727	26.578835
23206.801117	2443.096500	709.385742	-177.999084
23206.801117	2443.096500	708.176758	-153.618729
23206.801117	2443.096500	706.967773	-139.529053
23206.801117	2443.096500	705.758789	-62.167446
23206.801117	2443.096500	704.548828	115.194069
23206.801117	2443.096500	703.338867	69.804153
23206.801117	2443.096500	702.127930	-136.941284
23206.801117	2443.096500	700.917969	-223.212631
23206.801117	2443.096500	699.707031	-91.117653
23206.801117	2443.096500	698.496094	-155.039276
23206.801117	2443.096500	697.285156	-225.116989
23206.801117	2443.096500	696.073242	-89.210938
23206.801117	2443.096500	694.861328	-12.564204
23206.801117	2443.096500	693.649414	4.861485
23206.801117	2443.096500	692.436523	42.601398
23206.801117	2443.096500	691.224609	-95.006172
23206.801117	2443.096500	690.011719	46.537766
23206.801117	2443.096500	688.798828	39.246277
23206.801117	2443.096500	687.584961	113.365425
23206.801117	2443.096500	686.372070	-77.327591
23206.801117	2443.096500	685.158203	33.312386
23206.801117	2443.096500	683.943359	-23.065065
23206.801117	2443.096500	682.729492	89.434761
23206.801117	2443.096500	681.514648	26.847414
23206.801117	2443.096500	680.299805	59.835785
23206.801117	2443.096500	679.084961	210.711761
23206.801117	2443.096500	677.869141	23.927191
23206.801117	2443.096500	676.653320	229.518204
23206.801117	2443.096500	675.437500	0.011560
23206.801117	2443.096500	674.221680	44.874474
23206.801117	2443.096500	673.004883	79.500092
23206.801117	2443.096500	671.789063	79.528175
23206.801117	2443.096500	670.571289	191.188004
23206.801117	2443.096500	669.354492	166.715073
23206.801117	2443.096500	668.136719	172.644150
23206.801117	2443.096500	666.919922	322.613403
23206.801117	2443.096500	665.701172	162.012817
23206.801117	2443.096500	664.483398	129.232742
23206.801117	2443.096500	663.264648	214.047882
23206.801117	2443.096500	662.045898	61.524323
23206.801117	2443.096500	660.827148	83.365753
23206.801117	2443.096500	659.608398	66.636230
23206.801117	2443.096500	658.388672	92.415092
23206.801117	2443.096500	657.168945	217.411224
23206.801117	2443.096500	655.949219	334.202393
23206.801117	2443.096500	654.728516	82.302437
23206.801117	2443.096500	653.507813	128.104965
23206.801117	2443.096500	652.287109	400.567657
23206.801117	2443.096500	651.066406	120.335724
23206.801117	2443.096500	649.844727	234.754944
23206.801117	2443.096500	648.623047	278.272827
23206.801117	2443.096500	647.401367	257.003357
23206.801117	2443.096500	646.179688	294.341827
23206.801117	2443.096500	644.957031	331.617279
23206.801117	2443.096500	643.734375	197.017670
23206.801117	2443.096500	642.511719	274.631653
23206.801117	2443.096500	641.289063	59.197319
23206.801117	2443.096500	640.065430	110.460655
23206.801117	2443.096500	638.841797	103.091225
23206.801117	2443.096500	637.618164	232.994125
23206.801117	2443.096500	636.393555	61.998352
23206.801117	2443.096500	635.168945	66.635872
23206.801117	2443.096500	633.944336	224.597946
23206.801117	2443.096500	632.719727	67.724312
23206.801117	2443.096500	631.494141	245.715942
23206.801117	2443.096500	630.269531	149.334549
23206.801117	2443.096500	629.042969	161.829758
23206.801117	2443.096500	627.817383	140.022079
23206.801117	2443.096500	626.590820	245.156311
23206.801117	2443.096500	625.365234	174.919174
23206.801117	2443.096500	624.137695	130.861847
23206.801117	2443.096500	622.911133	123.052177
23206.801117	2443.096500	621.683594	219.924301
23206.801117	2443.096500	620.456055	165.735199
23206.801117	2443.096500	619.228516	-69.611832
23206.801117	2443.096500	618.000977	268.647858
23206.801117	2443.096500	616.772461	168.126205
23206.801117	2443.096500	615.543945	343.205353
23206.801117	2443.096500	614.314453	-59.005672
23206.801117	2443.096500	613.085938	-181.578461
23206.801117	2443.096500	611.856445	-64.903351
23206.801117	2443.096500	610.626953	-32.710445
23206.801117	2443.096500	609.397461	11.507111
23206.801117	2443.096500	608.166992	-117.088951
23206.801117	2443.096500	606.936523	-38.765793
23206.801117	2443.096500	605.706055	-18.727480
23206.801117	2443.096500	604.474609	-358.093567
23206.801117	2443.096500	603.244141	-14.854316
23206.801117	2443.096500	602.012695	-279.849487
23206.801117	2443.096500	600.780273	-33.113186
23206.801117	2443.096500	599.548828	61.056683
23206.801117	2443.096500	598.316406	-3.266531
23206.801117	2443.096500	597.083984	-73.586220
23206.801117	2443.096500	595.851563	-119.827148
23206.801117	2443.096500	594.618164	-180.089355
23206.801117	2443.096500	593.384766	-19.907486
23206.801117	2443.096500	592.151367	-58.137932
23206.801117	2443.096500	590.917969	-14.231834
23206.801117	2443.096500	589.683594	-96.513847
23206.801117	2443.096500	588.449219	-102.680733
23206.801117	2443.096500	587.214844	-122.857460
23206.801117	2443.096500	585.979492	-101.002487
23206.801117	2443.096500	584.745117	-105.161720
23206.801117	2443.096500	583.509766	-137.327316
23206.801117	2443.096500	582.273438	14.521273
23206.801117	2443.096500	581.038086	108.325371
23206.801117	2443.096500	579.801758	-25.813398
23206.801117	2443.096500	578.565430	15.999930
23206.801117	2443.096500	577.329102	-6.142886
23206.801117	2443.096500	576.091797	125.565315
23206.801117	2443.096500	574.854492	37.504780
23206.801117	2443.096500	573.617188	-20.551117
23206.801117	2443.096500	572.378906	194.958679
23206.801117	2443.096500	571.141602	146.897156
23206.801117	2443.096500	569.903320	72.919678
23206.801117	2443.096500	568.664063	34.899212
23206.801117	2443.096500	567.425781	-138.738892
23206.801117	2443.096500	566.186523	-60.988625
23206.801117	2443.096500	564.947266	130.405045
23206.801117	2443.096500	563.708008	-86.958488
23206.801117	2443.096500	562.467773	-100.909782
23206.801117	2443.096500	561.227539	4.729918
23206.801117	2443.096500	559.987305	102.374397
23206.801117	2443.096500	558.747070	-17.122149
23206.801117	2443.096500	557.505859	62.597187
23206.801117	2443.096500	556.264648	-14.990176
23206.801117	2443.096500	555.023438	124.458153
23206.801117	2443.096500	553.781250	38.969967
23206.801117	2443.096500	552.539063	88.846748
23206.801117	2443.096500	551.296875	61.140770
23206.801117	2443.096500	550.054688	39.437466
23206.801117	2443.096500	548.811523	-135.351639
23206.801117	2443.096500	547.569336	87.580643
23206.801117	2443.096500	546.325195	-83.122841
23206.801117	2443.096500	545.082031	-27.178471
23206.801117	2443.096500	543.837891	-64.616196
23206.801117	2443.096500	542.593750	98.613052
23206.801117	2443.096500	541.349609	55.259510
23206.801117	2443.096500	540.105469	-129.022369
23206.801117	2443.096500	538.860352	-25.360254
23206.801117	2443.096500	537.615234	-136.062744
23206.801117	2443.096500	536.369141	-36.363010
23206.801117	2443.096500	535.124023	212.112610
23206.801117	2443.096500	533.877930	69.773605
23206.801117	2443.096500	532.631836	-5.056091
23206.801117	2443.096500	531.384766	54.983002
23206.801117	2443.096500	530.138672	-57.419449
23206.801117	2443.096500	528.891602	28.420456
23206.801117	2443.096500	527.643555	-58.126472
23206.801117	2443.096500	526.396484	144.598862
23206.801117	2443.096500	525.148438	196.745148
23206.801117	2443.096500	523.900391	42.972645
23206.801117	2443.096500	522.652344	79.330566
23206.801117	2443.096500	521.403320	82.047226
23206.801117	2443.096500	520.154297	-259.514252
23206.801117	2443.096500	518.905273	105.349426
23206.801117	2443.096500	517.656250	-83.730759
23206.801117	2443.096500	516.406250	12.041650
23206.801117	2443.096500	515.156250	34.641701
23206.801117	2443.096500	513.906250	357.695251
23206.801117	2443.096500	512.655273	-18.946732
23206.801117	2443.096500	511.404297	248.687576
23206.801117	2443.096500	510.153320	101.399551
23206.801117	2443.096500	508.902344	232.651657
23206.801117	2443.096500	507.650391	73.604111
23206.801117	2443.096500	506.398438	262.071106
23206.801117	2443.096500	505.146484	63.632023
23206.801117	2443.096500	503.893555	141.530807
23206.801117	2443.096500	502.641602	250.968369
23206.801117	2443.096500	501.388672	356.413757
23206.801117	2443.096500	500.134766	315.887360
23206.801117	2443.096500	498.881836	328.610260
23206.801117	2443.096500	497.627930	272.332428
23206.801117	2443.096500	496.374023	464.375977
23206.801117	2443.096500	495.119141	498.704895
23206.801117	2443.096500	493.865234	531.041748
23206.801117	2443.096500	492.610352	451.090210
23206.801117	2443.096500	491.355469	447.946320
23206.801117	2443.096500	490.099609	267.610626
23206.801117	2443.096500	488.843750	687.606689
23206.801117	2443.096500	487.587891	363.604187
23206.801117	2443.096500	486.332031	509.890686
23206.801117	2443.096500	485.075195	382.683929
23206.801117	2443.096500	483.818359	418.708191
23206.801117	2443.096500	482.561523	665.038818
23206.801117	2443.096500	481.304688	702.865234
23206.801117	2443.096500	480.046875	844.777527
23206.801117	2443.096500	478.789063	998.361816
23206.801117	2443.096500	477.531250	865.033691
23206.801117	2443.096500	476.272461	969.327026
23206.801117	2443.096500	475.013672	619.947571
23206.801117	2443.096500	473.754883	989.120178
23206.801117	2443.096500	472.496094	781.045776
23206.801117	2443.096500	471.236328	816.287659
23206.801117	2443.096500	469.976563	576.778809
23206.801117	2443.096500	468.716797	884.495239
23206.801117	2443.096500	467.456055	889.993469
23206.801117	2443.096500	466.196289	842.455566
23206.801117	2443.096500	464.935547	933.987305
23206.801117	2443.096500	463.673828	896.021667
23206.801117	2443.096500	462.413086	877.544312
23206.801117	2443.096500	461.151367	1017.603210
23206.801117	2443.096500	459.889648	977.292725
23206.801117	2443.096500	458.626953	997.547302
23206.801117	2443.096500	457.364258	1031.342896
23206.801117	2443.096500	456.101563	1256.762817
23206.801117	2443.096500	454.838867	1043.617920
23206.801117	2443.096500	453.575195	1143.388306
23206.801117	2443.096500	452.312500	1264.451294
23206.801117	2443.096500	451.047852	1242.513672
23206.801117	2443.096500	449.784180	1112.865723
23206.801117	2443.096500	448.519531	1170.698242
23206.801117	2443.096500	447.254883	987.925781
23206.801117	2443.096500	445.990234	969.118286
23206.801117	2443.096500	444.725586	1225.497803
23206.801117	2443.096500	443.459961	1159.286377
23206.801117	2443.096500	442.194336	1188.516357
23206.801117	2443.096500	440.927734	1160.850342
23206.801117	2443.096500	439.662109	1158.295654
23206.801117	2443.096500	438.395508	1096.909180
23206.801117	2443.096500	437.127930	1639.982300
23206.801117	2443.096500	435.861328	1299.004150
23206.801117	2443.096500	434.593750	1063.138916
23206.801117	2443.096500	433.326172	1214.992065
23206.801117	2443.096500	432.058594	1114.998657
23206.801117	2443.096500	430.790039	1254.364868
23206.801117	2443.096500	429.521484	1301.729126
23206.801117	2443.096500	428.252930	1105.207275
23206.801117	2443.096500	426.984375	1383.536255
23206.801117	2443.096500	425.714844	1371.219482
23206.801117	2443.096500	424.445313	1165.770386
23206.801117	2443.096500	423.174805	1271.336548
23206.801117	2443.096500	421.905273	1257.721680
23206.801117	2443.096500	420.634766	1117.183105
23206.801117	2443.096500	419.364258	1118.192749
23206.801117	2443.096500	418.092773	1311.182861
23206.801117	2443.096500	416.822266	1577.454712
23206.801117	2443.096500	415.550781	1440.732788
23206.801117	2443.096500	414.278320	1472.559692
23206.801117	2443.096500	413.006836	1515.468628
23206.801117	2443.096500	411.734375	1217.846558
23206.801117	2443.096500	410.461914	1350.849243
23206.801117	2443.096500	409.188477	1158.922852
23206.801117	2443.096500	407.916016	1306.135986
23206.801117	2443.096500	406.642578	1332.284058
23206.801117	2443.096500	405.368164	1280.108154
23206.801117	2443.096500	404.094727	1075.961792
23206.801117	2443.096500	402.820313	1257.098145
23206.801117	2443.096500	401.545898	1237.695313
23206.801117	2443.096500	400.270508	1411.366699
23206.801117	2443.096500	398.996094	1429.141357
23206.801117	2443.096500	397.720703	1265.868774
23206.801117	2443.096500	396.444336	1063.064941
23206.801117	2443.096500	395.168945	1161.661011
23206.801117	2443.096500	393.892578	1207.025513
23206.801117	2443.096500	392.616211	1040.435425
23206.801117	2443.096500	391.339844	1227.201660
23206.801117	2443.096500	390.062500	1027.803589
23206.801117	2443.096500	388.785156	1204.787354
23206.801117	2443.096500	387.507813	991.882263
23206.801117	2443.096500	386.229492	1058.425293
23206.801117	2443.096500	384.951172	974.996460
23206.801117	2443.096500	383.672852	1105.083496
23206.801117	2443.096500	382.394531	1131.563232
23206.801117	2443.096500	381.115234	868.950745
23206.801117	2443.096500	379.835938	1128.796021
23206.801117	2443.096500	378.556641	970.139404
23206.801117	2443.096500	377.277344	999.547974
23206.801117	2443.096500	375.997070	1010.267395
23206.801117	2443.096500	374.716797	896.151550
23206.801117	2443.096500	373.435547	792.294556
23206.801117	2443.096500	372.155273	824.131958
23206.801117	2443.096500	370.874023	1084.054688
23206.801117	2443.096500	369.591797	891.131897
23206.801117	2443.096500	368.310547	851.106750
23206.801117	2443.096500	367.028320	755.580444
23206.801117	2443.096500	365.746094	826.222412
23206.801117	2443.096500	364.463867	554.216187
23206.801117	2443.096500	363.180664	717.954346
23206.801117	2443.096500	361.897461	864.560181
23206.801117	2443.096500	360.614258	949.720032
23206.801117	2443.096500	359.330078	480.561096
23206.801117	2443.096500	358.045898	462.134949
23206.801117	2443.096500	356.761719	851.772522
23206.801117	2443.096500	355.477539	823.839172
23206.801117	2443.096500	354.192383	745.883667
23206.801117	2443.096500	352.907227	762.174927
23206.801117	2443.096500	351.622070	532.308777
23206.801117	2443.096500	350.336914	634.975891
23206.801117	2443.096500	349.050781	643.224976
23206.801117	2443.096500	347.764648	516.782043
23206.801117	2443.096500	346.477539	632.122559
23206.801117	2443.096500	345.191406	499.442902
23206.801117	2443.096500	343.904297	245.453445
23206.801117	2443.096500	342.616211	547.816772
23206.801117	2443.096500	341.329102	256.634521
23206.801117	2443.096500	340.041016	310.405151
23206.801117	2443.096500	338.752930	371.285675
23206.801117	2443.096500	337.463867	253.095947
23206.801117	2443.096500	336.175781	88.363029
23206.801117	2443.096500	334.886719	206.660095
23206.801117	2443.096500	333.596680	203.311310
23206.801117	2443.096500	332.307617	153.239578
23206.801117	2443.096500	331.017578	-3.138976
23206.801117	2443.096500	329.727539	40.743382
23206.801117	2443.096500	328.436523	146.726303
23206.801117	2443.096500	327.146484	-154.199326
23206.801117	2443.096500	325.855469	41.500710
23206.801117	2443.096500	324.563477	-194.758820
23206.801117	2443.096500	323.272461	145.787415
23206.801117	2443.096500	321.980469	56.284016
23206.801117	2443.096500	320.688477	-107.219696
23206.801117	2443.096500	319.395508	-23.612116
23206.801117	2443.096500	318.103516	68.127823
23206.801117	2443.096500	316.810547	-107.515427
23206.801117	2443.096500	315.516602	-15.394510
23206.801117	2443.096500	314.223633	40.707733
23206.801117	2443.096500	312.929688	-33.077015
23206.801117	2443.096500	311.635742	-93.401695
23206.801117	2443.096500	310.340820	-247.383728
23206.801117	2443.096500	309.045898	-151.336807
23206.801117	2443.096500	307.750977	-66.945930
23206.801117	2443.096500	306.456055	5.723965
23206.801117	2443.096500	305.160156	-202.497864
23206.801117	2443.096500	303.865234	48.729156
23206.801117	2443.096500	302.568359	280.020844
23206.801117	2443.096500	301.272461	417.389496
23206.801117	2443.096500	299.975586	569.154358
23206.801117	2443.096500	298.678711	537.206421
