#X		#Y		#Wave		#Intensity
31154.400585	1147.410667	1999.980469	25.182949
31154.400585	1147.410667	1999.016602	-10.691216
31154.400585	1147.410667	1998.052734	-157.165970
31154.400585	1147.410667	1997.087891	-125.479584
31154.400585	1147.410667	1996.123047	131.347794
31154.400585	1147.410667	1995.158203	45.920624
31154.400585	1147.410667	1994.193359	-19.957085
31154.400585	1147.410667	1993.228516	151.627350
31154.400585	1147.410667	1992.262695	-50.975460
31154.400585	1147.410667	1991.297852	-115.155495
31154.400585	1147.410667	1990.332031	50.598995
31154.400585	1147.410667	1989.366211	188.821426
31154.400585	1147.410667	1988.399414	153.572586
31154.400585	1147.410667	1987.433594	36.471706
31154.400585	1147.410667	1986.466797	3.274400
31154.400585	1147.410667	1985.500977	-72.167107
31154.400585	1147.410667	1984.534180	124.147652
31154.400585	1147.410667	1983.567383	60.655872
31154.400585	1147.410667	1982.599609	21.705128
31154.400585	1147.410667	1981.632813	108.587151
31154.400585	1147.410667	1980.665039	24.803074
31154.400585	1147.410667	1979.697266	27.319105
31154.400585	1147.410667	1978.729492	98.808098
31154.400585	1147.410667	1977.761719	81.225449
31154.400585	1147.410667	1976.792969	46.214634
31154.400585	1147.410667	1975.825195	45.617874
31154.400585	1147.410667	1974.856445	10.331819
31154.400585	1147.410667	1973.887695	88.408257
31154.400585	1147.410667	1972.918945	195.923447
31154.400585	1147.410667	1971.949219	-56.793041
31154.400585	1147.410667	1970.980469	-80.222511
31154.400585	1147.410667	1970.010742	44.158062
31154.400585	1147.410667	1969.041016	-50.987228
31154.400585	1147.410667	1968.071289	142.129120
31154.400585	1147.410667	1967.101563	110.857460
31154.400585	1147.410667	1966.130859	118.917519
31154.400585	1147.410667	1965.161133	20.976452
31154.400585	1147.410667	1964.190430	149.538681
31154.400585	1147.410667	1963.219727	-34.711811
31154.400585	1147.410667	1962.249023	98.579094
31154.400585	1147.410667	1961.277344	98.844467
31154.400585	1147.410667	1960.306641	145.796112
31154.400585	1147.410667	1959.334961	165.603104
31154.400585	1147.410667	1958.363281	54.974121
31154.400585	1147.410667	1957.391602	104.186546
31154.400585	1147.410667	1956.419922	133.658264
31154.400585	1147.410667	1955.447266	22.939020
31154.400585	1147.410667	1954.474609	-16.502457
31154.400585	1147.410667	1953.501953	20.211369
31154.400585	1147.410667	1952.529297	81.444748
31154.400585	1147.410667	1951.556641	140.163864
31154.400585	1147.410667	1950.583984	-7.485505
31154.400585	1147.410667	1949.610352	-91.262543
31154.400585	1147.410667	1948.636719	-0.713050
31154.400585	1147.410667	1947.663086	183.061401
31154.400585	1147.410667	1946.689453	62.413216
31154.400585	1147.410667	1945.715820	44.855385
31154.400585	1147.410667	1944.741211	95.982643
31154.400585	1147.410667	1943.767578	53.868664
31154.400585	1147.410667	1942.792969	100.049225
31154.400585	1147.410667	1941.818359	43.220238
31154.400585	1147.410667	1940.842773	-38.109879
31154.400585	1147.410667	1939.868164	169.820740
31154.400585	1147.410667	1938.892578	120.352676
31154.400585	1147.410667	1937.916992	122.358780
31154.400585	1147.410667	1936.941406	-7.918292
31154.400585	1147.410667	1935.965820	-18.126560
31154.400585	1147.410667	1934.990234	35.345631
31154.400585	1147.410667	1934.013672	91.253746
31154.400585	1147.410667	1933.037109	63.922367
31154.400585	1147.410667	1932.060547	17.033239
31154.400585	1147.410667	1931.083984	-17.589378
31154.400585	1147.410667	1930.107422	-5.699430
31154.400585	1147.410667	1929.129883	-130.780502
31154.400585	1147.410667	1928.153320	-35.688538
31154.400585	1147.410667	1927.175781	-119.112892
31154.400585	1147.410667	1926.198242	-195.151428
31154.400585	1147.410667	1925.219727	5.060704
31154.400585	1147.410667	1924.242188	51.261387
31154.400585	1147.410667	1923.263672	60.816364
31154.400585	1147.410667	1922.285156	-12.666518
31154.400585	1147.410667	1921.306641	-222.873901
31154.400585	1147.410667	1920.328125	48.095383
31154.400585	1147.410667	1919.349609	-10.617286
31154.400585	1147.410667	1918.370117	-18.018858
31154.400585	1147.410667	1917.391602	3.898765
31154.400585	1147.410667	1916.412109	-86.412270
31154.400585	1147.410667	1915.431641	228.330872
31154.400585	1147.410667	1914.452148	45.379116
31154.400585	1147.410667	1913.472656	82.017799
31154.400585	1147.410667	1912.492188	21.137800
31154.400585	1147.410667	1911.511719	-56.753056
31154.400585	1147.410667	1910.531250	145.720993
31154.400585	1147.410667	1909.550781	36.217415
31154.400585	1147.410667	1908.569336	-4.992122
31154.400585	1147.410667	1907.588867	-51.025620
31154.400585	1147.410667	1906.607422	10.156126
31154.400585	1147.410667	1905.625977	76.217720
31154.400585	1147.410667	1904.644531	66.810051
31154.400585	1147.410667	1903.662109	115.859543
31154.400585	1147.410667	1902.680664	-29.780180
31154.400585	1147.410667	1901.698242	92.333054
31154.400585	1147.410667	1900.715820	-45.886517
31154.400585	1147.410667	1899.733398	-47.806252
31154.400585	1147.410667	1898.750000	-122.654060
31154.400585	1147.410667	1897.767578	-5.351715
31154.400585	1147.410667	1896.784180	-2.323115
31154.400585	1147.410667	1895.800781	-215.589417
31154.400585	1147.410667	1894.817383	6.252864
31154.400585	1147.410667	1893.833984	19.087614
31154.400585	1147.410667	1892.850586	-128.383423
31154.400585	1147.410667	1891.866211	76.404823
31154.400585	1147.410667	1890.881836	6.742412
31154.400585	1147.410667	1889.897461	24.539007
31154.400585	1147.410667	1888.913086	35.073887
31154.400585	1147.410667	1887.927734	-2.907725
31154.400585	1147.410667	1886.943359	-38.421345
31154.400585	1147.410667	1885.958008	-30.226479
31154.400585	1147.410667	1884.972656	-85.075378
31154.400585	1147.410667	1883.987305	-118.052170
31154.400585	1147.410667	1883.001953	115.725784
31154.400585	1147.410667	1882.015625	-23.895687
31154.400585	1147.410667	1881.029297	229.213791
31154.400585	1147.410667	1880.042969	-96.928917
31154.400585	1147.410667	1879.056641	-20.727884
31154.400585	1147.410667	1878.070313	21.551001
31154.400585	1147.410667	1877.083984	34.770733
31154.400585	1147.410667	1876.096680	-63.385937
31154.400585	1147.410667	1875.109375	5.567085
31154.400585	1147.410667	1874.122070	-5.369077
31154.400585	1147.410667	1873.134766	-38.065380
31154.400585	1147.410667	1872.146484	30.894825
31154.400585	1147.410667	1871.159180	34.523819
31154.400585	1147.410667	1870.170898	-44.073750
31154.400585	1147.410667	1869.182617	-6.547235
31154.400585	1147.410667	1868.194336	96.260651
31154.400585	1147.410667	1867.205078	97.509247
31154.400585	1147.410667	1866.216797	40.759945
31154.400585	1147.410667	1865.227539	-102.953819
31154.400585	1147.410667	1864.238281	-106.471474
31154.400585	1147.410667	1863.249023	138.829575
31154.400585	1147.410667	1862.259766	-33.780178
31154.400585	1147.410667	1861.269531	-95.241989
31154.400585	1147.410667	1860.279297	123.380051
31154.400585	1147.410667	1859.290039	6.402668
31154.400585	1147.410667	1858.298828	24.621202
31154.400585	1147.410667	1857.308594	18.705605
31154.400585	1147.410667	1856.318359	-20.981710
31154.400585	1147.410667	1855.327148	-60.653999
31154.400585	1147.410667	1854.335938	148.077698
31154.400585	1147.410667	1853.344727	-21.813995
31154.400585	1147.410667	1852.353516	-15.668003
31154.400585	1147.410667	1851.362305	-86.654297
31154.400585	1147.410667	1850.370117	-29.902672
31154.400585	1147.410667	1849.377930	-23.774174
31154.400585	1147.410667	1848.385742	20.886417
31154.400585	1147.410667	1847.393555	0.495544
31154.400585	1147.410667	1846.401367	179.960861
31154.400585	1147.410667	1845.408203	145.083191
31154.400585	1147.410667	1844.415039	100.579155
31154.400585	1147.410667	1843.421875	-136.446823
31154.400585	1147.410667	1842.428711	26.018887
31154.400585	1147.410667	1841.435547	58.502583
31154.400585	1147.410667	1840.441406	30.828459
31154.400585	1147.410667	1839.448242	60.862122
31154.400585	1147.410667	1838.454102	78.845253
31154.400585	1147.410667	1837.459961	48.726013
31154.400585	1147.410667	1836.464844	37.825127
31154.400585	1147.410667	1835.470703	26.907753
31154.400585	1147.410667	1834.475586	143.304794
31154.400585	1147.410667	1833.480469	134.728683
31154.400585	1147.410667	1832.485352	114.123695
31154.400585	1147.410667	1831.490234	35.874603
31154.400585	1147.410667	1830.495117	183.293869
31154.400585	1147.410667	1829.499023	126.609795
31154.400585	1147.410667	1828.502930	137.113541
31154.400585	1147.410667	1827.506836	109.194763
31154.400585	1147.410667	1826.510742	16.487246
31154.400585	1147.410667	1825.513672	137.243118
31154.400585	1147.410667	1824.517578	-22.641462
31154.400585	1147.410667	1823.520508	181.924637
31154.400585	1147.410667	1822.523438	43.598995
31154.400585	1147.410667	1821.526367	-10.828296
31154.400585	1147.410667	1820.529297	107.253647
31154.400585	1147.410667	1819.531250	19.222284
31154.400585	1147.410667	1818.533203	10.229993
31154.400585	1147.410667	1817.535156	82.625969
31154.400585	1147.410667	1816.537109	-103.635117
31154.400585	1147.410667	1815.539063	107.521545
31154.400585	1147.410667	1814.540039	-33.281139
31154.400585	1147.410667	1813.541992	98.730324
31154.400585	1147.410667	1812.542969	108.627808
31154.400585	1147.410667	1811.543945	63.459534
31154.400585	1147.410667	1810.543945	63.703266
31154.400585	1147.410667	1809.544922	44.773010
31154.400585	1147.410667	1808.544922	147.730087
31154.400585	1147.410667	1807.544922	54.597042
31154.400585	1147.410667	1806.544922	68.993690
31154.400585	1147.410667	1805.544922	21.211735
31154.400585	1147.410667	1804.544922	159.735275
31154.400585	1147.410667	1803.543945	231.276672
31154.400585	1147.410667	1802.542969	142.741592
31154.400585	1147.410667	1801.541992	142.528229
31154.400585	1147.410667	1800.541016	142.261810
31154.400585	1147.410667	1799.539063	-27.513863
31154.400585	1147.410667	1798.538086	50.889317
31154.400585	1147.410667	1797.536133	167.378906
31154.400585	1147.410667	1796.534180	140.648529
31154.400585	1147.410667	1795.532227	225.961197
31154.400585	1147.410667	1794.529297	56.048935
31154.400585	1147.410667	1793.527344	95.934471
31154.400585	1147.410667	1792.524414	64.238731
31154.400585	1147.410667	1791.521484	-89.040611
31154.400585	1147.410667	1790.518555	50.739891
31154.400585	1147.410667	1789.514648	99.882851
31154.400585	1147.410667	1788.511719	34.625488
31154.400585	1147.410667	1787.507813	131.255219
31154.400585	1147.410667	1786.503906	234.927780
31154.400585	1147.410667	1785.500000	-1.892502
31154.400585	1147.410667	1784.496094	27.862690
31154.400585	1147.410667	1783.491211	-109.021873
31154.400585	1147.410667	1782.486328	84.763145
31154.400585	1147.410667	1781.481445	90.503410
31154.400585	1147.410667	1780.476563	81.906960
31154.400585	1147.410667	1779.471680	89.891808
31154.400585	1147.410667	1778.465820	-139.916214
31154.400585	1147.410667	1777.460938	29.593170
31154.400585	1147.410667	1776.455078	68.271141
31154.400585	1147.410667	1775.449219	83.108231
31154.400585	1147.410667	1774.442383	64.612404
31154.400585	1147.410667	1773.436523	141.056137
31154.400585	1147.410667	1772.429688	17.941004
31154.400585	1147.410667	1771.422852	37.245186
31154.400585	1147.410667	1770.416016	58.846287
31154.400585	1147.410667	1769.409180	40.025261
31154.400585	1147.410667	1768.402344	-23.940350
31154.400585	1147.410667	1767.394531	-21.533188
31154.400585	1147.410667	1766.386719	-97.467072
31154.400585	1147.410667	1765.378906	-73.847717
31154.400585	1147.410667	1764.371094	129.878357
31154.400585	1147.410667	1763.362305	39.516880
31154.400585	1147.410667	1762.354492	15.481105
31154.400585	1147.410667	1761.345703	249.657059
31154.400585	1147.410667	1760.336914	-28.050926
31154.400585	1147.410667	1759.328125	59.043537
31154.400585	1147.410667	1758.318359	-22.113487
31154.400585	1147.410667	1757.308594	-82.003632
31154.400585	1147.410667	1756.299805	206.049973
31154.400585	1147.410667	1755.290039	112.856415
31154.400585	1147.410667	1754.279297	-13.508895
31154.400585	1147.410667	1753.269531	-151.726044
31154.400585	1147.410667	1752.258789	-105.461418
31154.400585	1147.410667	1751.249023	-37.998779
31154.400585	1147.410667	1750.238281	95.567513
31154.400585	1147.410667	1749.226563	80.063896
31154.400585	1147.410667	1748.215820	3.041033
31154.400585	1147.410667	1747.204102	-123.659767
31154.400585	1147.410667	1746.193359	-7.015851
31154.400585	1147.410667	1745.181641	-6.249644
31154.400585	1147.410667	1744.168945	-71.695274
31154.400585	1147.410667	1743.157227	-38.006397
31154.400585	1147.410667	1742.144531	40.449177
31154.400585	1147.410667	1741.132813	116.444862
31154.400585	1147.410667	1740.120117	-93.236519
31154.400585	1147.410667	1739.106445	-64.595551
31154.400585	1147.410667	1738.093750	20.585505
31154.400585	1147.410667	1737.080078	84.425995
31154.400585	1147.410667	1736.067383	-179.626083
31154.400585	1147.410667	1735.053711	115.147507
31154.400585	1147.410667	1734.040039	37.269501
31154.400585	1147.410667	1733.025391	-28.873043
31154.400585	1147.410667	1732.011719	-36.146458
31154.400585	1147.410667	1730.997070	135.562012
31154.400585	1147.410667	1729.982422	243.531296
31154.400585	1147.410667	1728.967773	127.649818
31154.400585	1147.410667	1727.952148	-103.644829
31154.400585	1147.410667	1726.937500	55.883808
31154.400585	1147.410667	1725.921875	8.140846
31154.400585	1147.410667	1724.906250	-32.595375
31154.400585	1147.410667	1723.890625	-59.270329
31154.400585	1147.410667	1722.875000	31.614374
31154.400585	1147.410667	1721.858398	-9.323346
31154.400585	1147.410667	1720.841797	-83.236961
31154.400585	1147.410667	1719.825195	59.105354
31154.400585	1147.410667	1718.808594	27.377329
31154.400585	1147.410667	1717.791992	-16.158430
31154.400585	1147.410667	1716.774414	123.523941
31154.400585	1147.410667	1715.756836	7.013546
31154.400585	1147.410667	1714.739258	47.850372
31154.400585	1147.410667	1713.721680	90.951859
31154.400585	1147.410667	1712.704102	-9.254287
31154.400585	1147.410667	1711.685547	52.479229
31154.400585	1147.410667	1710.667969	62.494625
31154.400585	1147.410667	1709.649414	67.740089
31154.400585	1147.410667	1708.630859	14.263733
31154.400585	1147.410667	1707.611328	-32.227386
31154.400585	1147.410667	1706.592773	-6.056531
31154.400585	1147.410667	1705.573242	113.823166
31154.400585	1147.410667	1704.553711	165.607071
31154.400585	1147.410667	1703.534180	-26.454739
31154.400585	1147.410667	1702.513672	-117.746262
31154.400585	1147.410667	1701.494141	-80.194138
31154.400585	1147.410667	1700.473633	-16.958567
31154.400585	1147.410667	1699.453125	-47.491291
31154.400585	1147.410667	1698.432617	-59.340534
31154.400585	1147.410667	1697.412109	6.013855
31154.400585	1147.410667	1696.390625	15.097768
31154.400585	1147.410667	1695.369141	-198.206787
31154.400585	1147.410667	1694.347656	-27.756592
31154.400585	1147.410667	1693.326172	-35.222366
31154.400585	1147.410667	1692.304688	67.186592
31154.400585	1147.410667	1691.282227	-29.278454
31154.400585	1147.410667	1690.260742	-20.543344
31154.400585	1147.410667	1689.238281	177.468948
31154.400585	1147.410667	1688.214844	132.280930
31154.400585	1147.410667	1687.192383	166.511047
31154.400585	1147.410667	1686.168945	86.191620
31154.400585	1147.410667	1685.146484	64.253281
31154.400585	1147.410667	1684.123047	184.717941
31154.400585	1147.410667	1683.099609	342.442902
31154.400585	1147.410667	1682.075195	-6.523030
31154.400585	1147.410667	1681.051758	162.747742
31154.400585	1147.410667	1680.027344	44.871517
31154.400585	1147.410667	1679.002930	160.300568
31154.400585	1147.410667	1677.978516	268.639191
31154.400585	1147.410667	1676.953125	208.963791
31154.400585	1147.410667	1675.928711	-39.596836
31154.400585	1147.410667	1674.903320	-15.355494
31154.400585	1147.410667	1673.877930	174.321472
31154.400585	1147.410667	1672.852539	165.798660
31154.400585	1147.410667	1671.826172	119.948730
31154.400585	1147.410667	1670.800781	13.516083
31154.400585	1147.410667	1669.774414	28.184172
31154.400585	1147.410667	1668.748047	-50.337925
31154.400585	1147.410667	1667.721680	94.632286
31154.400585	1147.410667	1666.694336	95.182152
31154.400585	1147.410667	1665.667969	49.157558
31154.400585	1147.410667	1664.640625	175.286545
31154.400585	1147.410667	1663.613281	91.960052
31154.400585	1147.410667	1662.585938	297.040741
31154.400585	1147.410667	1661.557617	153.181793
31154.400585	1147.410667	1660.530273	146.528717
31154.400585	1147.410667	1659.501953	186.326385
31154.400585	1147.410667	1658.473633	205.159744
31154.400585	1147.410667	1657.444336	237.886932
31154.400585	1147.410667	1656.416016	198.561920
31154.400585	1147.410667	1655.386719	103.466484
31154.400585	1147.410667	1654.358398	377.634674
31154.400585	1147.410667	1653.328125	189.601822
31154.400585	1147.410667	1652.298828	231.443314
31154.400585	1147.410667	1651.269531	373.043121
31154.400585	1147.410667	1650.239258	243.055191
31154.400585	1147.410667	1649.208984	238.376205
31154.400585	1147.410667	1648.178711	242.954407
31154.400585	1147.410667	1647.148438	150.104172
31154.400585	1147.410667	1646.117188	421.295319
31154.400585	1147.410667	1645.086914	416.498260
31154.400585	1147.410667	1644.055664	305.054993
31154.400585	1147.410667	1643.024414	402.198242
31154.400585	1147.410667	1641.992188	589.636108
31154.400585	1147.410667	1640.960938	501.335663
31154.400585	1147.410667	1639.928711	616.853210
31154.400585	1147.410667	1638.896484	463.705688
31154.400585	1147.410667	1637.864258	532.854553
31154.400585	1147.410667	1636.832031	595.020020
31154.400585	1147.410667	1635.798828	495.143890
31154.400585	1147.410667	1634.766602	575.778931
31154.400585	1147.410667	1633.733398	626.290405
31154.400585	1147.410667	1632.699219	655.947693
31154.400585	1147.410667	1631.666016	699.469666
31154.400585	1147.410667	1630.632813	719.847473
31154.400585	1147.410667	1629.598633	952.861389
31154.400585	1147.410667	1628.564453	901.517273
31154.400585	1147.410667	1627.530273	746.211548
31154.400585	1147.410667	1626.495117	1013.714783
31154.400585	1147.410667	1625.460938	1094.032837
31154.400585	1147.410667	1624.425781	1137.360962
31154.400585	1147.410667	1623.390625	1055.994995
31154.400585	1147.410667	1622.355469	1189.340332
31154.400585	1147.410667	1621.319336	976.436035
31154.400585	1147.410667	1620.284180	1033.602295
31154.400585	1147.410667	1619.248047	1106.889038
31154.400585	1147.410667	1618.211914	1233.203491
31154.400585	1147.410667	1617.174805	1352.545532
31154.400585	1147.410667	1616.138672	1398.076416
31154.400585	1147.410667	1615.101563	1346.765747
31154.400585	1147.410667	1614.065430	1283.969971
31154.400585	1147.410667	1613.027344	1281.100464
31154.400585	1147.410667	1611.990234	1047.863892
31154.400585	1147.410667	1610.953125	1233.955688
31154.400585	1147.410667	1609.915039	1314.039185
31154.400585	1147.410667	1608.876953	1101.682373
31154.400585	1147.410667	1607.838867	1131.142212
31154.400585	1147.410667	1606.800781	1174.415771
31154.400585	1147.410667	1605.761719	1268.304932
31154.400585	1147.410667	1604.723633	1166.619873
31154.400585	1147.410667	1603.684570	1249.008423
31154.400585	1147.410667	1602.644531	1372.770386
31154.400585	1147.410667	1601.605469	1448.226563
31154.400585	1147.410667	1600.566406	1224.809814
31154.400585	1147.410667	1599.526367	1150.895264
31154.400585	1147.410667	1598.486328	1237.896851
31154.400585	1147.410667	1597.446289	1416.792969
31154.400585	1147.410667	1596.405273	1179.847534
31154.400585	1147.410667	1595.365234	1402.372437
31154.400585	1147.410667	1594.324219	1294.165161
31154.400585	1147.410667	1593.283203	1298.523193
31154.400585	1147.410667	1592.242188	1270.773438
31154.400585	1147.410667	1591.200195	1249.938110
31154.400585	1147.410667	1590.159180	1256.684937
31154.400585	1147.410667	1589.117188	1373.563721
31154.400585	1147.410667	1588.075195	1212.906982
31154.400585	1147.410667	1587.032227	1185.338257
31154.400585	1147.410667	1585.990234	1171.579834
31154.400585	1147.410667	1584.947266	1352.691528
31154.400585	1147.410667	1583.904297	1357.301514
31154.400585	1147.410667	1582.861328	1520.047363
31154.400585	1147.410667	1581.818359	1064.229858
31154.400585	1147.410667	1580.775391	1247.660400
31154.400585	1147.410667	1579.731445	1348.609253
31154.400585	1147.410667	1578.687500	1117.576416
31154.400585	1147.410667	1577.643555	1307.868530
31154.400585	1147.410667	1576.598633	1239.502075
31154.400585	1147.410667	1575.554688	1141.467896
31154.400585	1147.410667	1574.509766	1096.125610
31154.400585	1147.410667	1573.464844	1043.983765
31154.400585	1147.410667	1572.419922	1081.095947
31154.400585	1147.410667	1571.374023	1093.080322
31154.400585	1147.410667	1570.329102	1011.391296
31154.400585	1147.410667	1569.283203	1130.898560
31154.400585	1147.410667	1568.237305	848.238403
31154.400585	1147.410667	1567.191406	823.899780
31154.400585	1147.410667	1566.144531	808.750427
31154.400585	1147.410667	1565.098633	782.246826
31154.400585	1147.410667	1564.051758	696.434143
31154.400585	1147.410667	1563.004883	708.868164
31154.400585	1147.410667	1561.957031	664.284790
31154.400585	1147.410667	1560.910156	763.542725
31154.400585	1147.410667	1559.862305	801.209656
31154.400585	1147.410667	1558.814453	1046.490723
31154.400585	1147.410667	1557.766602	926.841797
31154.400585	1147.410667	1556.718750	846.058350
31154.400585	1147.410667	1555.669922	785.875854
31154.400585	1147.410667	1554.621094	746.289978
31154.400585	1147.410667	1553.573242	560.944702
31154.400585	1147.410667	1552.523438	703.798706
31154.400585	1147.410667	1551.474609	762.383972
31154.400585	1147.410667	1550.424805	493.049683
31154.400585	1147.410667	1549.375000	626.912354
31154.400585	1147.410667	1548.325195	560.451172
31154.400585	1147.410667	1547.275391	532.773254
31154.400585	1147.410667	1546.225586	582.544312
31154.400585	1147.410667	1545.174805	693.785339
31154.400585	1147.410667	1544.124023	595.772705
31154.400585	1147.410667	1543.073242	529.705261
31154.400585	1147.410667	1542.022461	443.268219
31154.400585	1147.410667	1540.970703	772.960388
31154.400585	1147.410667	1539.919922	652.553650
31154.400585	1147.410667	1538.868164	527.713074
31154.400585	1147.410667	1537.815430	425.706970
31154.400585	1147.410667	1536.763672	548.707275
31154.400585	1147.410667	1535.710938	415.085358
31154.400585	1147.410667	1534.659180	585.869324
31154.400585	1147.410667	1533.606445	540.978699
31154.400585	1147.410667	1532.552734	552.919128
31154.400585	1147.410667	1531.500000	537.703552
31154.400585	1147.410667	1530.446289	622.395508
31154.400585	1147.410667	1529.393555	537.000793
31154.400585	1147.410667	1528.338867	526.548950
31154.400585	1147.410667	1527.285156	366.524170
31154.400585	1147.410667	1526.231445	596.587036
31154.400585	1147.410667	1525.176758	604.496094
31154.400585	1147.410667	1524.122070	358.662933
31154.400585	1147.410667	1523.067383	561.631958
31154.400585	1147.410667	1522.012695	501.821625
31154.400585	1147.410667	1520.957031	485.142090
31154.400585	1147.410667	1519.901367	418.733124
31154.400585	1147.410667	1518.845703	508.647919
31154.400585	1147.410667	1517.790039	478.640808
31154.400585	1147.410667	1516.734375	174.892929
31154.400585	1147.410667	1515.677734	269.570618
31154.400585	1147.410667	1514.621094	224.036850
31154.400585	1147.410667	1513.564453	198.961960
31154.400585	1147.410667	1512.507813	248.604156
31154.400585	1147.410667	1511.450195	381.958221
31154.400585	1147.410667	1510.393555	164.986053
31154.400585	1147.410667	1509.335938	117.678833
31154.400585	1147.410667	1508.278320	43.361874
31154.400585	1147.410667	1507.219727	0.784168
31154.400585	1147.410667	1506.162109	111.901024
31154.400585	1147.410667	1505.103516	250.154480
31154.400585	1147.410667	1504.044922	2.371416
31154.400585	1147.410667	1502.986328	34.676189
31154.400585	1147.410667	1501.926758	-104.466019
31154.400585	1147.410667	1500.868164	-44.897648
31154.400585	1147.410667	1499.808594	3.453031
31154.400585	1147.410667	1498.749023	-45.111969
31154.400585	1147.410667	1497.688477	64.281044
31154.400585	1147.410667	1496.628906	-211.808746
31154.400585	1147.410667	1495.568359	-81.957390
31154.400585	1147.410667	1494.507813	32.158215
31154.400585	1147.410667	1493.447266	-227.718506
31154.400585	1147.410667	1492.386719	-81.895935
31154.400585	1147.410667	1491.325195	-201.820206
31154.400585	1147.410667	1490.263672	-123.437149
31154.400585	1147.410667	1489.202148	-42.740688
31154.400585	1147.410667	1488.140625	24.509602
31154.400585	1147.410667	1487.079102	-124.226135
31154.400585	1147.410667	1486.016602	33.203022
31154.400585	1147.410667	1484.954102	8.439648
31154.400585	1147.410667	1483.891602	64.752449
31154.400585	1147.410667	1482.829102	301.037079
31154.400585	1147.410667	1481.765625	85.409645
31154.400585	1147.410667	1480.702148	29.564054
31154.400585	1147.410667	1479.638672	261.491669
31154.400585	1147.410667	1478.575195	183.336105
31154.400585	1147.410667	1477.511719	363.643433
31154.400585	1147.410667	1476.447266	240.781067
31154.400585	1147.410667	1475.382813	111.371162
31154.400585	1147.410667	1474.318359	338.904053
31154.400585	1147.410667	1473.253906	312.955017
31154.400585	1147.410667	1472.189453	338.675415
31154.400585	1147.410667	1471.124023	409.391174
31154.400585	1147.410667	1470.058594	280.550140
31154.400585	1147.410667	1468.993164	456.775330
31154.400585	1147.410667	1467.927734	444.595154
31154.400585	1147.410667	1466.861328	439.327942
31154.400585	1147.410667	1465.794922	550.864502
31154.400585	1147.410667	1464.728516	588.447998
31154.400585	1147.410667	1463.662109	590.202515
31154.400585	1147.410667	1462.594727	661.401672
31154.400585	1147.410667	1461.528320	634.342834
31154.400585	1147.410667	1460.460938	728.275635
31154.400585	1147.410667	1459.393555	466.902924
31154.400585	1147.410667	1458.326172	922.877869
31154.400585	1147.410667	1457.257813	684.241333
31154.400585	1147.410667	1456.189453	786.888000
31154.400585	1147.410667	1455.121094	459.789581
31154.400585	1147.410667	1454.052734	477.397125
31154.400585	1147.410667	1452.984375	292.308167
31154.400585	1147.410667	1451.915039	636.444763
31154.400585	1147.410667	1450.845703	451.758820
31154.400585	1147.410667	1449.776367	325.534424
31154.400585	1147.410667	1448.707031	266.486267
31154.400585	1147.410667	1447.636719	160.678299
31154.400585	1147.410667	1446.567383	337.020355
31154.400585	1147.410667	1445.497070	283.732361
31154.400585	1147.410667	1444.425781	154.049774
31154.400585	1147.410667	1443.355469	159.874985
31154.400585	1147.410667	1442.285156	319.141266
31154.400585	1147.410667	1441.213867	130.356384
31154.400585	1147.410667	1440.142578	170.023071
31154.400585	1147.410667	1439.070313	78.016479
31154.400585	1147.410667	1437.999023	63.501785
31154.400585	1147.410667	1436.926758	147.472702
31154.400585	1147.410667	1435.854492	124.828079
31154.400585	1147.410667	1434.782227	66.527626
31154.400585	1147.410667	1433.709961	118.731232
31154.400585	1147.410667	1432.636719	56.534256
31154.400585	1147.410667	1431.563477	-38.393379
31154.400585	1147.410667	1430.490234	75.666801
31154.400585	1147.410667	1429.416992	51.890297
31154.400585	1147.410667	1428.343750	241.419403
31154.400585	1147.410667	1427.269531	256.619354
31154.400585	1147.410667	1426.195313	164.854950
31154.400585	1147.410667	1425.121094	69.481339
31154.400585	1147.410667	1424.046875	147.214996
31154.400585	1147.410667	1422.971680	142.463486
31154.400585	1147.410667	1421.896484	56.773808
31154.400585	1147.410667	1420.821289	78.064590
31154.400585	1147.410667	1419.746094	86.941910
31154.400585	1147.410667	1418.669922	148.338058
31154.400585	1147.410667	1417.594727	60.700943
31154.400585	1147.410667	1416.518555	-107.748001
31154.400585	1147.410667	1415.442383	17.979105
31154.400585	1147.410667	1414.365234	63.390034
31154.400585	1147.410667	1413.289063	162.299210
31154.400585	1147.410667	1412.211914	35.360332
31154.400585	1147.410667	1411.134766	93.603889
31154.400585	1147.410667	1410.057617	190.849777
31154.400585	1147.410667	1408.979492	41.878601
31154.400585	1147.410667	1407.902344	-216.155228
31154.400585	1147.410667	1406.824219	71.805077
31154.400585	1147.410667	1405.746094	145.082550
31154.400585	1147.410667	1404.666992	219.491302
31154.400585	1147.410667	1403.588867	144.863770
31154.400585	1147.410667	1402.509766	193.356964
31154.400585	1147.410667	1401.430664	45.035789
31154.400585	1147.410667	1400.351563	88.845062
31154.400585	1147.410667	1399.271484	193.535751
31154.400585	1147.410667	1398.192383	221.556717
31154.400585	1147.410667	1397.112305	337.013916
31154.400585	1147.410667	1396.031250	324.793854
31154.400585	1147.410667	1394.951172	246.963974
31154.400585	1147.410667	1393.871094	176.168976
31154.400585	1147.410667	1392.790039	203.175842
31154.400585	1147.410667	1391.708984	143.003784
31154.400585	1147.410667	1390.626953	247.490250
31154.400585	1147.410667	1389.545898	230.907089
31154.400585	1147.410667	1388.463867	86.836021
31154.400585	1147.410667	1387.381836	106.119186
31154.400585	1147.410667	1386.299805	73.601746
31154.400585	1147.410667	1385.217773	-88.427795
31154.400585	1147.410667	1384.134766	58.219963
31154.400585	1147.410667	1383.051758	104.760887
31154.400585	1147.410667	1381.968750	134.935623
31154.400585	1147.410667	1380.885742	163.984787
31154.400585	1147.410667	1379.802734	36.034786
31154.400585	1147.410667	1378.718750	112.709869
31154.400585	1147.410667	1377.634766	56.807587
31154.400585	1147.410667	1376.550781	69.023621
31154.400585	1147.410667	1375.465820	241.771500
31154.400585	1147.410667	1374.381836	146.872833
31154.400585	1147.410667	1373.296875	57.669979
31154.400585	1147.410667	1372.211914	60.755993
31154.400585	1147.410667	1371.126953	126.894920
31154.400585	1147.410667	1370.041016	114.341400
31154.400585	1147.410667	1368.955078	408.305481
31154.400585	1147.410667	1367.869141	212.918381
31154.400585	1147.410667	1366.783203	268.862091
31154.400585	1147.410667	1365.697266	370.077362
31154.400585	1147.410667	1364.610352	255.190201
31154.400585	1147.410667	1363.523438	348.886932
31154.400585	1147.410667	1362.436523	359.264526
31154.400585	1147.410667	1361.349609	294.753021
31154.400585	1147.410667	1360.261719	338.192535
31154.400585	1147.410667	1359.174805	433.902832
31154.400585	1147.410667	1358.086914	329.638153
31154.400585	1147.410667	1356.998047	395.184052
31154.400585	1147.410667	1355.910156	374.091522
31154.400585	1147.410667	1354.821289	607.120850
31154.400585	1147.410667	1353.732422	397.511536
31154.400585	1147.410667	1352.643555	271.065613
31154.400585	1147.410667	1351.554688	305.928864
31154.400585	1147.410667	1350.464844	355.144989
31154.400585	1147.410667	1349.375000	255.042084
31154.400585	1147.410667	1348.285156	373.028625
31154.400585	1147.410667	1347.195313	436.679108
31154.400585	1147.410667	1346.105469	377.194031
31154.400585	1147.410667	1345.014648	455.075317
31154.400585	1147.410667	1343.923828	463.472076
31154.400585	1147.410667	1342.833008	360.403137
31154.400585	1147.410667	1341.741211	343.366669
31154.400585	1147.410667	1340.650391	505.227539
31154.400585	1147.410667	1339.558594	497.752350
31154.400585	1147.410667	1338.466797	494.835083
31154.400585	1147.410667	1337.374023	339.007294
31154.400585	1147.410667	1336.282227	421.712555
31154.400585	1147.410667	1335.189453	381.358490
31154.400585	1147.410667	1334.096680	545.820313
31154.400585	1147.410667	1333.003906	334.211548
31154.400585	1147.410667	1331.910156	349.458466
31154.400585	1147.410667	1330.817383	252.876328
31154.400585	1147.410667	1329.723633	430.016693
31154.400585	1147.410667	1328.629883	308.721344
31154.400585	1147.410667	1327.535156	567.603271
31154.400585	1147.410667	1326.441406	530.578857
31154.400585	1147.410667	1325.346680	637.222595
31154.400585	1147.410667	1324.251953	774.811523
31154.400585	1147.410667	1323.156250	804.701965
31154.400585	1147.410667	1322.061523	826.365723
31154.400585	1147.410667	1320.965820	496.947784
31154.400585	1147.410667	1319.870117	501.834534
31154.400585	1147.410667	1318.774414	389.332825
31154.400585	1147.410667	1317.678711	419.036682
31154.400585	1147.410667	1316.582031	511.690247
31154.400585	1147.410667	1315.485352	504.774536
31154.400585	1147.410667	1314.388672	463.583740
31154.400585	1147.410667	1313.291016	339.343506
31154.400585	1147.410667	1312.194336	366.434296
31154.400585	1147.410667	1311.096680	441.386353
31154.400585	1147.410667	1309.999023	262.485229
31154.400585	1147.410667	1308.901367	349.551453
31154.400585	1147.410667	1307.802734	378.082397
31154.400585	1147.410667	1306.705078	295.983521
31154.400585	1147.410667	1305.606445	240.626221
31154.400585	1147.410667	1304.506836	569.371216
31154.400585	1147.410667	1303.408203	609.296631
31154.400585	1147.410667	1302.308594	468.850250
31154.400585	1147.410667	1301.208984	652.566345
31154.400585	1147.410667	1300.109375	723.263611
31154.400585	1147.410667	1299.009766	861.949036
31154.400585	1147.410667	1297.909180	1028.990356
31154.400585	1147.410667	1296.808594	1022.329895
31154.400585	1147.410667	1295.708008	1073.596924
31154.400585	1147.410667	1294.607422	1031.422485
31154.400585	1147.410667	1293.506836	1219.907349
31154.400585	1147.410667	1292.405273	1141.873657
31154.400585	1147.410667	1291.303711	1102.056396
31154.400585	1147.410667	1290.202148	1040.937378
31154.400585	1147.410667	1289.099609	1109.614990
31154.400585	1147.410667	1287.998047	874.407043
31154.400585	1147.410667	1286.895508	873.954163
31154.400585	1147.410667	1285.792969	755.570679
31154.400585	1147.410667	1284.689453	799.435120
31154.400585	1147.410667	1283.586914	636.548767
31154.400585	1147.410667	1282.483398	698.893311
31154.400585	1147.410667	1281.379883	573.439148
31154.400585	1147.410667	1280.276367	409.256989
31154.400585	1147.410667	1279.171875	441.710846
31154.400585	1147.410667	1278.067383	402.928406
31154.400585	1147.410667	1276.962891	403.417786
31154.400585	1147.410667	1275.858398	286.546936
31154.400585	1147.410667	1274.753906	232.203842
31154.400585	1147.410667	1273.648438	268.925446
31154.400585	1147.410667	1272.542969	247.604568
31154.400585	1147.410667	1271.437500	174.798630
31154.400585	1147.410667	1270.331055	206.215530
31154.400585	1147.410667	1269.225586	147.645905
31154.400585	1147.410667	1268.119141	183.725006
31154.400585	1147.410667	1267.012695	161.720123
31154.400585	1147.410667	1265.906250	20.423567
31154.400585	1147.410667	1264.798828	31.319124
31154.400585	1147.410667	1263.691406	-53.821995
31154.400585	1147.410667	1262.583984	110.321808
31154.400585	1147.410667	1261.476563	-6.126106
31154.400585	1147.410667	1260.368164	-28.198030
31154.400585	1147.410667	1259.260742	-37.056465
31154.400585	1147.410667	1258.152344	-13.237970
31154.400585	1147.410667	1257.043945	82.981781
31154.400585	1147.410667	1255.934570	-19.949501
31154.400585	1147.410667	1254.825195	126.951797
31154.400585	1147.410667	1253.716797	5.026241
31154.400585	1147.410667	1252.606445	52.489319
31154.400585	1147.410667	1251.497070	145.144775
31154.400585	1147.410667	1250.387695	29.645906
31154.400585	1147.410667	1249.277344	140.333466
31154.400585	1147.410667	1248.166992	-47.261040
31154.400585	1147.410667	1247.055664	-5.529751
31154.400585	1147.410667	1245.945313	-3.883591
31154.400585	1147.410667	1244.833984	-107.263466
31154.400585	1147.410667	1243.722656	-41.626102
31154.400585	1147.410667	1242.611328	-34.145454
31154.400585	1147.410667	1241.499023	-9.004697
31154.400585	1147.410667	1240.387695	-91.932037
31154.400585	1147.410667	1239.275391	-32.655067
31154.400585	1147.410667	1238.162109	26.574623
31154.400585	1147.410667	1237.049805	13.927825
31154.400585	1147.410667	1235.936523	80.906883
31154.400585	1147.410667	1234.823242	89.353508
31154.400585	1147.410667	1233.709961	43.834019
31154.400585	1147.410667	1232.596680	36.877155
31154.400585	1147.410667	1231.482422	-40.061172
31154.400585	1147.410667	1230.369141	-85.683540
31154.400585	1147.410667	1229.253906	-29.403837
31154.400585	1147.410667	1228.139648	7.098445
31154.400585	1147.410667	1227.025391	-28.929760
31154.400585	1147.410667	1225.910156	24.676395
31154.400585	1147.410667	1224.794922	-128.061539
31154.400585	1147.410667	1223.679688	-26.034220
31154.400585	1147.410667	1222.563477	-75.266296
31154.400585	1147.410667	1221.447266	-17.915834
31154.400585	1147.410667	1220.331055	-13.318800
31154.400585	1147.410667	1219.214844	-7.666616
31154.400585	1147.410667	1218.098633	-9.209296
31154.400585	1147.410667	1216.981445	1.219855
31154.400585	1147.410667	1215.864258	-56.929699
31154.400585	1147.410667	1214.747070	-45.469479
31154.400585	1147.410667	1213.629883	-35.304749
31154.400585	1147.410667	1212.511719	70.011391
31154.400585	1147.410667	1211.393555	55.560349
31154.400585	1147.410667	1210.275391	81.391945
31154.400585	1147.410667	1209.157227	-4.556778
31154.400585	1147.410667	1208.038086	25.099495
31154.400585	1147.410667	1206.918945	78.814827
31154.400585	1147.410667	1205.799805	129.225983
31154.400585	1147.410667	1204.680664	0.246107
31154.400585	1147.410667	1203.560547	-14.237621
31154.400585	1147.410667	1202.441406	32.138256
31154.400585	1147.410667	1201.321289	-36.722549
31154.400585	1147.410667	1200.200195	-32.724823
31154.400585	1147.410667	1199.080078	-39.908272
31154.400585	1147.410667	1197.958984	-223.939133
31154.400585	1147.410667	1196.837891	-75.588676
31154.400585	1147.410667	1195.716797	-105.050148
31154.400585	1147.410667	1194.594727	-114.247566
31154.400585	1147.410667	1193.473633	28.356316
31154.400585	1147.410667	1192.351563	54.384575
31154.400585	1147.410667	1191.229492	-37.778130
31154.400585	1147.410667	1190.106445	-65.524635
31154.400585	1147.410667	1188.984375	-56.734440
31154.400585	1147.410667	1187.861328	-14.650893
31154.400585	1147.410667	1186.738281	124.020966
31154.400585	1147.410667	1185.614258	-39.528309
31154.400585	1147.410667	1184.491211	12.003197
31154.400585	1147.410667	1183.367188	-23.057764
31154.400585	1147.410667	1182.243164	100.635666
31154.400585	1147.410667	1181.119141	85.277992
31154.400585	1147.410667	1179.994141	6.815500
31154.400585	1147.410667	1178.869141	121.896431
31154.400585	1147.410667	1177.744141	49.035133
31154.400585	1147.410667	1176.619141	9.348490
31154.400585	1147.410667	1175.493164	-37.142601
31154.400585	1147.410667	1174.368164	79.459114
31154.400585	1147.410667	1173.242188	109.832893
31154.400585	1147.410667	1172.115234	76.823105
31154.400585	1147.410667	1170.989258	72.581100
31154.400585	1147.410667	1169.862305	26.651711
31154.400585	1147.410667	1168.735352	72.576561
31154.400585	1147.410667	1167.608398	23.949167
31154.400585	1147.410667	1166.481445	69.387924
31154.400585	1147.410667	1165.353516	-31.657804
31154.400585	1147.410667	1164.225586	-124.670143
31154.400585	1147.410667	1163.097656	-72.336334
31154.400585	1147.410667	1161.968750	-46.027420
31154.400585	1147.410667	1160.840820	-116.812546
31154.400585	1147.410667	1159.711914	-12.190449
31154.400585	1147.410667	1158.583008	49.877956
31154.400585	1147.410667	1157.453125	-47.776344
31154.400585	1147.410667	1156.324219	-127.078156
31154.400585	1147.410667	1155.194336	-12.975688
31154.400585	1147.410667	1154.064453	-122.171394
31154.400585	1147.410667	1152.933594	-20.000418
31154.400585	1147.410667	1151.803711	-119.718315
31154.400585	1147.410667	1150.672852	-71.911736
31154.400585	1147.410667	1149.541992	-106.513443
31154.400585	1147.410667	1148.411133	34.407570
31154.400585	1147.410667	1147.279297	22.015017
31154.400585	1147.410667	1146.147461	81.617477
31154.400585	1147.410667	1145.015625	115.608383
31154.400585	1147.410667	1143.883789	96.432411
31154.400585	1147.410667	1142.750977	39.139893
31154.400585	1147.410667	1141.619141	15.039460
31154.400585	1147.410667	1140.486328	112.779205
31154.400585	1147.410667	1139.352539	0.539076
31154.400585	1147.410667	1138.219727	29.121134
31154.400585	1147.410667	1137.085938	-42.699306
31154.400585	1147.410667	1135.952148	-19.885258
31154.400585	1147.410667	1134.818359	-64.203400
31154.400585	1147.410667	1133.683594	24.641932
31154.400585	1147.410667	1132.549805	-4.780209
31154.400585	1147.410667	1131.415039	122.350555
31154.400585	1147.410667	1130.279297	47.418812
31154.400585	1147.410667	1129.144531	-33.150173
31154.400585	1147.410667	1128.008789	139.895401
31154.400585	1147.410667	1126.873047	69.105087
31154.400585	1147.410667	1125.737305	-48.759922
31154.400585	1147.410667	1124.601563	-25.997028
31154.400585	1147.410667	1123.464844	-22.659988
31154.400585	1147.410667	1122.328125	-25.054544
31154.400585	1147.410667	1121.191406	6.715770
31154.400585	1147.410667	1120.054688	181.771545
31154.400585	1147.410667	1118.916992	192.078918
31154.400585	1147.410667	1117.779297	108.969528
31154.400585	1147.410667	1116.641602	80.650398
31154.400585	1147.410667	1115.503906	133.623016
31154.400585	1147.410667	1114.365234	-13.319486
31154.400585	1147.410667	1113.226563	185.100998
31154.400585	1147.410667	1112.087891	117.150612
31154.400585	1147.410667	1110.949219	181.944611
31154.400585	1147.410667	1109.809570	48.816051
31154.400585	1147.410667	1108.669922	-32.607189
31154.400585	1147.410667	1107.530273	74.159317
31154.400585	1147.410667	1106.390625	159.640518
31154.400585	1147.410667	1105.250000	409.445221
31154.400585	1147.410667	1104.109375	404.043732
31154.400585	1147.410667	1102.968750	472.840942
31154.400585	1147.410667	1101.828125	498.241669
31154.400585	1147.410667	1100.686523	514.548462
31154.400585	1147.410667	1099.544922	334.604370
31154.400585	1147.410667	1098.403320	455.627228
31154.400585	1147.410667	1097.261719	468.188477
31154.400585	1147.410667	1096.120117	390.902405
31154.400585	1147.410667	1094.977539	256.949310
31154.400585	1147.410667	1093.834961	339.300385
31154.400585	1147.410667	1092.691406	236.746704
31154.400585	1147.410667	1091.548828	219.993088
31154.400585	1147.410667	1090.405273	172.795288
31154.400585	1147.410667	1089.261719	341.519226
31154.400585	1147.410667	1088.118164	319.328613
31154.400585	1147.410667	1086.973633	210.742844
31154.400585	1147.410667	1085.829102	360.205597
31154.400585	1147.410667	1084.684570	372.471375
31154.400585	1147.410667	1083.540039	370.445160
31154.400585	1147.410667	1082.395508	402.202698
31154.400585	1147.410667	1081.250000	377.249603
31154.400585	1147.410667	1080.104492	556.885742
31154.400585	1147.410667	1078.958984	417.567230
31154.400585	1147.410667	1077.812500	362.889923
31154.400585	1147.410667	1076.666016	321.720703
31154.400585	1147.410667	1075.519531	217.902924
31154.400585	1147.410667	1074.373047	255.216614
31154.400585	1147.410667	1073.226563	309.645294
31154.400585	1147.410667	1072.079102	320.402771
31154.400585	1147.410667	1070.931641	241.287750
31154.400585	1147.410667	1069.784180	259.375610
31154.400585	1147.410667	1068.635742	164.752594
31154.400585	1147.410667	1067.487305	335.691162
31154.400585	1147.410667	1066.338867	241.942978
31154.400585	1147.410667	1065.190430	214.173264
31154.400585	1147.410667	1064.041992	232.412003
31154.400585	1147.410667	1062.892578	187.445007
31154.400585	1147.410667	1061.743164	238.562973
31154.400585	1147.410667	1060.593750	154.172379
31154.400585	1147.410667	1059.443359	291.051086
31154.400585	1147.410667	1058.292969	278.876190
31154.400585	1147.410667	1057.142578	116.871033
31154.400585	1147.410667	1055.992188	-16.766420
31154.400585	1147.410667	1054.841797	247.015823
31154.400585	1147.410667	1053.690430	239.914932
31154.400585	1147.410667	1052.539063	250.674057
31154.400585	1147.410667	1051.387695	253.571747
31154.400585	1147.410667	1050.235352	144.776276
31154.400585	1147.410667	1049.083984	277.052856
31154.400585	1147.410667	1047.931641	306.519989
31154.400585	1147.410667	1046.778320	152.095291
31154.400585	1147.410667	1045.625977	136.005585
31154.400585	1147.410667	1044.472656	32.436584
31154.400585	1147.410667	1043.319336	114.201065
31154.400585	1147.410667	1042.166016	66.137161
31154.400585	1147.410667	1041.012695	70.008301
31154.400585	1147.410667	1039.858398	81.354568
31154.400585	1147.410667	1038.704102	208.844833
31154.400585	1147.410667	1037.549805	112.239090
31154.400585	1147.410667	1036.394531	99.270721
31154.400585	1147.410667	1035.239258	267.723907
31154.400585	1147.410667	1034.083984	225.788834
31154.400585	1147.410667	1032.928711	179.809540
31154.400585	1147.410667	1031.773438	216.274063
31154.400585	1147.410667	1030.617188	229.142685
31154.400585	1147.410667	1029.460938	483.324249
31154.400585	1147.410667	1028.304688	223.335617
31154.400585	1147.410667	1027.147461	245.868927
31154.400585	1147.410667	1025.991211	122.996284
31154.400585	1147.410667	1024.833984	63.530331
31154.400585	1147.410667	1023.675781	137.985413
31154.400585	1147.410667	1022.518555	38.239979
31154.400585	1147.410667	1021.360352	-29.018011
31154.400585	1147.410667	1020.202148	78.438904
31154.400585	1147.410667	1019.043945	96.336098
31154.400585	1147.410667	1017.884766	114.291252
31154.400585	1147.410667	1016.726563	126.839821
31154.400585	1147.410667	1015.567383	140.076736
31154.400585	1147.410667	1014.407227	71.066154
31154.400585	1147.410667	1013.248047	107.392525
31154.400585	1147.410667	1012.087891	125.051491
31154.400585	1147.410667	1010.927734	162.266830
31154.400585	1147.410667	1009.767578	84.419670
31154.400585	1147.410667	1008.606445	172.029846
31154.400585	1147.410667	1007.446289	423.772400
31154.400585	1147.410667	1006.285156	575.233032
31154.400585	1147.410667	1005.123047	441.242035
31154.400585	1147.410667	1003.961914	596.843262
31154.400585	1147.410667	1002.799805	552.051941
31154.400585	1147.410667	1001.637695	492.419250
31154.400585	1147.410667	1000.475586	391.640747
31154.400585	1147.410667	999.312500	559.490967
31154.400585	1147.410667	998.149414	448.215851
31154.400585	1147.410667	996.986328	259.302582
31154.400585	1147.410667	995.823242	211.178635
31154.400585	1147.410667	994.659180	121.636032
31154.400585	1147.410667	993.496094	218.986084
31154.400585	1147.410667	992.332031	295.648956
31154.400585	1147.410667	991.166992	184.403625
31154.400585	1147.410667	990.002930	138.779831
31154.400585	1147.410667	988.837891	65.851868
31154.400585	1147.410667	987.672852	58.014381
31154.400585	1147.410667	986.506836	35.364399
31154.400585	1147.410667	985.341797	335.284332
31154.400585	1147.410667	984.175781	151.014343
31154.400585	1147.410667	983.009766	90.084885
31154.400585	1147.410667	981.843750	182.416138
31154.400585	1147.410667	980.676758	92.956596
31154.400585	1147.410667	979.509766	-21.828167
31154.400585	1147.410667	978.342773	16.766699
31154.400585	1147.410667	977.175781	0.626219
31154.400585	1147.410667	976.007813	76.315002
31154.400585	1147.410667	974.839844	-10.072385
31154.400585	1147.410667	973.671875	-98.768120
31154.400585	1147.410667	972.503906	175.876984
31154.400585	1147.410667	971.334961	-59.508102
31154.400585	1147.410667	970.166016	2.092644
31154.400585	1147.410667	968.997070	-33.798069
31154.400585	1147.410667	967.828125	169.667160
31154.400585	1147.410667	966.658203	72.621658
31154.400585	1147.410667	965.488281	-3.116277
31154.400585	1147.410667	964.318359	170.364731
31154.400585	1147.410667	963.148438	-61.575703
31154.400585	1147.410667	961.977539	266.225433
31154.400585	1147.410667	960.806641	20.000586
31154.400585	1147.410667	959.635742	167.095673
31154.400585	1147.410667	958.463867	139.218597
31154.400585	1147.410667	957.292969	62.001122
31154.400585	1147.410667	956.121094	120.204956
31154.400585	1147.410667	954.948242	230.029984
31154.400585	1147.410667	953.776367	39.896141
31154.400585	1147.410667	952.603516	117.025986
31154.400585	1147.410667	951.430664	-73.056435
31154.400585	1147.410667	950.257813	190.833664
31154.400585	1147.410667	949.084961	285.519714
31154.400585	1147.410667	947.911133	188.415024
31154.400585	1147.410667	946.737305	221.695541
31154.400585	1147.410667	945.563477	167.703751
31154.400585	1147.410667	944.388672	202.973007
31154.400585	1147.410667	943.213867	85.225204
31154.400585	1147.410667	942.039063	158.538651
31154.400585	1147.410667	940.864258	24.046335
31154.400585	1147.410667	939.688477	65.364578
31154.400585	1147.410667	938.513672	66.446838
31154.400585	1147.410667	937.337891	35.625629
31154.400585	1147.410667	936.161133	30.236044
31154.400585	1147.410667	934.985352	22.892263
31154.400585	1147.410667	933.808594	127.455521
31154.400585	1147.410667	932.631836	141.207840
31154.400585	1147.410667	931.454102	70.209755
31154.400585	1147.410667	930.277344	219.256195
31154.400585	1147.410667	929.099609	287.857208
31154.400585	1147.410667	927.921875	237.953537
31154.400585	1147.410667	926.743164	160.615921
31154.400585	1147.410667	925.565430	87.511932
31154.400585	1147.410667	924.386719	124.321899
31154.400585	1147.410667	923.208008	91.377251
31154.400585	1147.410667	922.028320	18.290636
31154.400585	1147.410667	920.849609	-39.996864
31154.400585	1147.410667	919.669922	-37.975895
31154.400585	1147.410667	919.474609	111.166130
31154.400585	1147.410667	918.309570	40.165272
31154.400585	1147.410667	917.143555	85.303490
31154.400585	1147.410667	915.977539	1.649530
31154.400585	1147.410667	914.810547	40.423393
31154.400585	1147.410667	913.644531	89.718597
31154.400585	1147.410667	912.477539	-93.069435
31154.400585	1147.410667	911.310547	-41.680023
31154.400585	1147.410667	910.143555	7.568080
31154.400585	1147.410667	908.975586	-67.602280
31154.400585	1147.410667	907.807617	15.335225
31154.400585	1147.410667	906.639648	-5.035835
31154.400585	1147.410667	905.471680	216.893997
31154.400585	1147.410667	904.303711	162.762482
31154.400585	1147.410667	903.134766	-11.406334
31154.400585	1147.410667	901.965820	-23.376122
31154.400585	1147.410667	900.796875	-50.088718
31154.400585	1147.410667	899.626953	129.475006
31154.400585	1147.410667	898.457031	52.215435
31154.400585	1147.410667	897.287109	69.655579
31154.400585	1147.410667	896.117188	-13.892512
31154.400585	1147.410667	894.947266	9.841714
31154.400585	1147.410667	893.776367	-111.529419
31154.400585	1147.410667	892.605469	2.592760
31154.400585	1147.410667	891.434570	80.926537
31154.400585	1147.410667	890.262695	81.466515
31154.400585	1147.410667	889.091797	44.176186
31154.400585	1147.410667	887.919922	-5.711624
31154.400585	1147.410667	886.748047	-49.289631
31154.400585	1147.410667	885.575195	94.014366
31154.400585	1147.410667	884.403320	117.589188
31154.400585	1147.410667	883.230469	-60.344139
31154.400585	1147.410667	882.057617	-95.523331
31154.400585	1147.410667	880.883789	-21.601816
31154.400585	1147.410667	879.710938	85.837601
31154.400585	1147.410667	878.537109	-100.373795
31154.400585	1147.410667	877.362305	-74.752151
31154.400585	1147.410667	876.188477	-128.811874
31154.400585	1147.410667	875.013672	-159.804245
31154.400585	1147.410667	873.839844	-79.739723
31154.400585	1147.410667	872.664063	-133.795120
31154.400585	1147.410667	871.489258	-114.531013
31154.400585	1147.410667	870.313477	-59.684616
31154.400585	1147.410667	869.138672	39.094032
31154.400585	1147.410667	867.962891	-21.265354
31154.400585	1147.410667	866.786133	-69.053383
31154.400585	1147.410667	865.610352	-110.557251
31154.400585	1147.410667	864.433594	-68.374664
31154.400585	1147.410667	863.256836	74.173752
31154.400585	1147.410667	862.079102	28.451925
31154.400585	1147.410667	860.902344	62.182468
31154.400585	1147.410667	859.724609	10.188015
31154.400585	1147.410667	858.546875	-56.425777
31154.400585	1147.410667	857.368164	179.941284
31154.400585	1147.410667	856.190430	40.181824
31154.400585	1147.410667	855.011719	86.349808
31154.400585	1147.410667	853.833008	51.049454
31154.400585	1147.410667	852.654297	59.593662
31154.400585	1147.410667	851.474609	72.297409
31154.400585	1147.410667	850.294922	-94.484581
31154.400585	1147.410667	849.115234	30.886261
31154.400585	1147.410667	847.935547	31.034340
31154.400585	1147.410667	846.754883	41.598305
31154.400585	1147.410667	845.575195	60.484592
31154.400585	1147.410667	844.393555	-22.797890
31154.400585	1147.410667	843.212891	-126.903305
31154.400585	1147.410667	842.032227	-58.020672
31154.400585	1147.410667	840.850586	35.822102
31154.400585	1147.410667	839.668945	15.048644
31154.400585	1147.410667	838.486328	27.591948
31154.400585	1147.410667	837.304688	-172.261536
31154.400585	1147.410667	836.122070	-122.242409
31154.400585	1147.410667	834.939453	-9.820058
31154.400585	1147.410667	833.756836	-128.431152
31154.400585	1147.410667	832.573242	-84.735542
31154.400585	1147.410667	831.389648	-47.311985
31154.400585	1147.410667	830.206055	-70.226051
31154.400585	1147.410667	829.022461	23.285282
31154.400585	1147.410667	827.838867	-16.293762
31154.400585	1147.410667	826.654297	-10.149000
31154.400585	1147.410667	825.469727	-51.812737
31154.400585	1147.410667	824.284180	-41.538689
31154.400585	1147.410667	823.099609	-35.439564
31154.400585	1147.410667	821.914063	-39.740902
31154.400585	1147.410667	820.728516	-91.807495
31154.400585	1147.410667	819.542969	-44.235703
31154.400585	1147.410667	818.356445	-2.925318
31154.400585	1147.410667	817.169922	-36.343140
31154.400585	1147.410667	815.983398	-36.573330
31154.400585	1147.410667	814.796875	-86.596542
31154.400585	1147.410667	813.609375	-30.864389
31154.400585	1147.410667	812.422852	-107.853600
31154.400585	1147.410667	811.235352	-52.175247
31154.400585	1147.410667	810.046875	-17.260227
31154.400585	1147.410667	808.859375	-13.455793
31154.400585	1147.410667	807.670898	-144.313049
31154.400585	1147.410667	806.482422	-92.887550
31154.400585	1147.410667	805.293945	-22.867485
31154.400585	1147.410667	804.104492	-33.629883
31154.400585	1147.410667	802.915039	42.520718
31154.400585	1147.410667	801.725586	95.858040
31154.400585	1147.410667	800.536133	49.849182
31154.400585	1147.410667	799.345703	-16.844400
31154.400585	1147.410667	798.155273	-143.502274
31154.400585	1147.410667	796.964844	-7.547503
31154.400585	1147.410667	795.774414	4.302437
31154.400585	1147.410667	794.583008	28.527298
31154.400585	1147.410667	793.392578	-96.051315
31154.400585	1147.410667	792.200195	-24.342911
31154.400585	1147.410667	791.008789	113.407799
31154.400585	1147.410667	789.816406	90.010056
31154.400585	1147.410667	788.625000	142.989212
31154.400585	1147.410667	787.432617	-148.786987
31154.400585	1147.410667	786.239258	-58.677189
31154.400585	1147.410667	785.046875	14.865550
31154.400585	1147.410667	783.853516	47.098526
31154.400585	1147.410667	782.660156	141.168167
31154.400585	1147.410667	781.465820	115.579422
31154.400585	1147.410667	780.272461	85.854958
31154.400585	1147.410667	779.078125	183.909653
31154.400585	1147.410667	777.883789	162.378769
31154.400585	1147.410667	776.688477	35.757919
31154.400585	1147.410667	775.494141	347.915619
31154.400585	1147.410667	774.298828	-17.633799
31154.400585	1147.410667	773.103516	162.579483
31154.400585	1147.410667	771.907227	122.425507
31154.400585	1147.410667	770.711914	176.938004
31154.400585	1147.410667	769.515625	-7.293169
31154.400585	1147.410667	768.318359	117.120399
31154.400585	1147.410667	767.122070	68.679855
31154.400585	1147.410667	765.924805	141.562820
31154.400585	1147.410667	764.727539	58.132839
31154.400585	1147.410667	763.530273	143.268616
31154.400585	1147.410667	762.333008	170.798080
31154.400585	1147.410667	761.134766	159.249329
31154.400585	1147.410667	759.936523	125.081146
31154.400585	1147.410667	758.738281	-40.547920
31154.400585	1147.410667	757.540039	155.270142
31154.400585	1147.410667	756.340820	88.193192
31154.400585	1147.410667	755.141602	99.114250
31154.400585	1147.410667	753.942383	198.246033
31154.400585	1147.410667	752.742188	98.289314
31154.400585	1147.410667	751.541992	-13.961452
31154.400585	1147.410667	750.341797	-3.141688
31154.400585	1147.410667	749.141602	91.712807
31154.400585	1147.410667	747.941406	-14.403010
31154.400585	1147.410667	746.740234	29.116318
31154.400585	1147.410667	745.539063	132.013626
31154.400585	1147.410667	744.337891	93.475754
31154.400585	1147.410667	743.135742	30.343960
31154.400585	1147.410667	741.933594	120.799622
31154.400585	1147.410667	740.731445	55.581367
31154.400585	1147.410667	739.529297	70.193947
31154.400585	1147.410667	738.326172	27.464848
31154.400585	1147.410667	737.124023	70.662521
31154.400585	1147.410667	735.919922	56.529865
31154.400585	1147.410667	734.716797	-59.893055
31154.400585	1147.410667	733.513672	-10.662059
31154.400585	1147.410667	732.309570	48.739193
31154.400585	1147.410667	731.105469	24.278473
31154.400585	1147.410667	729.900391	7.970619
31154.400585	1147.410667	728.696289	-51.268078
31154.400585	1147.410667	727.491211	63.120468
31154.400585	1147.410667	726.286133	-28.846056
31154.400585	1147.410667	725.080078	85.425232
31154.400585	1147.410667	723.874023	83.252876
31154.400585	1147.410667	722.668945	130.035583
31154.400585	1147.410667	721.461914	86.977310
31154.400585	1147.410667	720.255859	131.634735
31154.400585	1147.410667	719.048828	66.092445
31154.400585	1147.410667	717.841797	126.984589
31154.400585	1147.410667	716.634766	102.184151
31154.400585	1147.410667	715.427734	-0.100405
31154.400585	1147.410667	714.219727	-114.604012
31154.400585	1147.410667	713.011719	-43.668015
31154.400585	1147.410667	711.803711	6.834033
31154.400585	1147.410667	710.594727	2.287744
31154.400585	1147.410667	709.385742	73.055969
31154.400585	1147.410667	708.176758	-63.902313
31154.400585	1147.410667	706.967773	-7.464040
31154.400585	1147.410667	705.758789	-24.344049
31154.400585	1147.410667	704.548828	72.688393
31154.400585	1147.410667	703.338867	98.450401
31154.400585	1147.410667	702.127930	-5.994812
31154.400585	1147.410667	700.917969	90.874840
31154.400585	1147.410667	699.707031	86.023148
31154.400585	1147.410667	698.496094	56.750748
31154.400585	1147.410667	697.285156	59.971275
31154.400585	1147.410667	696.073242	122.074516
31154.400585	1147.410667	694.861328	214.587280
31154.400585	1147.410667	693.649414	77.548233
31154.400585	1147.410667	692.436523	52.203537
31154.400585	1147.410667	691.224609	154.725647
31154.400585	1147.410667	690.011719	178.018921
31154.400585	1147.410667	688.798828	158.659668
31154.400585	1147.410667	687.584961	153.475510
31154.400585	1147.410667	686.372070	245.618652
31154.400585	1147.410667	685.158203	203.853607
31154.400585	1147.410667	683.943359	192.483688
31154.400585	1147.410667	682.729492	314.868256
31154.400585	1147.410667	681.514648	264.912384
31154.400585	1147.410667	680.299805	251.416183
31154.400585	1147.410667	679.084961	215.611801
31154.400585	1147.410667	677.869141	331.683685
31154.400585	1147.410667	676.653320	261.391541
31154.400585	1147.410667	675.437500	124.293190
31154.400585	1147.410667	674.221680	175.451843
31154.400585	1147.410667	673.004883	240.721313
31154.400585	1147.410667	671.789063	148.131912
31154.400585	1147.410667	670.571289	209.271942
31154.400585	1147.410667	669.354492	179.356796
31154.400585	1147.410667	668.136719	-95.220154
31154.400585	1147.410667	666.919922	147.773758
31154.400585	1147.410667	665.701172	208.743515
31154.400585	1147.410667	664.483398	158.529312
31154.400585	1147.410667	663.264648	191.131805
31154.400585	1147.410667	662.045898	237.830139
31154.400585	1147.410667	660.827148	157.265747
31154.400585	1147.410667	659.608398	-22.216337
31154.400585	1147.410667	658.388672	18.357174
31154.400585	1147.410667	657.168945	105.300705
31154.400585	1147.410667	655.949219	75.160988
31154.400585	1147.410667	654.728516	24.833647
31154.400585	1147.410667	653.507813	28.953505
31154.400585	1147.410667	652.287109	-21.394602
31154.400585	1147.410667	651.066406	-15.301606
31154.400585	1147.410667	649.844727	-1.177097
31154.400585	1147.410667	648.623047	-5.218657
31154.400585	1147.410667	647.401367	53.170307
31154.400585	1147.410667	646.179688	-9.339876
31154.400585	1147.410667	644.957031	-55.739395
31154.400585	1147.410667	643.734375	133.416367
31154.400585	1147.410667	642.511719	14.496490
31154.400585	1147.410667	641.289063	-19.872107
31154.400585	1147.410667	640.065430	10.135779
31154.400585	1147.410667	638.841797	11.946802
31154.400585	1147.410667	637.618164	118.317780
31154.400585	1147.410667	636.393555	41.641769
31154.400585	1147.410667	635.168945	9.205366
31154.400585	1147.410667	633.944336	27.011013
31154.400585	1147.410667	632.719727	95.027969
31154.400585	1147.410667	631.494141	22.360205
31154.400585	1147.410667	630.269531	22.018593
31154.400585	1147.410667	629.042969	41.737350
31154.400585	1147.410667	627.817383	91.549438
31154.400585	1147.410667	626.590820	87.123199
31154.400585	1147.410667	625.365234	70.643959
31154.400585	1147.410667	624.137695	58.164181
31154.400585	1147.410667	622.911133	-154.930954
31154.400585	1147.410667	621.683594	-85.154305
31154.400585	1147.410667	620.456055	-153.782501
31154.400585	1147.410667	619.228516	-120.148949
31154.400585	1147.410667	618.000977	-74.515739
31154.400585	1147.410667	616.772461	-20.900991
31154.400585	1147.410667	615.543945	38.690693
31154.400585	1147.410667	614.314453	-51.989277
31154.400585	1147.410667	613.085938	-96.576134
31154.400585	1147.410667	611.856445	-141.156540
31154.400585	1147.410667	610.626953	42.482243
31154.400585	1147.410667	609.397461	-70.173294
31154.400585	1147.410667	608.166992	57.327000
31154.400585	1147.410667	606.936523	158.758392
31154.400585	1147.410667	605.706055	18.125465
31154.400585	1147.410667	604.474609	21.522898
31154.400585	1147.410667	603.244141	24.916170
31154.400585	1147.410667	602.012695	-25.667143
31154.400585	1147.410667	600.780273	139.594437
31154.400585	1147.410667	599.548828	210.880295
31154.400585	1147.410667	598.316406	264.152069
31154.400585	1147.410667	597.083984	433.235443
31154.400585	1147.410667	595.851563	396.582733
31154.400585	1147.410667	594.618164	429.813599
31154.400585	1147.410667	593.384766	425.109619
31154.400585	1147.410667	592.151367	248.800125
31154.400585	1147.410667	590.917969	220.199829
31154.400585	1147.410667	589.683594	63.957672
31154.400585	1147.410667	588.449219	11.482789
31154.400585	1147.410667	587.214844	-100.777794
31154.400585	1147.410667	585.979492	-109.335258
31154.400585	1147.410667	584.745117	-52.114258
31154.400585	1147.410667	583.509766	-24.801455
31154.400585	1147.410667	582.273438	-43.312111
31154.400585	1147.410667	581.038086	1.927632
31154.400585	1147.410667	579.801758	29.233591
31154.400585	1147.410667	578.565430	16.721920
31154.400585	1147.410667	577.329102	26.119431
31154.400585	1147.410667	576.091797	31.541964
31154.400585	1147.410667	574.854492	34.984550
31154.400585	1147.410667	573.617188	90.154472
31154.400585	1147.410667	572.378906	6.105585
31154.400585	1147.410667	571.141602	91.108856
31154.400585	1147.410667	569.903320	-74.375702
31154.400585	1147.410667	568.664063	-78.797989
31154.400585	1147.410667	567.425781	10.187078
31154.400585	1147.410667	566.186523	-159.101028
31154.400585	1147.410667	564.947266	-56.201077
31154.400585	1147.410667	563.708008	78.443794
31154.400585	1147.410667	562.467773	-130.402496
31154.400585	1147.410667	561.227539	39.964870
31154.400585	1147.410667	559.987305	-87.382118
31154.400585	1147.410667	558.747070	-89.661514
31154.400585	1147.410667	557.505859	80.649925
31154.400585	1147.410667	556.264648	104.158775
31154.400585	1147.410667	555.023438	149.490723
31154.400585	1147.410667	553.781250	-58.908115
31154.400585	1147.410667	552.539063	14.232344
31154.400585	1147.410667	551.296875	31.886869
31154.400585	1147.410667	550.054688	25.787546
31154.400585	1147.410667	548.811523	-21.877253
31154.400585	1147.410667	547.569336	39.418011
31154.400585	1147.410667	546.325195	9.642035
31154.400585	1147.410667	545.082031	27.413752
31154.400585	1147.410667	543.837891	80.825661
31154.400585	1147.410667	542.593750	124.351669
31154.400585	1147.410667	541.349609	144.153473
31154.400585	1147.410667	540.105469	185.731613
31154.400585	1147.410667	538.860352	86.939590
31154.400585	1147.410667	537.615234	181.946960
31154.400585	1147.410667	536.369141	211.724945
31154.400585	1147.410667	535.124023	36.027424
31154.400585	1147.410667	533.877930	71.817329
31154.400585	1147.410667	532.631836	-78.032845
31154.400585	1147.410667	531.384766	-91.533775
31154.400585	1147.410667	530.138672	-4.305401
31154.400585	1147.410667	528.891602	23.704695
31154.400585	1147.410667	527.643555	14.242082
31154.400585	1147.410667	526.396484	-74.097099
31154.400585	1147.410667	525.148438	-14.422428
31154.400585	1147.410667	523.900391	-27.704529
31154.400585	1147.410667	522.652344	12.291736
31154.400585	1147.410667	521.403320	22.737865
31154.400585	1147.410667	520.154297	78.546867
31154.400585	1147.410667	518.905273	-58.732723
31154.400585	1147.410667	517.656250	-87.564613
31154.400585	1147.410667	516.406250	41.220284
31154.400585	1147.410667	515.156250	67.591370
31154.400585	1147.410667	513.906250	58.552628
31154.400585	1147.410667	512.655273	-17.367975
31154.400585	1147.410667	511.404297	-44.019566
31154.400585	1147.410667	510.153320	10.045094
31154.400585	1147.410667	508.902344	-4.720919
31154.400585	1147.410667	507.650391	63.154682
31154.400585	1147.410667	506.398438	-47.884521
31154.400585	1147.410667	505.146484	-40.890949
31154.400585	1147.410667	503.893555	87.989517
31154.400585	1147.410667	502.641602	14.465044
31154.400585	1147.410667	501.388672	-70.777977
31154.400585	1147.410667	500.134766	-59.707542
31154.400585	1147.410667	498.881836	-21.112377
31154.400585	1147.410667	497.627930	-178.822144
31154.400585	1147.410667	496.374023	-106.777618
31154.400585	1147.410667	495.119141	43.767296
31154.400585	1147.410667	493.865234	-149.062469
31154.400585	1147.410667	492.610352	117.229164
31154.400585	1147.410667	491.355469	67.697670
31154.400585	1147.410667	490.099609	2.534403
31154.400585	1147.410667	488.843750	-19.441151
31154.400585	1147.410667	487.587891	-15.896776
31154.400585	1147.410667	486.332031	56.257988
31154.400585	1147.410667	485.075195	69.640648
31154.400585	1147.410667	483.818359	167.267136
31154.400585	1147.410667	482.561523	137.598358
31154.400585	1147.410667	481.304688	100.139099
31154.400585	1147.410667	480.046875	129.270874
31154.400585	1147.410667	478.789063	134.932144
31154.400585	1147.410667	477.531250	74.094803
31154.400585	1147.410667	476.272461	289.111420
31154.400585	1147.410667	475.013672	298.713623
31154.400585	1147.410667	473.754883	312.241821
31154.400585	1147.410667	472.496094	212.403915
31154.400585	1147.410667	471.236328	403.828644
31154.400585	1147.410667	469.976563	329.447052
31154.400585	1147.410667	468.716797	466.093292
31154.400585	1147.410667	467.456055	319.489197
31154.400585	1147.410667	466.196289	362.370728
31154.400585	1147.410667	464.935547	272.486328
31154.400585	1147.410667	463.673828	311.467804
31154.400585	1147.410667	462.413086	178.710983
31154.400585	1147.410667	461.151367	262.574463
31154.400585	1147.410667	459.889648	283.981750
31154.400585	1147.410667	458.626953	262.472931
31154.400585	1147.410667	457.364258	266.313599
31154.400585	1147.410667	456.101563	221.411865
31154.400585	1147.410667	454.838867	227.189880
31154.400585	1147.410667	453.575195	211.517899
31154.400585	1147.410667	452.312500	232.849701
31154.400585	1147.410667	451.047852	250.256424
31154.400585	1147.410667	449.784180	213.111649
31154.400585	1147.410667	448.519531	263.562500
31154.400585	1147.410667	447.254883	273.088715
31154.400585	1147.410667	445.990234	175.551239
31154.400585	1147.410667	444.725586	41.054993
31154.400585	1147.410667	443.459961	200.288635
31154.400585	1147.410667	442.194336	312.738403
31154.400585	1147.410667	440.927734	271.493988
31154.400585	1147.410667	439.662109	224.386032
31154.400585	1147.410667	438.395508	301.622833
31154.400585	1147.410667	437.127930	178.635712
31154.400585	1147.410667	435.861328	259.611603
31154.400585	1147.410667	434.593750	152.093643
31154.400585	1147.410667	433.326172	232.899551
31154.400585	1147.410667	432.058594	179.642395
31154.400585	1147.410667	430.790039	293.243042
31154.400585	1147.410667	429.521484	315.505280
31154.400585	1147.410667	428.252930	430.789825
31154.400585	1147.410667	426.984375	210.368484
31154.400585	1147.410667	425.714844	313.789642
31154.400585	1147.410667	424.445313	380.221619
31154.400585	1147.410667	423.174805	198.395950
31154.400585	1147.410667	421.905273	152.189606
31154.400585	1147.410667	420.634766	222.129471
31154.400585	1147.410667	419.364258	175.679977
31154.400585	1147.410667	418.092773	258.871063
31154.400585	1147.410667	416.822266	252.815140
31154.400585	1147.410667	415.550781	205.956192
31154.400585	1147.410667	414.278320	207.344879
31154.400585	1147.410667	413.006836	142.779922
31154.400585	1147.410667	411.734375	294.746063
31154.400585	1147.410667	410.461914	241.444153
31154.400585	1147.410667	409.188477	162.837677
31154.400585	1147.410667	407.916016	283.210602
31154.400585	1147.410667	406.642578	264.156219
31154.400585	1147.410667	405.368164	314.468079
31154.400585	1147.410667	404.094727	449.556519
31154.400585	1147.410667	402.820313	277.222321
31154.400585	1147.410667	401.545898	220.604126
31154.400585	1147.410667	400.270508	443.734283
31154.400585	1147.410667	398.996094	380.819672
31154.400585	1147.410667	397.720703	406.446991
31154.400585	1147.410667	396.444336	406.704712
31154.400585	1147.410667	395.168945	414.404297
31154.400585	1147.410667	393.892578	174.928513
31154.400585	1147.410667	392.616211	369.129333
31154.400585	1147.410667	391.339844	266.040314
31154.400585	1147.410667	390.062500	178.091324
31154.400585	1147.410667	388.785156	459.845337
31154.400585	1147.410667	387.507813	338.469025
31154.400585	1147.410667	386.229492	295.761963
31154.400585	1147.410667	384.951172	302.780823
31154.400585	1147.410667	383.672852	240.108612
31154.400585	1147.410667	382.394531	263.701263
31154.400585	1147.410667	381.115234	271.481201
31154.400585	1147.410667	379.835938	198.033585
31154.400585	1147.410667	378.556641	278.091949
31154.400585	1147.410667	377.277344	199.970581
31154.400585	1147.410667	375.997070	213.723480
31154.400585	1147.410667	374.716797	257.767609
31154.400585	1147.410667	373.435547	305.151825
31154.400585	1147.410667	372.155273	367.409454
31154.400585	1147.410667	370.874023	225.479492
31154.400585	1147.410667	369.591797	94.607635
31154.400585	1147.410667	368.310547	264.768188
31154.400585	1147.410667	367.028320	238.462875
31154.400585	1147.410667	365.746094	42.688046
31154.400585	1147.410667	364.463867	245.596237
31154.400585	1147.410667	363.180664	209.891998
31154.400585	1147.410667	361.897461	217.714630
31154.400585	1147.410667	360.614258	50.383820
31154.400585	1147.410667	359.330078	150.910400
31154.400585	1147.410667	358.045898	158.716888
31154.400585	1147.410667	356.761719	83.429665
31154.400585	1147.410667	355.477539	70.715836
31154.400585	1147.410667	354.192383	9.385247
31154.400585	1147.410667	352.907227	77.595055
31154.400585	1147.410667	351.622070	76.089073
31154.400585	1147.410667	350.336914	91.047829
31154.400585	1147.410667	349.050781	76.483643
31154.400585	1147.410667	347.764648	-145.557678
31154.400585	1147.410667	346.477539	-98.578438
31154.400585	1147.410667	345.191406	41.283916
31154.400585	1147.410667	343.904297	216.533905
31154.400585	1147.410667	342.616211	-35.580616
31154.400585	1147.410667	341.329102	-5.556077
31154.400585	1147.410667	340.041016	8.212009
31154.400585	1147.410667	338.752930	76.433044
31154.400585	1147.410667	337.463867	9.900749
31154.400585	1147.410667	336.175781	64.659523
31154.400585	1147.410667	334.886719	-15.317841
31154.400585	1147.410667	333.596680	88.849388
31154.400585	1147.410667	332.307617	134.669037
31154.400585	1147.410667	331.017578	1.879555
31154.400585	1147.410667	329.727539	-51.840782
31154.400585	1147.410667	328.436523	-53.303211
31154.400585	1147.410667	327.146484	-94.043678
31154.400585	1147.410667	325.855469	-143.618668
31154.400585	1147.410667	324.563477	-160.115356
31154.400585	1147.410667	323.272461	68.022774
31154.400585	1147.410667	321.980469	-36.777668
31154.400585	1147.410667	320.688477	-116.167229
31154.400585	1147.410667	319.395508	-65.479271
31154.400585	1147.410667	318.103516	-176.080917
31154.400585	1147.410667	316.810547	14.624104
31154.400585	1147.410667	315.516602	-5.572007
31154.400585	1147.410667	314.223633	-110.894272
31154.400585	1147.410667	312.929688	-139.691101
31154.400585	1147.410667	311.635742	27.823523
31154.400585	1147.410667	310.340820	49.156620
31154.400585	1147.410667	309.045898	2.364022
31154.400585	1147.410667	307.750977	3.404840
31154.400585	1147.410667	306.456055	46.513607
31154.400585	1147.410667	305.160156	53.683773
31154.400585	1147.410667	303.865234	150.369675
31154.400585	1147.410667	302.568359	-26.401810
31154.400585	1147.410667	301.272461	275.548370
31154.400585	1147.410667	299.975586	330.623230
31154.400585	1147.410667	298.678711	338.277069
