#X		#Y		#Wave		#Intensity
-28870.512181	18717.195000	2000.043945	-85.218872
-28870.512181	18717.195000	1999.080078	-14.399582
-28870.512181	18717.195000	1998.116211	-35.629360
-28870.512181	18717.195000	1997.151367	181.043091
-28870.512181	18717.195000	1996.186523	95.342499
-28870.512181	18717.195000	1995.222656	165.720291
-28870.512181	18717.195000	1994.256836	20.584757
-28870.512181	18717.195000	1993.291992	-45.273670
-28870.512181	18717.195000	1992.327148	86.943115
-28870.512181	18717.195000	1991.361328	-233.900406
-28870.512181	18717.195000	1990.395508	118.539948
-28870.512181	18717.195000	1989.429688	97.184471
-28870.512181	18717.195000	1988.463867	80.766029
-28870.512181	18717.195000	1987.497070	-54.393841
-28870.512181	18717.195000	1986.531250	-169.742538
-28870.512181	18717.195000	1985.564453	298.478821
-28870.512181	18717.195000	1984.597656	131.152802
-28870.512181	18717.195000	1983.630859	258.002625
-28870.512181	18717.195000	1982.664063	283.461517
-28870.512181	18717.195000	1981.696289	-12.313055
-28870.512181	18717.195000	1980.728516	35.377125
-28870.512181	18717.195000	1979.761719	-5.892695
-28870.512181	18717.195000	1978.792969	-17.530174
-28870.512181	18717.195000	1977.825195	151.044632
-28870.512181	18717.195000	1976.857422	52.931713
-28870.512181	18717.195000	1975.888672	16.536606
-28870.512181	18717.195000	1974.919922	56.626144
-28870.512181	18717.195000	1973.951172	-11.877982
-28870.512181	18717.195000	1972.982422	8.418602
-28870.512181	18717.195000	1972.013672	13.885875
-28870.512181	18717.195000	1971.043945	6.999680
-28870.512181	18717.195000	1970.075195	184.985703
-28870.512181	18717.195000	1969.105469	67.101410
-28870.512181	18717.195000	1968.135742	60.133484
-28870.512181	18717.195000	1967.165039	21.114374
-28870.512181	18717.195000	1966.195313	233.354996
-28870.512181	18717.195000	1965.224609	157.321686
-28870.512181	18717.195000	1964.253906	-19.674320
-28870.512181	18717.195000	1963.283203	-41.517757
-28870.512181	18717.195000	1962.312500	-134.767197
-28870.512181	18717.195000	1961.341797	254.386978
-28870.512181	18717.195000	1960.370117	225.048447
-28870.512181	18717.195000	1959.399414	-45.414776
-28870.512181	18717.195000	1958.427734	-10.782719
-28870.512181	18717.195000	1957.455078	159.079407
-28870.512181	18717.195000	1956.483398	255.082794
-28870.512181	18717.195000	1955.511719	48.636791
-28870.512181	18717.195000	1954.539063	33.968021
-28870.512181	18717.195000	1953.566406	-2.838392
-28870.512181	18717.195000	1952.593750	213.422791
-28870.512181	18717.195000	1951.621094	196.200943
-28870.512181	18717.195000	1950.647461	112.646469
-28870.512181	18717.195000	1949.674805	-27.384661
-28870.512181	18717.195000	1948.701172	119.877892
-28870.512181	18717.195000	1947.727539	60.860283
-28870.512181	18717.195000	1946.753906	119.647682
-28870.512181	18717.195000	1945.780273	156.305740
-28870.512181	18717.195000	1944.805664	75.164452
-28870.512181	18717.195000	1943.831055	-10.875298
-28870.512181	18717.195000	1942.856445	-136.146271
-28870.512181	18717.195000	1941.881836	-35.804462
-28870.512181	18717.195000	1940.907227	-36.038105
-28870.512181	18717.195000	1939.932617	233.331787
-28870.512181	18717.195000	1938.957031	36.951492
-28870.512181	18717.195000	1937.981445	-56.467354
-28870.512181	18717.195000	1937.005859	26.510088
-28870.512181	18717.195000	1936.030273	67.797188
-28870.512181	18717.195000	1935.054688	94.354195
-28870.512181	18717.195000	1934.078125	196.784363
-28870.512181	18717.195000	1933.101563	-109.651749
-28870.512181	18717.195000	1932.125000	-17.052464
-28870.512181	18717.195000	1931.148438	77.938972
-28870.512181	18717.195000	1930.171875	177.769135
-28870.512181	18717.195000	1929.194336	116.100784
-28870.512181	18717.195000	1928.217773	132.696259
-28870.512181	18717.195000	1927.240234	93.028152
-28870.512181	18717.195000	1926.262695	-46.878117
-28870.512181	18717.195000	1925.284180	135.899872
-28870.512181	18717.195000	1924.306641	-6.441782
-28870.512181	18717.195000	1923.328125	-73.000916
-28870.512181	18717.195000	1922.350586	-22.293266
-28870.512181	18717.195000	1921.372070	174.928955
-28870.512181	18717.195000	1920.392578	-94.362282
-28870.512181	18717.195000	1919.414063	-180.454117
-28870.512181	18717.195000	1918.434570	9.317176
-28870.512181	18717.195000	1917.456055	25.713360
-28870.512181	18717.195000	1916.476563	212.904938
-28870.512181	18717.195000	1915.497070	243.867676
-28870.512181	18717.195000	1914.516602	316.273865
-28870.512181	18717.195000	1913.537109	-45.474991
-28870.512181	18717.195000	1912.556641	-138.879395
-28870.512181	18717.195000	1911.576172	-151.811157
-28870.512181	18717.195000	1910.595703	-91.627380
-28870.512181	18717.195000	1909.615234	29.445677
-28870.512181	18717.195000	1908.633789	-44.461777
-28870.512181	18717.195000	1907.653320	39.990417
-28870.512181	18717.195000	1906.671875	87.866035
-28870.512181	18717.195000	1905.690430	-178.427383
-28870.512181	18717.195000	1904.708984	73.965942
-28870.512181	18717.195000	1903.727539	102.299263
-28870.512181	18717.195000	1902.745117	245.003464
-28870.512181	18717.195000	1901.762695	5.604311
-28870.512181	18717.195000	1900.780273	-138.832474
-28870.512181	18717.195000	1899.797852	98.671936
-28870.512181	18717.195000	1898.815430	-65.204430
-28870.512181	18717.195000	1897.832031	4.402860
-28870.512181	18717.195000	1896.849609	-28.133593
-28870.512181	18717.195000	1895.866211	-82.541290
-28870.512181	18717.195000	1894.882813	57.479000
-28870.512181	18717.195000	1893.898438	32.217453
-28870.512181	18717.195000	1892.915039	264.459808
-28870.512181	18717.195000	1891.930664	-40.161160
-28870.512181	18717.195000	1890.947266	41.432304
-28870.512181	18717.195000	1889.962891	93.856331
-28870.512181	18717.195000	1888.977539	-125.621254
-28870.512181	18717.195000	1887.993164	-102.324028
-28870.512181	18717.195000	1887.007813	-149.411301
-28870.512181	18717.195000	1886.023438	177.131271
-28870.512181	18717.195000	1885.038086	120.295692
-28870.512181	18717.195000	1884.051758	14.972824
-28870.512181	18717.195000	1883.066406	113.360626
-28870.512181	18717.195000	1882.081055	92.915169
-28870.512181	18717.195000	1881.094727	208.209702
-28870.512181	18717.195000	1880.108398	-78.824669
-28870.512181	18717.195000	1879.122070	160.018356
-28870.512181	18717.195000	1878.135742	86.268288
-28870.512181	18717.195000	1877.148438	56.140915
-28870.512181	18717.195000	1876.162109	42.968990
-28870.512181	18717.195000	1875.174805	223.488541
-28870.512181	18717.195000	1874.187500	-164.916183
-28870.512181	18717.195000	1873.199219	-23.153467
-28870.512181	18717.195000	1872.211914	67.736427
-28870.512181	18717.195000	1871.223633	73.916222
-28870.512181	18717.195000	1870.236328	-4.570371
-28870.512181	18717.195000	1869.248047	-66.099701
-28870.512181	18717.195000	1868.258789	-132.443085
-28870.512181	18717.195000	1867.270508	-2.949383
-28870.512181	18717.195000	1866.282227	-49.949772
-28870.512181	18717.195000	1865.292969	-135.596725
-28870.512181	18717.195000	1864.303711	56.638542
-28870.512181	18717.195000	1863.314453	120.770821
-28870.512181	18717.195000	1862.324219	39.966957
-28870.512181	18717.195000	1861.334961	-19.077002
-28870.512181	18717.195000	1860.344727	201.960770
-28870.512181	18717.195000	1859.354492	12.559199
-28870.512181	18717.195000	1858.364258	69.395195
-28870.512181	18717.195000	1857.374023	-1.676640
-28870.512181	18717.195000	1856.383789	-183.698166
-28870.512181	18717.195000	1855.392578	-1.431285
-28870.512181	18717.195000	1854.401367	86.713280
-28870.512181	18717.195000	1853.410156	-68.698936
-28870.512181	18717.195000	1852.418945	101.388802
-28870.512181	18717.195000	1851.426758	90.647209
-28870.512181	18717.195000	1850.435547	-23.713072
-28870.512181	18717.195000	1849.443359	16.168777
-28870.512181	18717.195000	1848.451172	17.493336
-28870.512181	18717.195000	1847.458984	-7.674866
-28870.512181	18717.195000	1846.466797	29.773623
-28870.512181	18717.195000	1845.473633	98.506546
-28870.512181	18717.195000	1844.480469	-42.198391
-28870.512181	18717.195000	1843.487305	303.282898
-28870.512181	18717.195000	1842.494141	133.719986
-28870.512181	18717.195000	1841.500977	110.967438
-28870.512181	18717.195000	1840.506836	112.278900
-28870.512181	18717.195000	1839.513672	-102.842072
-28870.512181	18717.195000	1838.519531	-67.828621
-28870.512181	18717.195000	1837.525391	-1.577906
-28870.512181	18717.195000	1836.530273	26.195961
-28870.512181	18717.195000	1835.536133	169.301193
-28870.512181	18717.195000	1834.541016	163.398376
-28870.512181	18717.195000	1833.545898	234.364746
-28870.512181	18717.195000	1832.550781	127.586090
-28870.512181	18717.195000	1831.555664	54.463753
-28870.512181	18717.195000	1830.560547	0.576858
-28870.512181	18717.195000	1829.564453	93.127266
-28870.512181	18717.195000	1828.568359	-11.139627
-28870.512181	18717.195000	1827.572266	78.981247
-28870.512181	18717.195000	1826.576172	149.877579
-28870.512181	18717.195000	1825.580078	50.457539
-28870.512181	18717.195000	1824.583008	27.813616
-28870.512181	18717.195000	1823.585938	86.696060
-28870.512181	18717.195000	1822.588867	-46.211559
-28870.512181	18717.195000	1821.591797	218.776276
-28870.512181	18717.195000	1820.594727	81.102867
-28870.512181	18717.195000	1819.596680	-173.906876
-28870.512181	18717.195000	1818.599609	136.466293
-28870.512181	18717.195000	1817.601563	-125.641510
-28870.512181	18717.195000	1816.603516	21.789482
-28870.512181	18717.195000	1815.604492	42.289215
-28870.512181	18717.195000	1814.606445	57.992935
-28870.512181	18717.195000	1813.607422	114.373680
-28870.512181	18717.195000	1812.608398	-80.486313
-28870.512181	18717.195000	1811.609375	6.996870
-28870.512181	18717.195000	1810.610352	-70.577232
-28870.512181	18717.195000	1809.610352	-128.991180
-28870.512181	18717.195000	1808.611328	147.323837
-28870.512181	18717.195000	1807.611328	122.355507
-28870.512181	18717.195000	1806.611328	300.534637
-28870.512181	18717.195000	1805.610352	38.995697
-28870.512181	18717.195000	1804.610352	78.563301
-28870.512181	18717.195000	1803.609375	15.410686
-28870.512181	18717.195000	1802.608398	-66.823318
-28870.512181	18717.195000	1801.607422	194.788925
-28870.512181	18717.195000	1800.606445	100.615494
-28870.512181	18717.195000	1799.605469	163.999054
-28870.512181	18717.195000	1798.603516	244.062271
-28870.512181	18717.195000	1797.601563	-12.303076
-28870.512181	18717.195000	1796.599609	320.608948
-28870.512181	18717.195000	1795.597656	28.550201
-28870.512181	18717.195000	1794.595703	239.718796
-28870.512181	18717.195000	1793.592773	145.656357
-28870.512181	18717.195000	1792.589844	-55.632111
-28870.512181	18717.195000	1791.587891	-116.245056
-28870.512181	18717.195000	1790.583984	51.900555
-28870.512181	18717.195000	1789.581055	193.774170
-28870.512181	18717.195000	1788.577148	311.775513
-28870.512181	18717.195000	1787.574219	-13.190722
-28870.512181	18717.195000	1786.570313	97.658989
-28870.512181	18717.195000	1785.566406	60.879482
-28870.512181	18717.195000	1784.561523	107.410759
-28870.512181	18717.195000	1783.557617	42.084312
-28870.512181	18717.195000	1782.552734	188.515656
-28870.512181	18717.195000	1781.547852	-62.335114
-28870.512181	18717.195000	1780.542969	105.457657
-28870.512181	18717.195000	1779.538086	242.272736
-28870.512181	18717.195000	1778.532227	205.496414
-28870.512181	18717.195000	1777.527344	14.238505
-28870.512181	18717.195000	1776.521484	-127.045670
-28870.512181	18717.195000	1775.515625	9.696775
-28870.512181	18717.195000	1774.508789	110.753471
-28870.512181	18717.195000	1773.502930	12.268467
-28870.512181	18717.195000	1772.496094	-55.313717
-28870.512181	18717.195000	1771.489258	171.510025
-28870.512181	18717.195000	1770.482422	-147.689163
-28870.512181	18717.195000	1769.475586	-27.735640
-28870.512181	18717.195000	1768.467773	20.987282
-28870.512181	18717.195000	1767.460938	-167.541336
-28870.512181	18717.195000	1766.453125	14.000900
-28870.512181	18717.195000	1765.445313	43.702084
-28870.512181	18717.195000	1764.437500	241.720261
-28870.512181	18717.195000	1763.428711	-96.065186
-28870.512181	18717.195000	1762.420898	-14.237662
-28870.512181	18717.195000	1761.412109	169.446075
-28870.512181	18717.195000	1760.403320	130.356369
-28870.512181	18717.195000	1759.393555	88.908684
-28870.512181	18717.195000	1758.384766	87.728676
-28870.512181	18717.195000	1757.375000	6.039017
-28870.512181	18717.195000	1756.366211	21.433149
-28870.512181	18717.195000	1755.356445	252.199173
-28870.512181	18717.195000	1754.345703	106.613274
-28870.512181	18717.195000	1753.335938	-15.266220
-28870.512181	18717.195000	1752.325195	-37.754765
-28870.512181	18717.195000	1751.315430	84.025314
-28870.512181	18717.195000	1750.304688	-104.010010
-28870.512181	18717.195000	1749.292969	-119.398026
-28870.512181	18717.195000	1748.282227	-75.695572
-28870.512181	18717.195000	1747.270508	138.136322
-28870.512181	18717.195000	1746.259766	47.075996
-28870.512181	18717.195000	1745.248047	-43.955772
-28870.512181	18717.195000	1744.235352	25.648272
-28870.512181	18717.195000	1743.223633	149.529617
-28870.512181	18717.195000	1742.211914	112.806755
-28870.512181	18717.195000	1741.199219	26.518105
-28870.512181	18717.195000	1740.186523	-26.705103
-28870.512181	18717.195000	1739.173828	-138.908905
-28870.512181	18717.195000	1738.160156	-41.108624
-28870.512181	18717.195000	1737.147461	-2.324788
-28870.512181	18717.195000	1736.133789	-159.303757
-28870.512181	18717.195000	1735.120117	115.253731
-28870.512181	18717.195000	1734.106445	76.162971
-28870.512181	18717.195000	1733.091797	230.348053
-28870.512181	18717.195000	1732.078125	186.516083
-28870.512181	18717.195000	1731.063477	-104.692665
-28870.512181	18717.195000	1730.048828	-25.972027
-28870.512181	18717.195000	1729.034180	208.147583
-28870.512181	18717.195000	1728.019531	-57.029243
-28870.512181	18717.195000	1727.003906	-173.796265
-28870.512181	18717.195000	1725.988281	154.338272
-28870.512181	18717.195000	1724.972656	169.341049
-28870.512181	18717.195000	1723.957031	-55.668915
-28870.512181	18717.195000	1722.941406	58.148132
-28870.512181	18717.195000	1721.924805	-30.359991
-28870.512181	18717.195000	1720.909180	-156.471283
-28870.512181	18717.195000	1719.892578	267.610596
-28870.512181	18717.195000	1718.875977	-60.687981
-28870.512181	18717.195000	1717.858398	142.273758
-28870.512181	18717.195000	1716.841797	190.059692
-28870.512181	18717.195000	1715.824219	-135.720428
-28870.512181	18717.195000	1714.806641	-24.503458
-28870.512181	18717.195000	1713.789063	13.858960
-28870.512181	18717.195000	1712.770508	14.627656
-28870.512181	18717.195000	1711.752930	240.743607
-28870.512181	18717.195000	1710.734375	112.355492
-28870.512181	18717.195000	1709.715820	-15.994928
-28870.512181	18717.195000	1708.697266	78.575081
-28870.512181	18717.195000	1707.678711	133.218765
-28870.512181	18717.195000	1706.659180	77.603149
-28870.512181	18717.195000	1705.640625	-163.243713
-28870.512181	18717.195000	1704.621094	-129.722092
-28870.512181	18717.195000	1703.600586	138.164993
-28870.512181	18717.195000	1702.581055	-55.724262
-28870.512181	18717.195000	1701.561523	-36.339050
-28870.512181	18717.195000	1700.541016	15.821585
-28870.512181	18717.195000	1699.520508	-121.761986
-28870.512181	18717.195000	1698.500000	124.725616
-28870.512181	18717.195000	1697.478516	94.843918
-28870.512181	18717.195000	1696.458008	102.412224
-28870.512181	18717.195000	1695.436523	184.853317
-28870.512181	18717.195000	1694.415039	178.336121
-28870.512181	18717.195000	1693.393555	50.157486
-28870.512181	18717.195000	1692.372070	22.589842
-28870.512181	18717.195000	1691.349609	-112.550507
-28870.512181	18717.195000	1690.327148	287.760895
-28870.512181	18717.195000	1689.304688	-64.803139
-28870.512181	18717.195000	1688.282227	82.905846
-28870.512181	18717.195000	1687.259766	204.839981
-28870.512181	18717.195000	1686.236328	-5.034100
-28870.512181	18717.195000	1685.213867	119.178421
-28870.512181	18717.195000	1684.190430	163.927429
-28870.512181	18717.195000	1683.166016	19.519543
-28870.512181	18717.195000	1682.142578	241.661163
-28870.512181	18717.195000	1681.119141	41.249603
-28870.512181	18717.195000	1680.094727	-16.751486
-28870.512181	18717.195000	1679.070313	104.905182
-28870.512181	18717.195000	1678.045898	263.823151
-28870.512181	18717.195000	1677.020508	238.423065
-28870.512181	18717.195000	1675.996094	245.662521
-28870.512181	18717.195000	1674.970703	-66.502960
-28870.512181	18717.195000	1673.945313	82.948418
-28870.512181	18717.195000	1672.919922	143.772552
-28870.512181	18717.195000	1671.893555	188.251373
-28870.512181	18717.195000	1670.868164	179.118988
-28870.512181	18717.195000	1669.841797	62.840584
-28870.512181	18717.195000	1668.815430	277.256378
-28870.512181	18717.195000	1667.789063	181.929916
-28870.512181	18717.195000	1666.761719	42.400917
-28870.512181	18717.195000	1665.735352	333.456299
-28870.512181	18717.195000	1664.708008	-55.044250
-28870.512181	18717.195000	1663.680664	159.121368
-28870.512181	18717.195000	1662.653320	187.117294
-28870.512181	18717.195000	1661.625000	68.585739
-28870.512181	18717.195000	1660.597656	184.912430
-28870.512181	18717.195000	1659.569336	124.515495
-28870.512181	18717.195000	1658.541016	108.286095
-28870.512181	18717.195000	1657.512695	201.263382
-28870.512181	18717.195000	1656.483398	89.748703
-28870.512181	18717.195000	1655.455078	333.647461
-28870.512181	18717.195000	1654.425781	433.456757
-28870.512181	18717.195000	1653.396484	319.602020
-28870.512181	18717.195000	1652.366211	182.565247
-28870.512181	18717.195000	1651.336914	293.913055
-28870.512181	18717.195000	1650.306641	282.217682
-28870.512181	18717.195000	1649.276367	238.033554
-28870.512181	18717.195000	1648.246094	135.864639
-28870.512181	18717.195000	1647.215820	427.983551
-28870.512181	18717.195000	1646.185547	237.681442
-28870.512181	18717.195000	1645.154297	443.867981
-28870.512181	18717.195000	1644.123047	334.738251
-28870.512181	18717.195000	1643.091797	281.256226
-28870.512181	18717.195000	1642.060547	573.007019
-28870.512181	18717.195000	1641.028320	510.211823
-28870.512181	18717.195000	1639.997070	514.594727
-28870.512181	18717.195000	1638.964844	336.034485
-28870.512181	18717.195000	1637.931641	419.142517
-28870.512181	18717.195000	1636.899414	509.152802
-28870.512181	18717.195000	1635.867188	437.120422
-28870.512181	18717.195000	1634.833984	372.047852
-28870.512181	18717.195000	1633.800781	385.643890
-28870.512181	18717.195000	1632.767578	304.396057
-28870.512181	18717.195000	1631.734375	385.040863
-28870.512181	18717.195000	1630.700195	259.877533
-28870.512181	18717.195000	1629.666016	439.878693
-28870.512181	18717.195000	1628.631836	261.579620
-28870.512181	18717.195000	1627.597656	374.482544
-28870.512181	18717.195000	1626.563477	413.406921
-28870.512181	18717.195000	1625.528320	602.442078
-28870.512181	18717.195000	1624.493164	498.112335
-28870.512181	18717.195000	1623.458008	569.289063
-28870.512181	18717.195000	1622.422852	525.009583
-28870.512181	18717.195000	1621.387695	513.051392
-28870.512181	18717.195000	1620.351563	415.711761
-28870.512181	18717.195000	1619.315430	496.046448
-28870.512181	18717.195000	1618.279297	341.068329
-28870.512181	18717.195000	1617.243164	555.130127
-28870.512181	18717.195000	1616.207031	517.779053
-28870.512181	18717.195000	1615.169922	584.172546
-28870.512181	18717.195000	1614.132813	629.791321
-28870.512181	18717.195000	1613.095703	580.906006
-28870.512181	18717.195000	1612.058594	743.995422
-28870.512181	18717.195000	1611.020508	563.798157
-28870.512181	18717.195000	1609.983398	584.029053
-28870.512181	18717.195000	1608.945313	583.523621
-28870.512181	18717.195000	1607.907227	757.975281
-28870.512181	18717.195000	1606.868164	791.952820
-28870.512181	18717.195000	1605.830078	888.044128
-28870.512181	18717.195000	1604.791016	744.814087
-28870.512181	18717.195000	1603.751953	912.180847
-28870.512181	18717.195000	1602.712891	923.086121
-28870.512181	18717.195000	1601.673828	862.702026
-28870.512181	18717.195000	1600.633789	880.503540
-28870.512181	18717.195000	1599.594727	684.530701
-28870.512181	18717.195000	1598.554688	729.932556
-28870.512181	18717.195000	1597.513672	821.265869
-28870.512181	18717.195000	1596.473633	951.614807
-28870.512181	18717.195000	1595.433594	693.760986
-28870.512181	18717.195000	1594.392578	925.117859
-28870.512181	18717.195000	1593.351563	525.025391
-28870.512181	18717.195000	1592.310547	609.416626
-28870.512181	18717.195000	1591.268555	650.171753
-28870.512181	18717.195000	1590.227539	397.213684
-28870.512181	18717.195000	1589.185547	421.934570
-28870.512181	18717.195000	1588.143555	669.126587
-28870.512181	18717.195000	1587.100586	755.701294
-28870.512181	18717.195000	1586.058594	736.777893
-28870.512181	18717.195000	1585.015625	823.308044
-28870.512181	18717.195000	1583.972656	705.834961
-28870.512181	18717.195000	1582.929688	657.149963
-28870.512181	18717.195000	1581.886719	755.104980
-28870.512181	18717.195000	1580.843750	481.968719
-28870.512181	18717.195000	1579.799805	669.234924
-28870.512181	18717.195000	1578.755859	508.417389
-28870.512181	18717.195000	1577.711914	494.169769
-28870.512181	18717.195000	1576.666992	404.405609
-28870.512181	18717.195000	1575.623047	557.232422
-28870.512181	18717.195000	1574.578125	268.463196
-28870.512181	18717.195000	1573.533203	444.139252
-28870.512181	18717.195000	1572.488281	532.849731
-28870.512181	18717.195000	1571.443359	415.752167
-28870.512181	18717.195000	1570.397461	438.151764
-28870.512181	18717.195000	1569.351563	446.834808
-28870.512181	18717.195000	1568.305664	284.140533
-28870.512181	18717.195000	1567.259766	484.772369
-28870.512181	18717.195000	1566.213867	290.169128
-28870.512181	18717.195000	1565.166992	552.397766
-28870.512181	18717.195000	1564.120117	234.575577
-28870.512181	18717.195000	1563.073242	295.837708
-28870.512181	18717.195000	1562.026367	379.908112
-28870.512181	18717.195000	1560.978516	530.131104
-28870.512181	18717.195000	1559.930664	458.998993
-28870.512181	18717.195000	1558.883789	230.510895
-28870.512181	18717.195000	1557.834961	428.596619
-28870.512181	18717.195000	1556.787109	352.995026
-28870.512181	18717.195000	1555.739258	327.587524
-28870.512181	18717.195000	1554.690430	350.066223
-28870.512181	18717.195000	1553.641602	224.424286
-28870.512181	18717.195000	1552.592773	269.719696
-28870.512181	18717.195000	1551.542969	283.119171
-28870.512181	18717.195000	1550.494141	378.514984
-28870.512181	18717.195000	1549.444336	212.028229
-28870.512181	18717.195000	1548.394531	195.873795
-28870.512181	18717.195000	1547.344727	309.478790
-28870.512181	18717.195000	1546.293945	197.760925
-28870.512181	18717.195000	1545.244141	252.191483
-28870.512181	18717.195000	1544.193359	231.548920
-28870.512181	18717.195000	1543.142578	201.831268
-28870.512181	18717.195000	1542.090820	292.657471
-28870.512181	18717.195000	1541.040039	-30.302094
-28870.512181	18717.195000	1539.988281	271.951874
-28870.512181	18717.195000	1538.936523	210.498367
-28870.512181	18717.195000	1537.884766	439.911957
-28870.512181	18717.195000	1536.833008	271.715454
-28870.512181	18717.195000	1535.780273	158.111893
-28870.512181	18717.195000	1534.727539	301.164612
-28870.512181	18717.195000	1533.674805	317.041870
-28870.512181	18717.195000	1532.622070	108.217712
-28870.512181	18717.195000	1531.569336	155.936584
-28870.512181	18717.195000	1530.515625	430.550049
-28870.512181	18717.195000	1529.461914	233.227829
-28870.512181	18717.195000	1528.408203	49.610825
-28870.512181	18717.195000	1527.354492	228.903519
-28870.512181	18717.195000	1526.299805	204.103058
-28870.512181	18717.195000	1525.246094	109.063843
-28870.512181	18717.195000	1524.191406	116.066963
-28870.512181	18717.195000	1523.136719	288.491913
-28870.512181	18717.195000	1522.081055	71.229515
-28870.512181	18717.195000	1521.026367	191.547058
-28870.512181	18717.195000	1519.970703	51.426971
-28870.512181	18717.195000	1518.915039	-190.495453
-28870.512181	18717.195000	1517.859375	104.167809
-28870.512181	18717.195000	1516.802734	267.478546
-28870.512181	18717.195000	1515.747070	82.294693
-28870.512181	18717.195000	1514.690430	170.939682
-28870.512181	18717.195000	1513.633789	92.203003
-28870.512181	18717.195000	1512.577148	-2.307601
-28870.512181	18717.195000	1511.519531	192.639694
-28870.512181	18717.195000	1510.461914	41.688766
-28870.512181	18717.195000	1509.405273	-59.457027
-28870.512181	18717.195000	1508.346680	-83.710144
-28870.512181	18717.195000	1507.289063	-65.004166
-28870.512181	18717.195000	1506.231445	-145.658966
-28870.512181	18717.195000	1505.172852	87.635529
-28870.512181	18717.195000	1504.114258	49.936146
-28870.512181	18717.195000	1503.055664	-222.478485
-28870.512181	18717.195000	1501.996094	-106.577492
-28870.512181	18717.195000	1500.937500	-220.847427
-28870.512181	18717.195000	1499.877930	-213.220001
-28870.512181	18717.195000	1498.818359	148.548950
-28870.512181	18717.195000	1497.757813	-247.494949
-28870.512181	18717.195000	1496.698242	-165.373627
-28870.512181	18717.195000	1495.637695	-65.220741
-28870.512181	18717.195000	1494.577148	93.520264
-28870.512181	18717.195000	1493.516602	-18.162031
-28870.512181	18717.195000	1492.456055	-77.953850
-28870.512181	18717.195000	1491.394531	-27.322107
-28870.512181	18717.195000	1490.333008	61.604080
-28870.512181	18717.195000	1489.271484	8.684378
-28870.512181	18717.195000	1488.209961	36.856571
-28870.512181	18717.195000	1487.148438	-33.975731
-28870.512181	18717.195000	1486.085938	-61.991207
-28870.512181	18717.195000	1485.023438	-17.972469
-28870.512181	18717.195000	1483.960938	-16.672163
-28870.512181	18717.195000	1482.898438	182.555496
-28870.512181	18717.195000	1481.834961	199.624710
-28870.512181	18717.195000	1480.772461	-17.055750
-28870.512181	18717.195000	1479.708984	-92.009277
-28870.512181	18717.195000	1478.644531	69.012535
-28870.512181	18717.195000	1477.581055	45.812771
-28870.512181	18717.195000	1476.517578	-42.467743
-28870.512181	18717.195000	1475.453125	152.245544
-28870.512181	18717.195000	1474.388672	88.776131
-28870.512181	18717.195000	1473.323242	-51.006466
-28870.512181	18717.195000	1472.258789	226.809875
-28870.512181	18717.195000	1471.193359	64.655388
-28870.512181	18717.195000	1470.127930	126.921799
-28870.512181	18717.195000	1469.062500	155.772415
-28870.512181	18717.195000	1467.997070	193.423294
-28870.512181	18717.195000	1466.930664	268.946320
-28870.512181	18717.195000	1465.865234	67.341049
-28870.512181	18717.195000	1464.798828	183.446335
-28870.512181	18717.195000	1463.731445	272.812317
-28870.512181	18717.195000	1462.665039	162.638519
-28870.512181	18717.195000	1461.597656	301.405609
-28870.512181	18717.195000	1460.530273	323.563538
-28870.512181	18717.195000	1459.462891	334.770721
-28870.512181	18717.195000	1458.395508	330.228546
-28870.512181	18717.195000	1457.327148	321.036499
-28870.512181	18717.195000	1456.259766	291.793091
-28870.512181	18717.195000	1455.191406	419.112213
-28870.512181	18717.195000	1454.123047	356.287292
-28870.512181	18717.195000	1453.053711	367.433685
-28870.512181	18717.195000	1451.985352	336.771545
-28870.512181	18717.195000	1450.916016	243.286179
-28870.512181	18717.195000	1449.846680	296.747467
-28870.512181	18717.195000	1448.776367	221.483688
-28870.512181	18717.195000	1447.707031	152.733322
-28870.512181	18717.195000	1446.636719	392.690948
-28870.512181	18717.195000	1445.566406	133.883041
-28870.512181	18717.195000	1444.496094	165.100815
-28870.512181	18717.195000	1443.425781	192.267258
-28870.512181	18717.195000	1442.354492	57.351509
-28870.512181	18717.195000	1441.283203	69.085983
-28870.512181	18717.195000	1440.211914	209.178833
-28870.512181	18717.195000	1439.140625	68.155563
-28870.512181	18717.195000	1438.069336	187.639374
-28870.512181	18717.195000	1436.997070	-53.308605
-28870.512181	18717.195000	1435.924805	-7.995271
-28870.512181	18717.195000	1434.852539	-53.352139
-28870.512181	18717.195000	1433.780273	-10.315612
-28870.512181	18717.195000	1432.707031	9.035934
-28870.512181	18717.195000	1431.633789	161.408127
-28870.512181	18717.195000	1430.560547	-39.186226
-28870.512181	18717.195000	1429.487305	110.510780
-28870.512181	18717.195000	1428.413086	78.208038
-28870.512181	18717.195000	1427.339844	96.063286
-28870.512181	18717.195000	1426.265625	6.406353
-28870.512181	18717.195000	1425.191406	-12.864052
-28870.512181	18717.195000	1424.116211	-46.978344
-28870.512181	18717.195000	1423.041992	-57.719555
-28870.512181	18717.195000	1421.966797	16.162371
-28870.512181	18717.195000	1420.891602	58.253464
-28870.512181	18717.195000	1419.816406	-67.025314
-28870.512181	18717.195000	1418.740234	-112.925674
-28870.512181	18717.195000	1417.665039	230.084335
-28870.512181	18717.195000	1416.588867	155.322540
-28870.512181	18717.195000	1415.512695	-149.926025
-28870.512181	18717.195000	1414.435547	-31.496906
-28870.512181	18717.195000	1413.359375	112.086800
-28870.512181	18717.195000	1412.282227	108.875671
-28870.512181	18717.195000	1411.205078	-162.625717
-28870.512181	18717.195000	1410.127930	27.243759
-28870.512181	18717.195000	1409.049805	-239.197922
-28870.512181	18717.195000	1407.972656	142.563797
-28870.512181	18717.195000	1406.894531	-0.136899
-28870.512181	18717.195000	1405.816406	153.053909
-28870.512181	18717.195000	1404.737305	33.259026
-28870.512181	18717.195000	1403.659180	183.671371
-28870.512181	18717.195000	1402.580078	165.186951
-28870.512181	18717.195000	1401.500977	197.403656
-28870.512181	18717.195000	1400.421875	73.709167
-28870.512181	18717.195000	1399.341797	319.749908
-28870.512181	18717.195000	1398.262695	297.647064
-28870.512181	18717.195000	1397.182617	278.335114
-28870.512181	18717.195000	1396.102539	-17.068722
-28870.512181	18717.195000	1395.021484	357.651428
-28870.512181	18717.195000	1393.941406	57.183815
-28870.512181	18717.195000	1392.860352	148.597015
-28870.512181	18717.195000	1391.779297	411.471893
-28870.512181	18717.195000	1390.698242	21.194153
-28870.512181	18717.195000	1389.616211	57.979874
-28870.512181	18717.195000	1388.535156	173.300995
-28870.512181	18717.195000	1387.453125	171.418915
-28870.512181	18717.195000	1386.371094	60.521690
-28870.512181	18717.195000	1385.288086	190.184937
-28870.512181	18717.195000	1384.206055	172.191757
-28870.512181	18717.195000	1383.123047	219.003098
-28870.512181	18717.195000	1382.040039	252.584152
-28870.512181	18717.195000	1380.957031	120.374275
-28870.512181	18717.195000	1379.873047	92.766647
-28870.512181	18717.195000	1378.789063	287.726349
-28870.512181	18717.195000	1377.705078	186.980804
-28870.512181	18717.195000	1376.621094	44.513283
-28870.512181	18717.195000	1375.537109	282.770905
-28870.512181	18717.195000	1374.452148	171.692001
-28870.512181	18717.195000	1373.367188	-0.967593
-28870.512181	18717.195000	1372.282227	292.497040
-28870.512181	18717.195000	1371.197266	313.782074
-28870.512181	18717.195000	1370.112305	352.877594
-28870.512181	18717.195000	1369.026367	418.213257
-28870.512181	18717.195000	1367.940430	408.380646
-28870.512181	18717.195000	1366.854492	166.077835
-28870.512181	18717.195000	1365.767578	-2.787846
-28870.512181	18717.195000	1364.681641	159.782928
-28870.512181	18717.195000	1363.594727	322.857941
-28870.512181	18717.195000	1362.507813	266.337158
-28870.512181	18717.195000	1361.419922	88.378967
-28870.512181	18717.195000	1360.333008	443.270508
-28870.512181	18717.195000	1359.245117	230.074921
-28870.512181	18717.195000	1358.157227	315.257446
-28870.512181	18717.195000	1357.069336	97.373520
-28870.512181	18717.195000	1355.981445	333.031342
-28870.512181	18717.195000	1354.892578	292.834869
-28870.512181	18717.195000	1353.803711	188.199310
-28870.512181	18717.195000	1352.714844	89.975052
-28870.512181	18717.195000	1351.625000	119.003441
-28870.512181	18717.195000	1350.536133	195.058136
-28870.512181	18717.195000	1349.446289	69.808456
-28870.512181	18717.195000	1348.356445	112.864716
-28870.512181	18717.195000	1347.266602	173.293076
-28870.512181	18717.195000	1346.175781	-46.577625
-28870.512181	18717.195000	1345.085938	50.123531
-28870.512181	18717.195000	1343.995117	39.888474
-28870.512181	18717.195000	1342.903320	53.911388
-28870.512181	18717.195000	1341.812500	180.854950
-28870.512181	18717.195000	1340.720703	214.456421
-28870.512181	18717.195000	1339.629883	273.923248
-28870.512181	18717.195000	1338.538086	40.592415
-28870.512181	18717.195000	1337.445313	46.780163
-28870.512181	18717.195000	1336.353516	-116.126587
-28870.512181	18717.195000	1335.260742	39.259148
-28870.512181	18717.195000	1334.167969	10.421195
-28870.512181	18717.195000	1333.075195	150.927612
-28870.512181	18717.195000	1331.981445	283.983643
-28870.512181	18717.195000	1330.888672	123.545120
-28870.512181	18717.195000	1329.794922	121.143944
-28870.512181	18717.195000	1328.701172	235.681686
-28870.512181	18717.195000	1327.606445	64.933029
-28870.512181	18717.195000	1326.512695	3.222717
-28870.512181	18717.195000	1325.417969	146.044754
-28870.512181	18717.195000	1324.323242	308.900208
-28870.512181	18717.195000	1323.227539	119.132225
-28870.512181	18717.195000	1322.132813	142.817230
-28870.512181	18717.195000	1321.037109	94.713150
-28870.512181	18717.195000	1319.941406	140.079697
-28870.512181	18717.195000	1318.845703	142.857910
-28870.512181	18717.195000	1317.750000	73.301384
-28870.512181	18717.195000	1316.653320	186.210434
-28870.512181	18717.195000	1315.556641	168.822159
-28870.512181	18717.195000	1314.459961	114.341316
-28870.512181	18717.195000	1313.363281	-18.138727
-28870.512181	18717.195000	1312.265625	189.458832
-28870.512181	18717.195000	1311.167969	233.988159
-28870.512181	18717.195000	1310.070313	22.856134
-28870.512181	18717.195000	1308.972656	187.248886
-28870.512181	18717.195000	1307.874023	233.661301
-28870.512181	18717.195000	1306.776367	186.551758
-28870.512181	18717.195000	1305.677734	151.637909
-28870.512181	18717.195000	1304.579102	295.607758
-28870.512181	18717.195000	1303.479492	116.271652
-28870.512181	18717.195000	1302.380859	166.280182
-28870.512181	18717.195000	1301.281250	62.121685
-28870.512181	18717.195000	1300.181641	100.042633
-28870.512181	18717.195000	1299.081055	247.052704
-28870.512181	18717.195000	1297.981445	122.898949
-28870.512181	18717.195000	1296.880859	111.126526
-28870.512181	18717.195000	1295.780273	48.897808
-28870.512181	18717.195000	1294.679688	150.199692
-28870.512181	18717.195000	1293.578125	108.637688
-28870.512181	18717.195000	1292.476563	117.141632
-28870.512181	18717.195000	1291.375000	191.391800
-28870.512181	18717.195000	1290.273438	261.719788
-28870.512181	18717.195000	1289.171875	-61.638489
-28870.512181	18717.195000	1288.069336	180.427444
-28870.512181	18717.195000	1286.966797	145.412766
-28870.512181	18717.195000	1285.864258	233.756500
-28870.512181	18717.195000	1284.761719	25.363487
-28870.512181	18717.195000	1283.658203	68.374550
-28870.512181	18717.195000	1282.554688	70.815041
-28870.512181	18717.195000	1281.451172	81.525352
-28870.512181	18717.195000	1280.347656	-1.978352
-28870.512181	18717.195000	1279.244141	151.551544
-28870.512181	18717.195000	1278.139648	-40.660088
-28870.512181	18717.195000	1277.035156	7.075103
-28870.512181	18717.195000	1275.930664	118.600418
-28870.512181	18717.195000	1274.825195	104.320480
-28870.512181	18717.195000	1273.720703	-46.623112
-28870.512181	18717.195000	1272.615234	-144.696060
-28870.512181	18717.195000	1271.508789	27.076811
-28870.512181	18717.195000	1270.403320	-25.926643
-28870.512181	18717.195000	1269.297852	-33.334999
-28870.512181	18717.195000	1268.191406	-9.953518
-28870.512181	18717.195000	1267.084961	-161.580353
-28870.512181	18717.195000	1265.977539	-123.942612
-28870.512181	18717.195000	1264.871094	-99.180183
-28870.512181	18717.195000	1263.763672	-97.319107
-28870.512181	18717.195000	1262.656250	-125.180046
-28870.512181	18717.195000	1261.548828	-119.250771
-28870.512181	18717.195000	1260.440430	-85.482941
-28870.512181	18717.195000	1259.333008	3.164092
-28870.512181	18717.195000	1258.224609	29.347019
-28870.512181	18717.195000	1257.115234	-122.336937
-28870.512181	18717.195000	1256.006836	7.009275
-28870.512181	18717.195000	1254.897461	-128.358002
-28870.512181	18717.195000	1253.788086	-100.944092
-28870.512181	18717.195000	1252.678711	-159.364700
-28870.512181	18717.195000	1251.569336	22.128759
-28870.512181	18717.195000	1250.458984	-21.877254
-28870.512181	18717.195000	1249.349609	-102.060982
-28870.512181	18717.195000	1248.239258	-142.207001
-28870.512181	18717.195000	1247.127930	-48.349941
-28870.512181	18717.195000	1246.017578	-155.658310
-28870.512181	18717.195000	1244.906250	-110.195961
-28870.512181	18717.195000	1243.794922	21.163555
-28870.512181	18717.195000	1242.683594	-1.557763
-28870.512181	18717.195000	1241.571289	-267.038055
-28870.512181	18717.195000	1240.459961	-50.709526
-28870.512181	18717.195000	1239.347656	-30.491474
-28870.512181	18717.195000	1238.234375	-33.905823
-28870.512181	18717.195000	1237.122070	-132.888748
-28870.512181	18717.195000	1236.008789	44.655174
-28870.512181	18717.195000	1234.896484	-114.730759
-28870.512181	18717.195000	1233.782227	-159.769394
-28870.512181	18717.195000	1232.668945	-39.690945
-28870.512181	18717.195000	1231.555664	-9.820003
-28870.512181	18717.195000	1230.441406	-186.964554
-28870.512181	18717.195000	1229.327148	-71.891747
-28870.512181	18717.195000	1228.211914	42.810165
-28870.512181	18717.195000	1227.097656	-190.986404
-28870.512181	18717.195000	1225.982422	-14.677262
-28870.512181	18717.195000	1224.867188	-40.848866
-28870.512181	18717.195000	1223.751953	-200.921600
-28870.512181	18717.195000	1222.635742	-107.943680
-28870.512181	18717.195000	1221.520508	-117.151077
-28870.512181	18717.195000	1220.404297	-46.606586
-28870.512181	18717.195000	1219.287109	-92.936646
-28870.512181	18717.195000	1218.170898	-122.428932
-28870.512181	18717.195000	1217.053711	36.477741
-28870.512181	18717.195000	1215.936523	33.262363
-28870.512181	18717.195000	1214.819336	93.973328
-28870.512181	18717.195000	1213.702148	66.546707
-28870.512181	18717.195000	1212.583984	77.918617
-28870.512181	18717.195000	1211.465820	105.570038
-28870.512181	18717.195000	1210.347656	-6.519019
-28870.512181	18717.195000	1209.229492	-72.567726
-28870.512181	18717.195000	1208.110352	81.140289
-28870.512181	18717.195000	1206.992188	47.767666
-28870.512181	18717.195000	1205.873047	31.646975
-28870.512181	18717.195000	1204.752930	111.113708
-28870.512181	18717.195000	1203.633789	-23.870604
-28870.512181	18717.195000	1202.513672	98.107620
-28870.512181	18717.195000	1201.393555	126.639778
-28870.512181	18717.195000	1200.273438	153.833862
-28870.512181	18717.195000	1199.152344	8.534088
-28870.512181	18717.195000	1198.032227	-42.973663
-28870.512181	18717.195000	1196.911133	12.941863
-28870.512181	18717.195000	1195.790039	-8.264585
-28870.512181	18717.195000	1194.667969	17.881077
-28870.512181	18717.195000	1193.545898	73.527954
-28870.512181	18717.195000	1192.424805	160.686539
-28870.512181	18717.195000	1191.301758	-137.884247
-28870.512181	18717.195000	1190.179688	22.795143
-28870.512181	18717.195000	1189.056641	-99.880516
-28870.512181	18717.195000	1187.933594	67.119804
-28870.512181	18717.195000	1186.810547	-113.628120
-28870.512181	18717.195000	1185.687500	-42.716461
-28870.512181	18717.195000	1184.563477	91.686180
-28870.512181	18717.195000	1183.440430	17.545732
-28870.512181	18717.195000	1182.316406	84.053688
-28870.512181	18717.195000	1181.191406	50.896160
-28870.512181	18717.195000	1180.067383	43.974716
-28870.512181	18717.195000	1178.942383	77.038383
-28870.512181	18717.195000	1177.817383	12.904481
-28870.512181	18717.195000	1176.692383	11.549216
-28870.512181	18717.195000	1175.566406	-24.007645
-28870.512181	18717.195000	1174.440430	88.465347
-28870.512181	18717.195000	1173.314453	168.166077
-28870.512181	18717.195000	1172.188477	70.691856
-28870.512181	18717.195000	1171.062500	90.807007
-28870.512181	18717.195000	1169.935547	66.366173
-28870.512181	18717.195000	1168.808594	-17.153004
-28870.512181	18717.195000	1167.681641	26.819468
-28870.512181	18717.195000	1166.553711	131.112793
-28870.512181	18717.195000	1165.426758	18.617371
-28870.512181	18717.195000	1164.298828	34.998764
-28870.512181	18717.195000	1163.170898	42.735710
-28870.512181	18717.195000	1162.041992	191.856583
-28870.512181	18717.195000	1160.914063	69.676750
-28870.512181	18717.195000	1159.785156	-23.564154
-28870.512181	18717.195000	1158.656250	32.784592
-28870.512181	18717.195000	1157.526367	-89.644226
-28870.512181	18717.195000	1156.397461	-78.414940
-28870.512181	18717.195000	1155.267578	-67.850555
-28870.512181	18717.195000	1154.137695	-71.121552
-28870.512181	18717.195000	1153.006836	-99.005371
-28870.512181	18717.195000	1151.876953	59.623310
-28870.512181	18717.195000	1150.746094	-71.494240
-28870.512181	18717.195000	1149.615234	-151.750061
-28870.512181	18717.195000	1148.484375	12.698372
-28870.512181	18717.195000	1147.352539	133.103760
-28870.512181	18717.195000	1146.220703	34.824173
-28870.512181	18717.195000	1145.088867	-13.702176
-28870.512181	18717.195000	1143.957031	-37.128849
-28870.512181	18717.195000	1142.825195	113.124001
-28870.512181	18717.195000	1141.692383	-28.221289
-28870.512181	18717.195000	1140.559570	94.113403
-28870.512181	18717.195000	1139.426758	-102.792076
-28870.512181	18717.195000	1138.292969	-19.998636
-28870.512181	18717.195000	1137.159180	-30.501520
-28870.512181	18717.195000	1136.025391	88.518402
-28870.512181	18717.195000	1134.891602	-74.163689
-28870.512181	18717.195000	1133.757813	-41.319477
-28870.512181	18717.195000	1132.623047	-58.090069
-28870.512181	18717.195000	1131.488281	69.238434
-28870.512181	18717.195000	1130.353516	11.674645
-28870.512181	18717.195000	1129.217773	83.628159
-28870.512181	18717.195000	1128.083008	109.600494
-28870.512181	18717.195000	1126.947266	193.710815
-28870.512181	18717.195000	1125.811523	96.331413
-28870.512181	18717.195000	1124.674805	245.800491
-28870.512181	18717.195000	1123.539063	141.426453
-28870.512181	18717.195000	1122.402344	222.520645
-28870.512181	18717.195000	1121.265625	-7.409750
-28870.512181	18717.195000	1120.127930	24.464594
-28870.512181	18717.195000	1118.990234	203.457565
-28870.512181	18717.195000	1117.853516	237.946609
-28870.512181	18717.195000	1116.714844	174.853500
-28870.512181	18717.195000	1115.577148	358.725952
-28870.512181	18717.195000	1114.439453	211.064178
-28870.512181	18717.195000	1113.300781	178.285263
-28870.512181	18717.195000	1112.162109	156.613434
-28870.512181	18717.195000	1111.022461	310.955963
-28870.512181	18717.195000	1109.883789	123.018494
-28870.512181	18717.195000	1108.744141	303.791412
-28870.512181	18717.195000	1107.604492	185.159271
-28870.512181	18717.195000	1106.463867	151.902267
-28870.512181	18717.195000	1105.324219	161.452866
-28870.512181	18717.195000	1104.183594	192.180161
-28870.512181	18717.195000	1103.042969	181.504944
-28870.512181	18717.195000	1101.902344	282.027740
-28870.512181	18717.195000	1100.760742	190.741547
-28870.512181	18717.195000	1099.619141	208.029175
-28870.512181	18717.195000	1098.477539	280.465759
-28870.512181	18717.195000	1097.335938	142.325714
-28870.512181	18717.195000	1096.193359	259.801086
-28870.512181	18717.195000	1095.051758	400.037842
-28870.512181	18717.195000	1093.909180	-31.498743
-28870.512181	18717.195000	1092.765625	415.525177
-28870.512181	18717.195000	1091.623047	340.898346
-28870.512181	18717.195000	1090.479492	330.256714
-28870.512181	18717.195000	1089.335938	186.434662
-28870.512181	18717.195000	1088.192383	257.105988
-28870.512181	18717.195000	1087.047852	236.763336
-28870.512181	18717.195000	1085.903320	203.003860
-28870.512181	18717.195000	1084.758789	239.089279
-28870.512181	18717.195000	1083.614258	132.671967
-28870.512181	18717.195000	1082.469727	292.010742
-28870.512181	18717.195000	1081.324219	257.987762
-28870.512181	18717.195000	1080.178711	227.088028
-28870.512181	18717.195000	1079.033203	190.182709
-28870.512181	18717.195000	1077.886719	420.694916
-28870.512181	18717.195000	1076.740234	410.852905
-28870.512181	18717.195000	1075.593750	269.326660
-28870.512181	18717.195000	1074.447266	116.510742
-28870.512181	18717.195000	1073.300781	251.883774
-28870.512181	18717.195000	1072.153320	378.692963
-28870.512181	18717.195000	1071.005859	180.736069
-28870.512181	18717.195000	1069.858398	49.627449
-28870.512181	18717.195000	1068.709961	343.771454
-28870.512181	18717.195000	1067.561523	135.501160
-28870.512181	18717.195000	1066.413086	230.708206
-28870.512181	18717.195000	1065.264648	229.959137
-28870.512181	18717.195000	1064.116211	89.595848
-28870.512181	18717.195000	1062.966797	197.605576
-28870.512181	18717.195000	1061.817383	244.659424
-28870.512181	18717.195000	1060.667969	214.593445
-28870.512181	18717.195000	1059.517578	182.742493
-28870.512181	18717.195000	1058.368164	54.612015
-28870.512181	18717.195000	1057.217773	185.188934
-28870.512181	18717.195000	1056.067383	89.026352
-28870.512181	18717.195000	1054.916016	31.457067
-28870.512181	18717.195000	1053.764648	202.641663
-28870.512181	18717.195000	1052.613281	113.490456
-28870.512181	18717.195000	1051.461914	183.419601
-28870.512181	18717.195000	1050.310547	256.767151
-28870.512181	18717.195000	1049.158203	191.655792
-28870.512181	18717.195000	1048.005859	52.144749
-28870.512181	18717.195000	1046.853516	76.613075
-28870.512181	18717.195000	1045.700195	36.438293
-28870.512181	18717.195000	1044.547852	-27.619484
-28870.512181	18717.195000	1043.394531	107.278557
-28870.512181	18717.195000	1042.240234	216.990921
-28870.512181	18717.195000	1041.086914	150.723190
-28870.512181	18717.195000	1039.932617	-69.640045
-28870.512181	18717.195000	1038.778320	86.249725
-28870.512181	18717.195000	1037.624023	101.123169
-28870.512181	18717.195000	1036.469727	154.382843
-28870.512181	18717.195000	1035.314453	165.469498
-28870.512181	18717.195000	1034.159180	261.839233
-28870.512181	18717.195000	1033.003906	62.685585
-28870.512181	18717.195000	1031.847656	109.696365
-28870.512181	18717.195000	1030.692383	1.425343
-28870.512181	18717.195000	1029.536133	326.890411
-28870.512181	18717.195000	1028.378906	211.854431
-28870.512181	18717.195000	1027.222656	63.715088
-28870.512181	18717.195000	1026.065430	212.343658
-28870.512181	18717.195000	1024.908203	89.472801
-28870.512181	18717.195000	1023.750977	156.421127
-28870.512181	18717.195000	1022.593750	68.238693
-28870.512181	18717.195000	1021.435547	79.332787
-28870.512181	18717.195000	1020.277344	113.373711
-28870.512181	18717.195000	1019.119141	4.906633
-28870.512181	18717.195000	1017.959961	44.744072
-28870.512181	18717.195000	1016.800781	-24.440674
-28870.512181	18717.195000	1015.641602	315.339966
-28870.512181	18717.195000	1014.482422	-205.319046
-28870.512181	18717.195000	1013.323242	40.135330
-28870.512181	18717.195000	1012.163086	206.941269
-28870.512181	18717.195000	1011.002930	-98.341080
-28870.512181	18717.195000	1009.842773	86.339340
-28870.512181	18717.195000	1008.681641	-55.524445
-28870.512181	18717.195000	1007.520508	53.077972
-28870.512181	18717.195000	1006.359375	72.134178
-28870.512181	18717.195000	1005.198242	199.714767
-28870.512181	18717.195000	1004.037109	149.537811
-28870.512181	18717.195000	1002.875000	145.620636
-28870.512181	18717.195000	1001.712891	183.824356
-28870.512181	18717.195000	1000.550781	253.655136
-28870.512181	18717.195000	999.387695	126.885147
-28870.512181	18717.195000	998.224609	111.611893
-28870.512181	18717.195000	997.061523	-49.316677
-28870.512181	18717.195000	995.898438	92.319473
-28870.512181	18717.195000	994.734375	134.046341
-28870.512181	18717.195000	993.571289	52.803028
-28870.512181	18717.195000	992.407227	169.898071
-28870.512181	18717.195000	991.242188	120.358070
-28870.512181	18717.195000	990.078125	256.158386
-28870.512181	18717.195000	988.913086	51.661156
-28870.512181	18717.195000	987.748047	-95.455849
-28870.512181	18717.195000	986.583008	111.081123
-28870.512181	18717.195000	985.416992	75.316490
-28870.512181	18717.195000	984.250977	-31.306280
-28870.512181	18717.195000	983.084961	-64.493912
-28870.512181	18717.195000	981.918945	-33.083992
-28870.512181	18717.195000	980.751953	44.974682
-28870.512181	18717.195000	979.584961	-23.383146
-28870.512181	18717.195000	978.417969	103.055725
-28870.512181	18717.195000	977.250977	-78.084381
-28870.512181	18717.195000	976.083008	37.338512
-28870.512181	18717.195000	974.915039	84.980881
-28870.512181	18717.195000	973.747070	111.036392
-28870.512181	18717.195000	972.579102	-44.347176
-28870.512181	18717.195000	971.410156	-174.744720
-28870.512181	18717.195000	970.242188	14.135098
-28870.512181	18717.195000	969.072266	36.728054
-28870.512181	18717.195000	967.903320	34.001339
-28870.512181	18717.195000	966.733398	131.574310
-28870.512181	18717.195000	965.563477	-83.042923
-28870.512181	18717.195000	964.393555	-59.991642
-28870.512181	18717.195000	963.223633	-98.645569
-28870.512181	18717.195000	962.052734	-90.496704
-28870.512181	18717.195000	960.881836	-78.454788
-28870.512181	18717.195000	959.710938	-125.437500
-28870.512181	18717.195000	958.540039	-104.337112
-28870.512181	18717.195000	957.368164	-100.370270
-28870.512181	18717.195000	956.196289	50.840420
-28870.512181	18717.195000	955.024414	-20.577795
-28870.512181	18717.195000	953.851563	217.591019
-28870.512181	18717.195000	952.679688	-57.870243
-28870.512181	18717.195000	951.506836	-41.864021
-28870.512181	18717.195000	950.333984	-130.088058
-28870.512181	18717.195000	949.160156	19.999676
-28870.512181	18717.195000	947.986328	60.982712
-28870.512181	18717.195000	946.812500	38.942394
-28870.512181	18717.195000	945.638672	-41.495018
-28870.512181	18717.195000	944.464844	-34.261856
-28870.512181	18717.195000	943.290039	-67.363968
-28870.512181	18717.195000	942.115234	-17.189486
-28870.512181	18717.195000	940.940430	-85.306488
-28870.512181	18717.195000	939.764648	-29.423010
-28870.512181	18717.195000	938.588867	-151.540436
-28870.512181	18717.195000	937.413086	119.129578
-28870.512181	18717.195000	936.237305	45.347069
-28870.512181	18717.195000	935.060547	23.425467
-28870.512181	18717.195000	933.883789	-166.979385
-28870.512181	18717.195000	932.707031	-64.880905
-28870.512181	18717.195000	931.530273	50.046364
-28870.512181	18717.195000	930.352539	-58.915440
-28870.512181	18717.195000	929.175781	-30.959717
-28870.512181	18717.195000	927.998047	22.908199
-28870.512181	18717.195000	926.819336	21.209045
-28870.512181	18717.195000	925.641602	8.510191
-28870.512181	18717.195000	924.462891	45.695908
-28870.512181	18717.195000	923.284180	45.887890
-28870.512181	18717.195000	922.104492	-55.549763
-28870.512181	18717.195000	920.924805	18.568129
-28870.512181	18717.195000	919.746094	22.814440
-28870.512181	18717.195000	919.551758	-170.806061
-28870.512181	18717.195000	918.386719	-59.815384
-28870.512181	18717.195000	917.220703	75.133575
-28870.512181	18717.195000	916.054688	23.567778
-28870.512181	18717.195000	914.887695	32.932335
-28870.512181	18717.195000	913.721680	-169.929962
-28870.512181	18717.195000	912.554688	-7.400580
-28870.512181	18717.195000	911.387695	97.876526
-28870.512181	18717.195000	910.220703	-49.551575
-28870.512181	18717.195000	909.052734	-3.313055
-28870.512181	18717.195000	907.885742	135.076492
-28870.512181	18717.195000	906.717773	-6.742008
-28870.512181	18717.195000	905.548828	-23.195143
-28870.512181	18717.195000	904.380859	-35.961601
-28870.512181	18717.195000	903.211914	71.008713
-28870.512181	18717.195000	902.042969	-2.543397
-28870.512181	18717.195000	900.874023	49.138077
-28870.512181	18717.195000	899.704102	73.187614
-28870.512181	18717.195000	898.535156	-4.003172
-28870.512181	18717.195000	897.365234	73.409721
-28870.512181	18717.195000	896.194336	93.762360
-28870.512181	18717.195000	895.024414	97.547913
-28870.512181	18717.195000	893.853516	162.022461
-28870.512181	18717.195000	892.682617	18.708050
-28870.512181	18717.195000	891.511719	195.304962
-28870.512181	18717.195000	890.340820	103.501793
-28870.512181	18717.195000	889.168945	145.876312
-28870.512181	18717.195000	887.997070	100.053085
-28870.512181	18717.195000	886.825195	-54.119183
-28870.512181	18717.195000	885.653320	-81.518341
-28870.512181	18717.195000	884.480469	41.648220
-28870.512181	18717.195000	883.307617	67.478661
-28870.512181	18717.195000	882.134766	-57.191017
-28870.512181	18717.195000	880.961914	168.649979
-28870.512181	18717.195000	879.788086	-66.053413
-28870.512181	18717.195000	878.614258	40.484444
-28870.512181	18717.195000	877.440430	40.623932
-28870.512181	18717.195000	876.266602	27.929548
-28870.512181	18717.195000	875.091797	-23.246582
-28870.512181	18717.195000	873.916992	-142.208694
-28870.512181	18717.195000	872.742188	17.380167
-28870.512181	18717.195000	871.567383	50.505341
-28870.512181	18717.195000	870.391602	107.431046
-28870.512181	18717.195000	869.215820	-9.620597
-28870.512181	18717.195000	868.040039	-2.133972
-28870.512181	18717.195000	866.864258	-7.461633
-28870.512181	18717.195000	865.687500	179.366669
-28870.512181	18717.195000	864.510742	-10.781476
-28870.512181	18717.195000	863.333984	44.267735
-28870.512181	18717.195000	862.157227	35.284771
-28870.512181	18717.195000	860.979492	-99.855850
-28870.512181	18717.195000	859.802734	-24.710932
-28870.512181	18717.195000	858.625000	-121.400536
-28870.512181	18717.195000	857.446289	-13.380784
-28870.512181	18717.195000	856.268555	-106.376457
-28870.512181	18717.195000	855.089844	-36.762535
-28870.512181	18717.195000	853.911133	-171.714447
-28870.512181	18717.195000	852.731445	-41.856728
-28870.512181	18717.195000	851.552734	-132.940567
-28870.512181	18717.195000	850.373047	-165.579239
-28870.512181	18717.195000	849.193359	-165.359344
-28870.512181	18717.195000	848.013672	24.595007
-28870.512181	18717.195000	846.833008	-157.620087
-28870.512181	18717.195000	845.652344	-122.749443
-28870.512181	18717.195000	844.471680	-11.318562
-28870.512181	18717.195000	843.291016	101.890175
-28870.512181	18717.195000	842.110352	-69.258133
-28870.512181	18717.195000	840.928711	84.003479
-28870.512181	18717.195000	839.747070	4.019046
-28870.512181	18717.195000	838.564453	-145.143677
-28870.512181	18717.195000	837.382813	-72.087494
-28870.512181	18717.195000	836.200195	-190.224609
-28870.512181	18717.195000	835.017578	28.429609
-28870.512181	18717.195000	833.834961	48.625954
-28870.512181	18717.195000	832.651367	-45.812016
-28870.512181	18717.195000	831.467773	-41.980732
-28870.512181	18717.195000	830.284180	-56.341339
-28870.512181	18717.195000	829.100586	-7.056163
-28870.512181	18717.195000	827.916992	38.569885
-28870.512181	18717.195000	826.732422	116.894501
-28870.512181	18717.195000	825.547852	-17.433651
-28870.512181	18717.195000	824.363281	31.793203
-28870.512181	18717.195000	823.177734	55.568470
-28870.512181	18717.195000	821.992188	-22.373255
-28870.512181	18717.195000	820.806641	68.577148
-28870.512181	18717.195000	819.621094	3.363756
-28870.512181	18717.195000	818.434570	37.999454
-28870.512181	18717.195000	817.249023	-112.477913
-28870.512181	18717.195000	816.062500	-23.415348
-28870.512181	18717.195000	814.875000	-17.830738
-28870.512181	18717.195000	813.688477	87.485657
-28870.512181	18717.195000	812.500977	-8.502683
-28870.512181	18717.195000	811.313477	-33.759396
-28870.512181	18717.195000	810.125977	-24.578745
-28870.512181	18717.195000	808.937500	58.886059
-28870.512181	18717.195000	807.749023	138.686020
-28870.512181	18717.195000	806.560547	-15.206544
-28870.512181	18717.195000	805.372070	-80.311485
-28870.512181	18717.195000	804.182617	-101.942223
-28870.512181	18717.195000	802.994141	70.107132
-28870.512181	18717.195000	801.803711	182.359848
-28870.512181	18717.195000	800.614258	-40.181671
-28870.512181	18717.195000	799.424805	-23.852358
-28870.512181	18717.195000	798.234375	-43.709846
-28870.512181	18717.195000	797.043945	-110.584946
-28870.512181	18717.195000	795.852539	-74.390785
-28870.512181	18717.195000	794.662109	99.144066
-28870.512181	18717.195000	793.470703	93.691727
-28870.512181	18717.195000	792.279297	1.504437
-28870.512181	18717.195000	791.087891	-161.105698
-28870.512181	18717.195000	789.895508	79.080917
-28870.512181	18717.195000	788.703125	-2.247921
-28870.512181	18717.195000	787.510742	115.020668
-28870.512181	18717.195000	786.318359	37.299370
-28870.512181	18717.195000	785.125000	172.530365
-28870.512181	18717.195000	783.931641	-11.642446
-28870.512181	18717.195000	782.738281	101.866440
-28870.512181	18717.195000	781.544922	47.596653
-28870.512181	18717.195000	780.350586	-49.936443
-28870.512181	18717.195000	779.156250	20.199154
-28870.512181	18717.195000	777.961914	-41.277252
-28870.512181	18717.195000	776.767578	14.377069
-28870.512181	18717.195000	775.572266	113.230148
-28870.512181	18717.195000	774.376953	49.919117
-28870.512181	18717.195000	773.181641	100.064629
-28870.512181	18717.195000	771.986328	69.150620
-28870.512181	18717.195000	770.790039	13.033124
-28870.512181	18717.195000	769.593750	7.307340
-28870.512181	18717.195000	768.397461	-18.228352
-28870.512181	18717.195000	767.201172	105.533020
-28870.512181	18717.195000	766.003906	42.176918
-28870.512181	18717.195000	764.806641	29.173586
-28870.512181	18717.195000	763.609375	95.254997
-28870.512181	18717.195000	762.412109	-79.567581
-28870.512181	18717.195000	761.213867	114.052940
-28870.512181	18717.195000	760.015625	29.086884
-28870.512181	18717.195000	758.817383	5.204697
-28870.512181	18717.195000	757.618164	-112.076675
-28870.512181	18717.195000	756.419922	104.630341
-28870.512181	18717.195000	755.220703	-106.022743
-28870.512181	18717.195000	754.021484	128.490158
-28870.512181	18717.195000	752.821289	38.093136
-28870.512181	18717.195000	751.621094	100.199043
-28870.512181	18717.195000	750.420898	103.059372
-28870.512181	18717.195000	749.220703	23.399267
-28870.512181	18717.195000	748.020508	54.903812
-28870.512181	18717.195000	746.819336	124.011627
-28870.512181	18717.195000	745.618164	40.725536
-28870.512181	18717.195000	744.416992	90.037270
-28870.512181	18717.195000	743.214844	-90.002312
-28870.512181	18717.195000	742.012695	-124.923531
-28870.512181	18717.195000	740.810547	65.762444
-28870.512181	18717.195000	739.608398	9.274890
-28870.512181	18717.195000	738.406250	-7.843656
-28870.512181	18717.195000	737.203125	162.917496
-28870.512181	18717.195000	736.000000	77.720551
-28870.512181	18717.195000	734.795898	-95.124031
-28870.512181	18717.195000	733.592773	-51.534348
-28870.512181	18717.195000	732.388672	56.375534
-28870.512181	18717.195000	731.184570	90.908592
-28870.512181	18717.195000	729.979492	34.241367
-28870.512181	18717.195000	728.775391	131.235321
-28870.512181	18717.195000	727.570313	33.417767
-28870.512181	18717.195000	726.365234	-50.105453
-28870.512181	18717.195000	725.160156	-17.554461
-28870.512181	18717.195000	723.954102	-22.546783
-28870.512181	18717.195000	722.748047	43.826256
-28870.512181	18717.195000	721.541992	104.778145
-28870.512181	18717.195000	720.334961	55.039917
-28870.512181	18717.195000	719.128906	-41.102619
-28870.512181	18717.195000	717.921875	112.457481
-28870.512181	18717.195000	716.714844	167.836105
-28870.512181	18717.195000	715.506836	-136.978973
-28870.512181	18717.195000	714.298828	134.024689
-28870.512181	18717.195000	713.090820	3.906345
-28870.512181	18717.195000	711.882813	-35.334351
-28870.512181	18717.195000	710.674805	-42.536587
-28870.512181	18717.195000	709.465820	-58.681484
-28870.512181	18717.195000	708.256836	-105.132362
-28870.512181	18717.195000	707.047852	-19.872913
-28870.512181	18717.195000	705.837891	63.529713
-28870.512181	18717.195000	704.627930	31.186947
-28870.512181	18717.195000	703.417969	2.371949
-28870.512181	18717.195000	702.208008	98.034653
-28870.512181	18717.195000	700.998047	30.003906
-28870.512181	18717.195000	699.787109	-96.715317
-28870.512181	18717.195000	698.576172	41.434940
-28870.512181	18717.195000	697.364258	193.700790
-28870.512181	18717.195000	696.153320	95.318779
-28870.512181	18717.195000	694.941406	114.180779
-28870.512181	18717.195000	693.729492	212.913284
-28870.512181	18717.195000	692.516602	133.984009
-28870.512181	18717.195000	691.304688	51.490150
-28870.512181	18717.195000	690.091797	208.607544
-28870.512181	18717.195000	688.878906	86.997032
-28870.512181	18717.195000	687.665039	103.781502
-28870.512181	18717.195000	686.451172	361.756683
-28870.512181	18717.195000	685.237305	412.077728
-28870.512181	18717.195000	684.023438	286.789459
-28870.512181	18717.195000	682.809570	250.143723
-28870.512181	18717.195000	681.594727	293.221313
-28870.512181	18717.195000	680.379883	210.421677
-28870.512181	18717.195000	679.165039	248.078766
-28870.512181	18717.195000	677.949219	337.037903
-28870.512181	18717.195000	676.733398	346.221222
-28870.512181	18717.195000	675.517578	307.547638
-28870.512181	18717.195000	674.301758	387.440979
-28870.512181	18717.195000	673.084961	246.032593
-28870.512181	18717.195000	671.869141	389.505127
-28870.512181	18717.195000	670.651367	417.884338
-28870.512181	18717.195000	669.434570	299.404358
-28870.512181	18717.195000	668.216797	302.936096
-28870.512181	18717.195000	667.000000	361.222137
-28870.512181	18717.195000	665.781250	313.384521
-28870.512181	18717.195000	664.563477	219.571960
-28870.512181	18717.195000	663.344727	55.079941
-28870.512181	18717.195000	662.125977	220.925949
-28870.512181	18717.195000	660.907227	243.605270
-28870.512181	18717.195000	659.688477	117.912041
-28870.512181	18717.195000	658.468750	94.610138
-28870.512181	18717.195000	657.249023	141.866669
-28870.512181	18717.195000	656.029297	100.829346
-28870.512181	18717.195000	654.808594	66.817635
-28870.512181	18717.195000	653.587891	172.114059
-28870.512181	18717.195000	652.367188	123.900551
-28870.512181	18717.195000	651.146484	47.451801
-28870.512181	18717.195000	649.924805	48.546215
-28870.512181	18717.195000	648.704102	225.825195
-28870.512181	18717.195000	647.482422	85.835434
-28870.512181	18717.195000	646.259766	164.293030
-28870.512181	18717.195000	645.037109	105.299217
-28870.512181	18717.195000	643.815430	65.654625
-28870.512181	18717.195000	642.591797	112.244148
-28870.512181	18717.195000	641.369141	46.125160
-28870.512181	18717.195000	640.145508	89.091110
-28870.512181	18717.195000	638.921875	193.572601
-28870.512181	18717.195000	637.698242	137.903137
-28870.512181	18717.195000	636.474609	-23.300558
-28870.512181	18717.195000	635.250000	182.986771
-28870.512181	18717.195000	634.025391	227.425430
-28870.512181	18717.195000	632.800781	-23.449848
-28870.512181	18717.195000	631.575195	-66.922424
-28870.512181	18717.195000	630.349609	-66.497856
-28870.512181	18717.195000	629.124023	0.628174
-28870.512181	18717.195000	627.898438	-74.546631
-28870.512181	18717.195000	626.671875	90.789032
-28870.512181	18717.195000	625.445313	-56.413166
-28870.512181	18717.195000	624.218750	-38.632042
-28870.512181	18717.195000	622.992188	70.338188
-28870.512181	18717.195000	621.764648	-22.496876
-28870.512181	18717.195000	620.537109	-92.528160
-28870.512181	18717.195000	619.309570	-157.303741
-28870.512181	18717.195000	618.081055	-95.869797
-28870.512181	18717.195000	616.852539	-27.483334
-28870.512181	18717.195000	615.624023	-29.248043
-28870.512181	18717.195000	614.395508	-113.380882
-28870.512181	18717.195000	613.166992	26.685394
-28870.512181	18717.195000	611.937500	-50.478249
-28870.512181	18717.195000	610.708008	-97.874702
-28870.512181	18717.195000	609.477539	-108.521866
-28870.512181	18717.195000	608.248047	-73.688919
-28870.512181	18717.195000	607.017578	-61.642029
-28870.512181	18717.195000	605.787109	30.840668
-28870.512181	18717.195000	604.555664	-95.353477
-28870.512181	18717.195000	603.325195	-76.386978
-28870.512181	18717.195000	602.093750	73.660431
-28870.512181	18717.195000	600.861328	41.851212
-28870.512181	18717.195000	599.629883	-47.628384
-28870.512181	18717.195000	598.397461	16.651623
-28870.512181	18717.195000	597.165039	-177.622818
-28870.512181	18717.195000	595.932617	-141.318848
-28870.512181	18717.195000	594.699219	-42.194618
-28870.512181	18717.195000	593.465820	-161.321930
-28870.512181	18717.195000	592.232422	-242.018051
-28870.512181	18717.195000	590.999023	-109.823921
-28870.512181	18717.195000	589.764648	-7.356087
-28870.512181	18717.195000	588.530273	-79.348366
-28870.512181	18717.195000	587.295898	-36.236168
-28870.512181	18717.195000	586.061523	-148.306473
-28870.512181	18717.195000	584.826172	117.883736
-28870.512181	18717.195000	583.590820	-53.434433
-28870.512181	18717.195000	582.355469	-142.799896
-28870.512181	18717.195000	581.119141	-94.527428
-28870.512181	18717.195000	579.882813	-140.317551
-28870.512181	18717.195000	578.646484	-20.684744
-28870.512181	18717.195000	577.410156	53.637775
-28870.512181	18717.195000	576.172852	14.804001
-28870.512181	18717.195000	574.935547	-11.830912
-28870.512181	18717.195000	573.698242	-12.357605
-28870.512181	18717.195000	572.460938	-63.316914
-28870.512181	18717.195000	571.222656	83.980347
-28870.512181	18717.195000	569.984375	43.463524
-28870.512181	18717.195000	568.746094	-75.244156
-28870.512181	18717.195000	567.506836	-107.005249
-28870.512181	18717.195000	566.267578	7.197452
-28870.512181	18717.195000	565.028320	17.141464
-28870.512181	18717.195000	563.789063	-87.524620
-28870.512181	18717.195000	562.548828	-49.760025
-28870.512181	18717.195000	561.309570	-58.863628
-28870.512181	18717.195000	560.068359	46.594246
-28870.512181	18717.195000	558.828125	18.417570
-28870.512181	18717.195000	557.586914	120.379189
-28870.512181	18717.195000	556.345703	158.142639
-28870.512181	18717.195000	555.104492	119.612312
-28870.512181	18717.195000	553.863281	136.596848
-28870.512181	18717.195000	552.621094	25.330410
-28870.512181	18717.195000	551.378906	97.826027
-28870.512181	18717.195000	550.136719	125.268272
-28870.512181	18717.195000	548.893555	53.987995
-28870.512181	18717.195000	547.650391	154.214890
-28870.512181	18717.195000	546.407227	76.086571
-28870.512181	18717.195000	545.164063	101.884224
-28870.512181	18717.195000	543.919922	46.355671
-28870.512181	18717.195000	542.675781	67.015564
-28870.512181	18717.195000	541.431641	153.436966
-28870.512181	18717.195000	540.186523	170.666534
-28870.512181	18717.195000	538.941406	-47.253929
-28870.512181	18717.195000	537.696289	15.026872
-28870.512181	18717.195000	536.451172	54.845531
-28870.512181	18717.195000	535.205078	260.578735
-28870.512181	18717.195000	533.959961	-14.054349
-28870.512181	18717.195000	532.712891	60.394428
-28870.512181	18717.195000	531.466797	145.210373
-28870.512181	18717.195000	530.219727	171.319992
-28870.512181	18717.195000	528.972656	54.174736
-28870.512181	18717.195000	527.725586	99.351089
-28870.512181	18717.195000	526.478516	234.273163
-28870.512181	18717.195000	525.230469	91.424889
-28870.512181	18717.195000	523.982422	102.181183
-28870.512181	18717.195000	522.734375	149.183746
-28870.512181	18717.195000	521.485352	168.618561
-28870.512181	18717.195000	520.236328	241.518448
-28870.512181	18717.195000	518.987305	333.380402
-28870.512181	18717.195000	517.737305	196.090439
-28870.512181	18717.195000	516.488281	241.489182
-28870.512181	18717.195000	515.238281	187.017761
-28870.512181	18717.195000	513.988281	254.857864
-28870.512181	18717.195000	512.737305	265.896362
-28870.512181	18717.195000	511.486328	245.985611
-28870.512181	18717.195000	510.235352	394.750946
-28870.512181	18717.195000	508.984375	337.044098
-28870.512181	18717.195000	507.732422	250.156036
-28870.512181	18717.195000	506.480469	410.962036
-28870.512181	18717.195000	505.228516	521.873108
-28870.512181	18717.195000	503.976563	328.527863
-28870.512181	18717.195000	502.723633	568.356384
-28870.512181	18717.195000	501.470703	723.922058
-28870.512181	18717.195000	500.217773	647.549500
-28870.512181	18717.195000	498.963867	730.952881
-28870.512181	18717.195000	497.709961	738.793579
-28870.512181	18717.195000	496.456055	480.571777
-28870.512181	18717.195000	495.202148	682.445618
-28870.512181	18717.195000	493.947266	700.646301
-28870.512181	18717.195000	492.692383	746.303467
-28870.512181	18717.195000	491.437500	903.440125
-28870.512181	18717.195000	490.181641	907.901367
-28870.512181	18717.195000	488.926758	944.942322
-28870.512181	18717.195000	487.670898	810.565979
-28870.512181	18717.195000	486.414063	849.332764
-28870.512181	18717.195000	485.158203	1076.547241
-28870.512181	18717.195000	483.901367	1021.020325
-28870.512181	18717.195000	482.644531	1087.104004
-28870.512181	18717.195000	481.386719	930.557434
-28870.512181	18717.195000	480.128906	1044.534790
-28870.512181	18717.195000	478.871094	1238.883545
-28870.512181	18717.195000	477.613281	1025.878784
-28870.512181	18717.195000	476.355469	1158.507202
-28870.512181	18717.195000	475.096680	1140.532593
-28870.512181	18717.195000	473.837891	1168.696411
-28870.512181	18717.195000	472.578125	1114.743164
-28870.512181	18717.195000	471.319336	1247.074341
-28870.512181	18717.195000	470.059570	1357.077393
-28870.512181	18717.195000	468.799805	1321.748779
-28870.512181	18717.195000	467.539063	1223.166138
-28870.512181	18717.195000	466.278320	1249.222046
-28870.512181	18717.195000	465.017578	1268.359009
-28870.512181	18717.195000	463.756836	1248.138916
-28870.512181	18717.195000	462.495117	1383.142822
-28870.512181	18717.195000	461.233398	1072.638550
-28870.512181	18717.195000	459.971680	1422.364624
-28870.512181	18717.195000	458.709961	1440.940063
-28870.512181	18717.195000	457.447266	1491.781860
-28870.512181	18717.195000	456.184570	1404.377197
-28870.512181	18717.195000	454.921875	1352.663086
-28870.512181	18717.195000	453.658203	1590.518677
-28870.512181	18717.195000	452.394531	1662.847900
-28870.512181	18717.195000	451.130859	1608.927368
-28870.512181	18717.195000	449.867188	1406.689453
-28870.512181	18717.195000	448.602539	1572.117188
-28870.512181	18717.195000	447.337891	1546.618530
-28870.512181	18717.195000	446.073242	1383.065308
-28870.512181	18717.195000	444.807617	1449.063110
-28870.512181	18717.195000	443.542969	1468.869263
-28870.512181	18717.195000	442.276367	1440.791504
-28870.512181	18717.195000	441.010742	1529.798462
-28870.512181	18717.195000	439.744141	1642.291626
-28870.512181	18717.195000	438.478516	1638.874268
-28870.512181	18717.195000	437.210938	1662.340088
-28870.512181	18717.195000	435.944336	1644.709473
-28870.512181	18717.195000	434.676758	1621.657837
-28870.512181	18717.195000	433.409180	1588.082153
-28870.512181	18717.195000	432.141602	1476.059814
-28870.512181	18717.195000	430.873047	1760.916870
-28870.512181	18717.195000	429.604492	1758.445068
-28870.512181	18717.195000	428.335938	1662.242920
-28870.512181	18717.195000	427.067383	1716.633179
-28870.512181	18717.195000	425.797852	1799.380127
-28870.512181	18717.195000	424.528320	1813.802002
-28870.512181	18717.195000	423.258789	1641.254272
-28870.512181	18717.195000	421.988281	1827.593262
-28870.512181	18717.195000	420.717773	1693.058716
-28870.512181	18717.195000	419.447266	1693.573608
-28870.512181	18717.195000	418.175781	1827.326416
-28870.512181	18717.195000	416.905273	1677.637817
-28870.512181	18717.195000	415.633789	1695.011108
-28870.512181	18717.195000	414.362305	1689.739014
-28870.512181	18717.195000	413.089844	1991.810181
-28870.512181	18717.195000	411.817383	1964.826904
-28870.512181	18717.195000	410.544922	1937.149414
-28870.512181	18717.195000	409.272461	1778.529175
-28870.512181	18717.195000	407.999023	1788.294922
-28870.512181	18717.195000	406.725586	1856.440796
-28870.512181	18717.195000	405.452148	1834.168457
-28870.512181	18717.195000	404.177734	1817.810669
-28870.512181	18717.195000	402.903320	1594.483154
-28870.512181	18717.195000	401.628906	1637.222412
-28870.512181	18717.195000	400.354492	1734.739868
-28870.512181	18717.195000	399.079102	1861.628296
-28870.512181	18717.195000	397.803711	1832.178101
-28870.512181	18717.195000	396.528320	1909.719604
-28870.512181	18717.195000	395.251953	1876.481445
-28870.512181	18717.195000	393.976563	1815.194580
-28870.512181	18717.195000	392.700195	1796.634644
-28870.512181	18717.195000	391.422852	1613.342163
-28870.512181	18717.195000	390.145508	1734.046631
-28870.512181	18717.195000	388.869141	1732.135132
-28870.512181	18717.195000	387.590820	1752.488159
-28870.512181	18717.195000	386.313477	1448.087280
-28870.512181	18717.195000	385.035156	1565.187134
-28870.512181	18717.195000	383.756836	1650.525391
-28870.512181	18717.195000	382.478516	1727.648926
-28870.512181	18717.195000	381.199219	1880.649536
-28870.512181	18717.195000	379.919922	1592.838745
-28870.512181	18717.195000	378.640625	1555.942871
-28870.512181	18717.195000	377.360352	1646.926147
-28870.512181	18717.195000	376.080078	1573.072266
-28870.512181	18717.195000	374.799805	1669.027222
-28870.512181	18717.195000	373.519531	1595.074707
-28870.512181	18717.195000	372.238281	1737.774292
-28870.512181	18717.195000	370.957031	1614.741333
-28870.512181	18717.195000	369.675781	1467.997314
-28870.512181	18717.195000	368.394531	1440.264038
-28870.512181	18717.195000	367.112305	1407.104492
-28870.512181	18717.195000	365.830078	1482.668091
-28870.512181	18717.195000	364.546875	1549.286499
-28870.512181	18717.195000	363.264648	1417.383179
-28870.512181	18717.195000	361.981445	1313.415405
-28870.512181	18717.195000	360.698242	1472.179688
-28870.512181	18717.195000	359.414063	1375.204834
-28870.512181	18717.195000	358.129883	1191.981567
-28870.512181	18717.195000	356.845703	1313.062378
-28870.512181	18717.195000	355.561523	1151.630371
-28870.512181	18717.195000	354.276367	1150.070190
-28870.512181	18717.195000	352.991211	1239.585815
-28870.512181	18717.195000	351.706055	1178.881470
-28870.512181	18717.195000	350.420898	1088.538940
-28870.512181	18717.195000	349.134766	1258.041138
-28870.512181	18717.195000	347.848633	1170.044678
-28870.512181	18717.195000	346.561523	1125.760864
-28870.512181	18717.195000	345.275391	922.806763
-28870.512181	18717.195000	343.988281	1041.081177
-28870.512181	18717.195000	342.700195	844.842651
-28870.512181	18717.195000	341.413086	978.042603
-28870.512181	18717.195000	340.125000	699.740417
-28870.512181	18717.195000	338.836914	685.336548
-28870.512181	18717.195000	337.548828	583.710754
-28870.512181	18717.195000	336.259766	665.335693
-28870.512181	18717.195000	334.970703	617.796326
-28870.512181	18717.195000	333.681641	462.790436
-28870.512181	18717.195000	332.391602	377.131012
-28870.512181	18717.195000	331.101563	495.958893
-28870.512181	18717.195000	329.811523	396.893311
-28870.512181	18717.195000	328.521484	68.298798
-28870.512181	18717.195000	327.230469	192.249191
-28870.512181	18717.195000	325.939453	314.902008
-28870.512181	18717.195000	324.648438	289.446136
-28870.512181	18717.195000	323.356445	102.404762
-28870.512181	18717.195000	322.064453	215.483521
-28870.512181	18717.195000	320.772461	68.590820
-28870.512181	18717.195000	319.480469	-41.732155
-28870.512181	18717.195000	318.187500	-7.529593
-28870.512181	18717.195000	316.894531	57.907562
-28870.512181	18717.195000	315.601563	-53.633968
-28870.512181	18717.195000	314.307617	-39.435055
-28870.512181	18717.195000	313.013672	-175.753067
-28870.512181	18717.195000	311.719727	-3.500397
-28870.512181	18717.195000	310.425781	71.189644
-28870.512181	18717.195000	309.130859	-342.670410
-28870.512181	18717.195000	307.835938	-51.141598
-28870.512181	18717.195000	306.541016	142.420837
-28870.512181	18717.195000	305.245117	-13.160272
-28870.512181	18717.195000	303.949219	35.587959
-28870.512181	18717.195000	302.653320	-95.285103
-28870.512181	18717.195000	301.356445	175.178619
-28870.512181	18717.195000	300.060547	216.094330
-28870.512181	18717.195000	298.763672	387.226929
