#X		#Y		#Wave		#Intensity
23209.211223	2438.689500	1999.980469	-81.029053
23209.211223	2438.689500	1999.016602	13.258698
23209.211223	2438.689500	1998.052734	-402.925842
23209.211223	2438.689500	1997.087891	45.080025
23209.211223	2438.689500	1996.123047	-77.762962
23209.211223	2438.689500	1995.158203	-310.351013
23209.211223	2438.689500	1994.193359	-186.971436
23209.211223	2438.689500	1993.228516	-245.152344
23209.211223	2438.689500	1992.262695	64.875832
23209.211223	2438.689500	1991.297852	86.940033
23209.211223	2438.689500	1990.332031	261.772400
23209.211223	2438.689500	1989.366211	312.161896
23209.211223	2438.689500	1988.399414	84.822769
23209.211223	2438.689500	1987.433594	178.507309
23209.211223	2438.689500	1986.466797	130.610519
23209.211223	2438.689500	1985.500977	-229.395065
23209.211223	2438.689500	1984.534180	156.782669
23209.211223	2438.689500	1983.567383	248.152512
23209.211223	2438.689500	1982.599609	301.914856
23209.211223	2438.689500	1981.632813	305.744049
23209.211223	2438.689500	1980.665039	588.248535
23209.211223	2438.689500	1979.697266	255.195419
23209.211223	2438.689500	1978.729492	225.563400
23209.211223	2438.689500	1977.761719	114.047615
23209.211223	2438.689500	1976.792969	318.134308
23209.211223	2438.689500	1975.825195	89.850395
23209.211223	2438.689500	1974.856445	409.081848
23209.211223	2438.689500	1973.887695	175.203339
23209.211223	2438.689500	1972.918945	116.202988
23209.211223	2438.689500	1971.949219	108.686386
23209.211223	2438.689500	1970.980469	362.229034
23209.211223	2438.689500	1970.010742	124.785736
23209.211223	2438.689500	1969.041016	200.180374
23209.211223	2438.689500	1968.071289	65.803505
23209.211223	2438.689500	1967.101563	44.558998
23209.211223	2438.689500	1966.130859	116.685371
23209.211223	2438.689500	1965.161133	119.589432
23209.211223	2438.689500	1964.190430	114.880905
23209.211223	2438.689500	1963.219727	164.131241
23209.211223	2438.689500	1962.249023	129.471161
23209.211223	2438.689500	1961.277344	102.015434
23209.211223	2438.689500	1960.306641	59.634209
23209.211223	2438.689500	1959.334961	100.748093
23209.211223	2438.689500	1958.363281	-94.448982
23209.211223	2438.689500	1957.391602	180.012009
23209.211223	2438.689500	1956.419922	-99.009613
23209.211223	2438.689500	1955.447266	133.291595
23209.211223	2438.689500	1954.474609	289.192993
23209.211223	2438.689500	1953.501953	83.674133
23209.211223	2438.689500	1952.529297	288.458496
23209.211223	2438.689500	1951.556641	377.614899
23209.211223	2438.689500	1950.583984	-66.325180
23209.211223	2438.689500	1949.610352	241.254013
23209.211223	2438.689500	1948.636719	136.173752
23209.211223	2438.689500	1947.663086	33.525269
23209.211223	2438.689500	1946.689453	281.827301
23209.211223	2438.689500	1945.715820	73.570976
23209.211223	2438.689500	1944.741211	142.581451
23209.211223	2438.689500	1943.767578	206.629990
23209.211223	2438.689500	1942.792969	-21.226028
23209.211223	2438.689500	1941.818359	172.727875
23209.211223	2438.689500	1940.842773	-175.209518
23209.211223	2438.689500	1939.868164	-94.080215
23209.211223	2438.689500	1938.892578	134.045197
23209.211223	2438.689500	1937.916992	-108.353989
23209.211223	2438.689500	1936.941406	-78.739861
23209.211223	2438.689500	1935.965820	19.448708
23209.211223	2438.689500	1934.990234	222.913254
23209.211223	2438.689500	1934.013672	51.708920
23209.211223	2438.689500	1933.037109	-293.213379
23209.211223	2438.689500	1932.060547	-94.646843
23209.211223	2438.689500	1931.083984	89.187439
23209.211223	2438.689500	1930.107422	187.355270
23209.211223	2438.689500	1929.129883	199.899246
23209.211223	2438.689500	1928.153320	-156.809326
23209.211223	2438.689500	1927.175781	71.043724
23209.211223	2438.689500	1926.198242	95.943008
23209.211223	2438.689500	1925.219727	186.866165
23209.211223	2438.689500	1924.242188	258.255707
23209.211223	2438.689500	1923.263672	-100.369392
23209.211223	2438.689500	1922.285156	-202.306625
23209.211223	2438.689500	1921.306641	-72.120613
23209.211223	2438.689500	1920.328125	-10.305821
23209.211223	2438.689500	1919.349609	-187.729919
23209.211223	2438.689500	1918.370117	-147.779266
23209.211223	2438.689500	1917.391602	133.840347
23209.211223	2438.689500	1916.412109	-118.989113
23209.211223	2438.689500	1915.431641	-52.065369
23209.211223	2438.689500	1914.452148	-270.495422
23209.211223	2438.689500	1913.472656	-71.748184
23209.211223	2438.689500	1912.492188	390.324677
23209.211223	2438.689500	1911.511719	294.009399
23209.211223	2438.689500	1910.531250	129.544571
23209.211223	2438.689500	1909.550781	-120.089218
23209.211223	2438.689500	1908.569336	76.310844
23209.211223	2438.689500	1907.588867	72.946564
23209.211223	2438.689500	1906.607422	-278.649628
23209.211223	2438.689500	1905.625977	-160.067596
23209.211223	2438.689500	1904.644531	-82.856567
23209.211223	2438.689500	1903.662109	79.580589
23209.211223	2438.689500	1902.680664	154.405441
23209.211223	2438.689500	1901.698242	-225.775284
23209.211223	2438.689500	1900.715820	34.094265
23209.211223	2438.689500	1899.733398	-177.967316
23209.211223	2438.689500	1898.750000	164.595947
23209.211223	2438.689500	1897.767578	37.805817
23209.211223	2438.689500	1896.784180	-35.400700
23209.211223	2438.689500	1895.800781	3.283419
23209.211223	2438.689500	1894.817383	-181.568954
23209.211223	2438.689500	1893.833984	-62.588131
23209.211223	2438.689500	1892.850586	158.425552
23209.211223	2438.689500	1891.866211	-28.634275
23209.211223	2438.689500	1890.881836	-62.592087
23209.211223	2438.689500	1889.897461	-69.785545
23209.211223	2438.689500	1888.913086	-16.247673
23209.211223	2438.689500	1887.927734	-139.860321
23209.211223	2438.689500	1886.943359	141.845581
23209.211223	2438.689500	1885.958008	-187.888000
23209.211223	2438.689500	1884.972656	-151.194809
23209.211223	2438.689500	1883.987305	-61.127708
23209.211223	2438.689500	1883.001953	-101.997444
23209.211223	2438.689500	1882.015625	162.630417
23209.211223	2438.689500	1881.029297	121.787773
23209.211223	2438.689500	1880.042969	61.599277
23209.211223	2438.689500	1879.056641	13.568441
23209.211223	2438.689500	1878.070313	-228.217270
23209.211223	2438.689500	1877.083984	-125.973183
23209.211223	2438.689500	1876.096680	90.057266
23209.211223	2438.689500	1875.109375	-236.301498
23209.211223	2438.689500	1874.122070	219.332748
23209.211223	2438.689500	1873.134766	-17.364836
23209.211223	2438.689500	1872.146484	135.604370
23209.211223	2438.689500	1871.159180	-110.657356
23209.211223	2438.689500	1870.170898	-163.325974
23209.211223	2438.689500	1869.182617	-136.171051
23209.211223	2438.689500	1868.194336	-290.373077
23209.211223	2438.689500	1867.205078	-106.087891
23209.211223	2438.689500	1866.216797	-151.494553
23209.211223	2438.689500	1865.227539	-47.073891
23209.211223	2438.689500	1864.238281	16.214947
23209.211223	2438.689500	1863.249023	200.244110
23209.211223	2438.689500	1862.259766	210.288071
23209.211223	2438.689500	1861.269531	-122.592407
23209.211223	2438.689500	1860.279297	-52.192421
23209.211223	2438.689500	1859.290039	73.671532
23209.211223	2438.689500	1858.298828	322.529053
23209.211223	2438.689500	1857.308594	269.645477
23209.211223	2438.689500	1856.318359	226.390030
23209.211223	2438.689500	1855.327148	-29.151434
23209.211223	2438.689500	1854.335938	161.495651
23209.211223	2438.689500	1853.344727	-36.167770
23209.211223	2438.689500	1852.353516	-40.955215
23209.211223	2438.689500	1851.362305	45.790508
23209.211223	2438.689500	1850.370117	-89.255157
23209.211223	2438.689500	1849.377930	209.363022
23209.211223	2438.689500	1848.385742	122.390114
23209.211223	2438.689500	1847.393555	117.266518
23209.211223	2438.689500	1846.401367	-135.942352
23209.211223	2438.689500	1845.408203	-8.750851
23209.211223	2438.689500	1844.415039	-156.084274
23209.211223	2438.689500	1843.421875	21.447016
23209.211223	2438.689500	1842.428711	333.570526
23209.211223	2438.689500	1841.435547	-158.001770
23209.211223	2438.689500	1840.441406	76.895065
23209.211223	2438.689500	1839.448242	208.209366
23209.211223	2438.689500	1838.454102	84.520050
23209.211223	2438.689500	1837.459961	210.781342
23209.211223	2438.689500	1836.464844	-59.670208
23209.211223	2438.689500	1835.470703	30.323454
23209.211223	2438.689500	1834.475586	149.002686
23209.211223	2438.689500	1833.480469	17.716669
23209.211223	2438.689500	1832.485352	97.706734
23209.211223	2438.689500	1831.490234	4.671269
23209.211223	2438.689500	1830.495117	199.634872
23209.211223	2438.689500	1829.499023	113.574097
23209.211223	2438.689500	1828.502930	382.588715
23209.211223	2438.689500	1827.506836	147.517868
23209.211223	2438.689500	1826.510742	229.058075
23209.211223	2438.689500	1825.513672	204.900330
23209.211223	2438.689500	1824.517578	163.836258
23209.211223	2438.689500	1823.520508	129.840240
23209.211223	2438.689500	1822.523438	-50.506588
23209.211223	2438.689500	1821.526367	229.224869
23209.211223	2438.689500	1820.529297	55.830933
23209.211223	2438.689500	1819.531250	162.646469
23209.211223	2438.689500	1818.533203	156.694656
23209.211223	2438.689500	1817.535156	224.832428
23209.211223	2438.689500	1816.537109	319.127716
23209.211223	2438.689500	1815.539063	480.257813
23209.211223	2438.689500	1814.540039	224.699600
23209.211223	2438.689500	1813.541992	215.562531
23209.211223	2438.689500	1812.542969	-214.832199
23209.211223	2438.689500	1811.543945	249.412872
23209.211223	2438.689500	1810.543945	117.785828
23209.211223	2438.689500	1809.544922	265.815491
23209.211223	2438.689500	1808.544922	358.618774
23209.211223	2438.689500	1807.544922	200.230652
23209.211223	2438.689500	1806.544922	385.859985
23209.211223	2438.689500	1805.544922	74.246941
23209.211223	2438.689500	1804.544922	37.295765
23209.211223	2438.689500	1803.543945	138.698654
23209.211223	2438.689500	1802.542969	180.173264
23209.211223	2438.689500	1801.541992	97.289932
23209.211223	2438.689500	1800.541016	104.958961
23209.211223	2438.689500	1799.539063	47.981339
23209.211223	2438.689500	1798.538086	165.034653
23209.211223	2438.689500	1797.536133	86.205025
23209.211223	2438.689500	1796.534180	162.250458
23209.211223	2438.689500	1795.532227	183.216187
23209.211223	2438.689500	1794.529297	-106.013565
23209.211223	2438.689500	1793.527344	14.715498
23209.211223	2438.689500	1792.524414	118.499512
23209.211223	2438.689500	1791.521484	150.542938
23209.211223	2438.689500	1790.518555	175.219330
23209.211223	2438.689500	1789.514648	395.001984
23209.211223	2438.689500	1788.511719	114.340340
23209.211223	2438.689500	1787.507813	152.649078
23209.211223	2438.689500	1786.503906	55.024456
23209.211223	2438.689500	1785.500000	166.689880
23209.211223	2438.689500	1784.496094	268.577728
23209.211223	2438.689500	1783.491211	277.394714
23209.211223	2438.689500	1782.486328	74.257660
23209.211223	2438.689500	1781.481445	-71.938049
23209.211223	2438.689500	1780.476563	-163.603577
23209.211223	2438.689500	1779.471680	-143.708649
23209.211223	2438.689500	1778.465820	177.843231
23209.211223	2438.689500	1777.460938	351.703766
23209.211223	2438.689500	1776.455078	368.422211
23209.211223	2438.689500	1775.449219	-114.021507
23209.211223	2438.689500	1774.442383	118.468391
23209.211223	2438.689500	1773.436523	-133.833405
23209.211223	2438.689500	1772.429688	-160.707275
23209.211223	2438.689500	1771.422852	78.091354
23209.211223	2438.689500	1770.416016	311.817780
23209.211223	2438.689500	1769.409180	-145.358627
23209.211223	2438.689500	1768.402344	189.881958
23209.211223	2438.689500	1767.394531	130.954468
23209.211223	2438.689500	1766.386719	252.069626
23209.211223	2438.689500	1765.378906	14.832561
23209.211223	2438.689500	1764.371094	-61.329311
23209.211223	2438.689500	1763.362305	16.361498
23209.211223	2438.689500	1762.354492	67.735741
23209.211223	2438.689500	1761.345703	21.684479
23209.211223	2438.689500	1760.336914	27.533321
23209.211223	2438.689500	1759.328125	111.309525
23209.211223	2438.689500	1758.318359	-63.337265
23209.211223	2438.689500	1757.308594	225.923279
23209.211223	2438.689500	1756.299805	112.414589
23209.211223	2438.689500	1755.290039	-126.750061
23209.211223	2438.689500	1754.279297	-13.489180
23209.211223	2438.689500	1753.269531	118.438622
23209.211223	2438.689500	1752.258789	160.168854
23209.211223	2438.689500	1751.249023	-86.868637
23209.211223	2438.689500	1750.238281	-286.777405
23209.211223	2438.689500	1749.226563	144.354324
23209.211223	2438.689500	1748.215820	0.729353
23209.211223	2438.689500	1747.204102	-32.024658
23209.211223	2438.689500	1746.193359	-124.053551
23209.211223	2438.689500	1745.181641	-76.927742
23209.211223	2438.689500	1744.168945	-124.549667
23209.211223	2438.689500	1743.157227	73.217522
23209.211223	2438.689500	1742.144531	43.999493
23209.211223	2438.689500	1741.132813	-115.249535
23209.211223	2438.689500	1740.120117	3.796494
23209.211223	2438.689500	1739.106445	363.221680
23209.211223	2438.689500	1738.093750	-98.694115
23209.211223	2438.689500	1737.080078	31.352503
23209.211223	2438.689500	1736.067383	17.284906
23209.211223	2438.689500	1735.053711	-4.104038
23209.211223	2438.689500	1734.040039	99.225136
23209.211223	2438.689500	1733.025391	37.277065
23209.211223	2438.689500	1732.011719	-180.378494
23209.211223	2438.689500	1730.997070	25.881819
23209.211223	2438.689500	1729.982422	-213.366364
23209.211223	2438.689500	1728.967773	418.645721
23209.211223	2438.689500	1727.952148	334.347626
23209.211223	2438.689500	1726.937500	125.110214
23209.211223	2438.689500	1725.921875	426.472961
23209.211223	2438.689500	1724.906250	115.635765
23209.211223	2438.689500	1723.890625	117.629280
23209.211223	2438.689500	1722.875000	279.367004
23209.211223	2438.689500	1721.858398	222.068558
23209.211223	2438.689500	1720.841797	61.106689
23209.211223	2438.689500	1719.825195	128.047333
23209.211223	2438.689500	1718.808594	277.019012
23209.211223	2438.689500	1717.791992	190.704910
23209.211223	2438.689500	1716.774414	-109.637039
23209.211223	2438.689500	1715.756836	224.228363
23209.211223	2438.689500	1714.739258	165.505920
23209.211223	2438.689500	1713.721680	0.923930
23209.211223	2438.689500	1712.704102	261.173584
23209.211223	2438.689500	1711.685547	286.347961
23209.211223	2438.689500	1710.667969	168.168457
23209.211223	2438.689500	1709.649414	82.661140
23209.211223	2438.689500	1708.630859	147.138931
23209.211223	2438.689500	1707.611328	112.850586
23209.211223	2438.689500	1706.592773	127.659668
23209.211223	2438.689500	1705.573242	-50.030121
23209.211223	2438.689500	1704.553711	231.645767
23209.211223	2438.689500	1703.534180	-84.664154
23209.211223	2438.689500	1702.513672	-365.914917
23209.211223	2438.689500	1701.494141	118.938545
23209.211223	2438.689500	1700.473633	-150.898834
23209.211223	2438.689500	1699.453125	-118.686508
23209.211223	2438.689500	1698.432617	-194.379333
23209.211223	2438.689500	1697.412109	-427.078613
23209.211223	2438.689500	1696.390625	-86.413956
23209.211223	2438.689500	1695.369141	-85.392159
23209.211223	2438.689500	1694.347656	67.545746
23209.211223	2438.689500	1693.326172	-228.900650
23209.211223	2438.689500	1692.304688	-162.865707
23209.211223	2438.689500	1691.282227	120.426590
23209.211223	2438.689500	1690.260742	-15.025779
23209.211223	2438.689500	1689.238281	-61.786549
23209.211223	2438.689500	1688.214844	-295.689606
23209.211223	2438.689500	1687.192383	-95.001678
23209.211223	2438.689500	1686.168945	65.708862
23209.211223	2438.689500	1685.146484	-325.001892
23209.211223	2438.689500	1684.123047	-148.257462
23209.211223	2438.689500	1683.099609	-83.798935
23209.211223	2438.689500	1682.075195	22.480783
23209.211223	2438.689500	1681.051758	65.595932
23209.211223	2438.689500	1680.027344	264.871277
23209.211223	2438.689500	1679.002930	209.628860
23209.211223	2438.689500	1677.978516	560.156494
23209.211223	2438.689500	1676.953125	266.703461
23209.211223	2438.689500	1675.928711	385.986328
23209.211223	2438.689500	1674.903320	62.123837
23209.211223	2438.689500	1673.877930	269.696472
23209.211223	2438.689500	1672.852539	609.900330
23209.211223	2438.689500	1671.826172	392.970642
23209.211223	2438.689500	1670.800781	320.474731
23209.211223	2438.689500	1669.774414	529.674927
23209.211223	2438.689500	1668.748047	438.300690
23209.211223	2438.689500	1667.721680	460.935089
23209.211223	2438.689500	1666.694336	520.668274
23209.211223	2438.689500	1665.667969	275.445618
23209.211223	2438.689500	1664.640625	967.884094
23209.211223	2438.689500	1663.613281	457.244995
23209.211223	2438.689500	1662.585938	490.970734
23209.211223	2438.689500	1661.557617	819.893494
23209.211223	2438.689500	1660.530273	1004.488586
23209.211223	2438.689500	1659.501953	798.372498
23209.211223	2438.689500	1658.473633	752.621277
23209.211223	2438.689500	1657.444336	720.721313
23209.211223	2438.689500	1656.416016	809.599609
23209.211223	2438.689500	1655.386719	923.889832
23209.211223	2438.689500	1654.358398	803.552429
23209.211223	2438.689500	1653.328125	982.647156
23209.211223	2438.689500	1652.298828	1317.181030
23209.211223	2438.689500	1651.269531	1161.806152
23209.211223	2438.689500	1650.239258	1029.608154
23209.211223	2438.689500	1649.208984	1287.177612
23209.211223	2438.689500	1648.178711	1212.896240
23209.211223	2438.689500	1647.148438	1688.240112
23209.211223	2438.689500	1646.117188	1827.109131
23209.211223	2438.689500	1645.086914	1778.140259
23209.211223	2438.689500	1644.055664	1689.718384
23209.211223	2438.689500	1643.024414	2094.895020
23209.211223	2438.689500	1641.992188	2282.060547
23209.211223	2438.689500	1640.960938	2327.855957
23209.211223	2438.689500	1639.928711	2000.699219
23209.211223	2438.689500	1638.896484	2639.239502
23209.211223	2438.689500	1637.864258	2369.989746
23209.211223	2438.689500	1636.832031	2614.683838
23209.211223	2438.689500	1635.798828	2914.782227
23209.211223	2438.689500	1634.766602	2682.621338
23209.211223	2438.689500	1633.733398	2577.745850
23209.211223	2438.689500	1632.699219	2912.319580
23209.211223	2438.689500	1631.666016	2920.749023
23209.211223	2438.689500	1630.632813	2418.235107
23209.211223	2438.689500	1629.598633	2708.740234
23209.211223	2438.689500	1628.564453	2945.992188
23209.211223	2438.689500	1627.530273	3088.429199
23209.211223	2438.689500	1626.495117	2914.299561
23209.211223	2438.689500	1625.460938	2749.532959
23209.211223	2438.689500	1624.425781	2751.088623
23209.211223	2438.689500	1623.390625	2916.598389
23209.211223	2438.689500	1622.355469	2650.405273
23209.211223	2438.689500	1621.319336	2804.360840
23209.211223	2438.689500	1620.284180	2900.640381
23209.211223	2438.689500	1619.248047	3216.055664
23209.211223	2438.689500	1618.211914	3436.823730
23209.211223	2438.689500	1617.174805	3526.067627
23209.211223	2438.689500	1616.138672	3553.107422
23209.211223	2438.689500	1615.101563	3674.668945
23209.211223	2438.689500	1614.065430	3598.063477
23209.211223	2438.689500	1613.027344	3811.825195
23209.211223	2438.689500	1611.990234	3845.897217
23209.211223	2438.689500	1610.953125	4299.250488
23209.211223	2438.689500	1609.915039	4402.404785
23209.211223	2438.689500	1608.876953	4590.786621
23209.211223	2438.689500	1607.838867	4482.197266
23209.211223	2438.689500	1606.800781	4758.106934
23209.211223	2438.689500	1605.761719	4566.812012
23209.211223	2438.689500	1604.723633	4851.967285
23209.211223	2438.689500	1603.684570	4759.814453
23209.211223	2438.689500	1602.644531	4722.952637
23209.211223	2438.689500	1601.605469	4566.663574
23209.211223	2438.689500	1600.566406	4776.068359
23209.211223	2438.689500	1599.526367	4769.396484
23209.211223	2438.689500	1598.486328	4452.593750
23209.211223	2438.689500	1597.446289	4342.806641
23209.211223	2438.689500	1596.405273	4667.304199
23209.211223	2438.689500	1595.365234	4096.101074
23209.211223	2438.689500	1594.324219	4537.859375
23209.211223	2438.689500	1593.283203	4348.212891
23209.211223	2438.689500	1592.242188	3988.905518
23209.211223	2438.689500	1591.200195	4201.267578
23209.211223	2438.689500	1590.159180	4372.406738
23209.211223	2438.689500	1589.117188	4300.411133
23209.211223	2438.689500	1588.075195	4051.971191
23209.211223	2438.689500	1587.032227	4225.672363
23209.211223	2438.689500	1585.990234	4078.499512
23209.211223	2438.689500	1584.947266	3988.803955
23209.211223	2438.689500	1583.904297	4330.145020
23209.211223	2438.689500	1582.861328	3906.194824
23209.211223	2438.689500	1581.818359	3778.087646
23209.211223	2438.689500	1580.775391	4229.666016
23209.211223	2438.689500	1579.731445	3900.308838
23209.211223	2438.689500	1578.687500	3825.379395
23209.211223	2438.689500	1577.643555	3956.661621
23209.211223	2438.689500	1576.598633	3806.527100
23209.211223	2438.689500	1575.554688	3867.162842
23209.211223	2438.689500	1574.509766	3760.913086
23209.211223	2438.689500	1573.464844	3368.968018
23209.211223	2438.689500	1572.419922	3716.006348
23209.211223	2438.689500	1571.374023	3457.163818
23209.211223	2438.689500	1570.329102	3637.536133
23209.211223	2438.689500	1569.283203	3562.021484
23209.211223	2438.689500	1568.237305	3742.649414
23209.211223	2438.689500	1567.191406	3361.385254
23209.211223	2438.689500	1566.144531	3254.535645
23209.211223	2438.689500	1565.098633	3115.981445
23209.211223	2438.689500	1564.051758	3189.995850
23209.211223	2438.689500	1563.004883	3462.788574
23209.211223	2438.689500	1561.957031	2964.212158
23209.211223	2438.689500	1560.910156	2639.491211
23209.211223	2438.689500	1559.862305	2410.902588
23209.211223	2438.689500	1558.814453	2403.875977
23209.211223	2438.689500	1557.766602	2492.851074
23209.211223	2438.689500	1556.718750	2253.672363
23209.211223	2438.689500	1555.669922	2340.772949
23209.211223	2438.689500	1554.621094	1926.632935
23209.211223	2438.689500	1553.573242	2000.564697
23209.211223	2438.689500	1552.523438	1830.862183
23209.211223	2438.689500	1551.474609	1914.325684
23209.211223	2438.689500	1550.424805	1398.999634
23209.211223	2438.689500	1549.375000	1578.592651
23209.211223	2438.689500	1548.325195	1517.036743
23209.211223	2438.689500	1547.275391	1585.482422
23209.211223	2438.689500	1546.225586	1485.746216
23209.211223	2438.689500	1545.174805	1563.732544
23209.211223	2438.689500	1544.124023	1400.811157
23209.211223	2438.689500	1543.073242	1404.228149
23209.211223	2438.689500	1542.022461	1692.122192
23209.211223	2438.689500	1540.970703	1275.381104
23209.211223	2438.689500	1539.919922	1027.278442
23209.211223	2438.689500	1538.868164	1172.650513
23209.211223	2438.689500	1537.815430	1279.578003
23209.211223	2438.689500	1536.763672	1279.981323
23209.211223	2438.689500	1535.710938	1139.813599
23209.211223	2438.689500	1534.659180	1470.025024
23209.211223	2438.689500	1533.606445	1341.759277
23209.211223	2438.689500	1532.552734	1229.681030
23209.211223	2438.689500	1531.500000	1288.139404
23209.211223	2438.689500	1530.446289	1222.039063
23209.211223	2438.689500	1529.393555	972.511475
23209.211223	2438.689500	1528.338867	725.587585
23209.211223	2438.689500	1527.285156	1034.616577
23209.211223	2438.689500	1526.231445	577.514221
23209.211223	2438.689500	1525.176758	415.523315
23209.211223	2438.689500	1524.122070	355.861603
23209.211223	2438.689500	1523.067383	307.837280
23209.211223	2438.689500	1522.012695	-84.210312
23209.211223	2438.689500	1520.957031	373.499817
23209.211223	2438.689500	1519.901367	518.826782
23209.211223	2438.689500	1518.845703	73.486908
23209.211223	2438.689500	1517.790039	124.334976
23209.211223	2438.689500	1516.734375	544.341064
23209.211223	2438.689500	1515.677734	407.849976
23209.211223	2438.689500	1514.621094	81.686066
23209.211223	2438.689500	1513.564453	-56.321289
23209.211223	2438.689500	1512.507813	154.266617
23209.211223	2438.689500	1511.450195	677.057251
23209.211223	2438.689500	1510.393555	255.109039
23209.211223	2438.689500	1509.335938	269.790222
23209.211223	2438.689500	1508.278320	97.233917
23209.211223	2438.689500	1507.219727	202.906036
23209.211223	2438.689500	1506.162109	82.997276
23209.211223	2438.689500	1505.103516	19.885983
23209.211223	2438.689500	1504.044922	-76.753105
23209.211223	2438.689500	1502.986328	-118.866302
23209.211223	2438.689500	1501.926758	-239.648453
23209.211223	2438.689500	1500.868164	-127.650246
23209.211223	2438.689500	1499.808594	54.542656
23209.211223	2438.689500	1498.749023	-47.209118
23209.211223	2438.689500	1497.688477	-195.970413
23209.211223	2438.689500	1496.628906	-229.356964
23209.211223	2438.689500	1495.568359	269.557648
23209.211223	2438.689500	1494.507813	-189.224716
23209.211223	2438.689500	1493.447266	-142.775650
23209.211223	2438.689500	1492.386719	178.819534
23209.211223	2438.689500	1491.325195	169.505447
23209.211223	2438.689500	1490.263672	162.772858
23209.211223	2438.689500	1489.202148	208.153564
23209.211223	2438.689500	1488.140625	319.120728
23209.211223	2438.689500	1487.079102	70.282265
23209.211223	2438.689500	1486.016602	-63.382664
23209.211223	2438.689500	1484.954102	95.790833
23209.211223	2438.689500	1483.891602	176.508209
23209.211223	2438.689500	1482.829102	360.969055
23209.211223	2438.689500	1481.765625	458.005219
23209.211223	2438.689500	1480.702148	240.635696
23209.211223	2438.689500	1479.638672	133.827560
23209.211223	2438.689500	1478.575195	317.245087
23209.211223	2438.689500	1477.511719	390.843567
23209.211223	2438.689500	1476.447266	379.442566
23209.211223	2438.689500	1475.382813	624.242981
23209.211223	2438.689500	1474.318359	539.205933
23209.211223	2438.689500	1473.253906	268.483704
23209.211223	2438.689500	1472.189453	265.170197
23209.211223	2438.689500	1471.124023	522.344177
23209.211223	2438.689500	1470.058594	539.741943
23209.211223	2438.689500	1468.993164	292.851746
23209.211223	2438.689500	1467.927734	302.228180
23209.211223	2438.689500	1466.861328	323.033173
23209.211223	2438.689500	1465.794922	444.794678
23209.211223	2438.689500	1464.728516	535.373840
23209.211223	2438.689500	1463.662109	507.901306
23209.211223	2438.689500	1462.594727	568.690552
23209.211223	2438.689500	1461.528320	576.680664
23209.211223	2438.689500	1460.460938	436.137756
23209.211223	2438.689500	1459.393555	631.189209
23209.211223	2438.689500	1458.326172	911.029968
23209.211223	2438.689500	1457.257813	1024.107788
23209.211223	2438.689500	1456.189453	458.867310
23209.211223	2438.689500	1455.121094	451.282806
23209.211223	2438.689500	1454.052734	883.613586
23209.211223	2438.689500	1452.984375	469.892273
23209.211223	2438.689500	1451.915039	581.060242
23209.211223	2438.689500	1450.845703	502.974518
23209.211223	2438.689500	1449.776367	828.140442
23209.211223	2438.689500	1448.707031	527.735107
23209.211223	2438.689500	1447.636719	736.532959
23209.211223	2438.689500	1446.567383	428.665222
23209.211223	2438.689500	1445.497070	746.384705
23209.211223	2438.689500	1444.425781	533.033325
23209.211223	2438.689500	1443.355469	756.129089
23209.211223	2438.689500	1442.285156	374.073914
23209.211223	2438.689500	1441.213867	384.817596
23209.211223	2438.689500	1440.142578	568.153381
23209.211223	2438.689500	1439.070313	136.996506
23209.211223	2438.689500	1437.999023	327.289612
23209.211223	2438.689500	1436.926758	442.194336
23209.211223	2438.689500	1435.854492	172.526093
23209.211223	2438.689500	1434.782227	256.219421
23209.211223	2438.689500	1433.709961	474.947205
23209.211223	2438.689500	1432.636719	8.780571
23209.211223	2438.689500	1431.563477	243.457443
23209.211223	2438.689500	1430.490234	510.670105
23209.211223	2438.689500	1429.416992	385.352997
23209.211223	2438.689500	1428.343750	254.383896
23209.211223	2438.689500	1427.269531	141.384155
23209.211223	2438.689500	1426.195313	312.949432
23209.211223	2438.689500	1425.121094	-32.532810
23209.211223	2438.689500	1424.046875	519.662781
23209.211223	2438.689500	1422.971680	515.113647
23209.211223	2438.689500	1421.896484	-47.439304
23209.211223	2438.689500	1420.821289	33.055351
23209.211223	2438.689500	1419.746094	487.051361
23209.211223	2438.689500	1418.669922	254.744400
23209.211223	2438.689500	1417.594727	632.184631
23209.211223	2438.689500	1416.518555	553.116577
23209.211223	2438.689500	1415.442383	250.414001
23209.211223	2438.689500	1414.365234	464.574402
23209.211223	2438.689500	1413.289063	219.333099
23209.211223	2438.689500	1412.211914	671.288269
23209.211223	2438.689500	1411.134766	561.175842
23209.211223	2438.689500	1410.057617	483.316528
23209.211223	2438.689500	1408.979492	179.724655
23209.211223	2438.689500	1407.902344	700.503784
23209.211223	2438.689500	1406.824219	487.840668
23209.211223	2438.689500	1405.746094	907.629822
23209.211223	2438.689500	1404.666992	551.675720
23209.211223	2438.689500	1403.588867	842.028870
23209.211223	2438.689500	1402.509766	1110.346802
23209.211223	2438.689500	1401.430664	889.911621
23209.211223	2438.689500	1400.351563	702.948059
23209.211223	2438.689500	1399.271484	1159.361450
23209.211223	2438.689500	1398.192383	916.896729
23209.211223	2438.689500	1397.112305	1100.229736
23209.211223	2438.689500	1396.031250	1451.417847
23209.211223	2438.689500	1394.951172	1566.563965
23209.211223	2438.689500	1393.871094	1566.306152
23209.211223	2438.689500	1392.790039	1976.320557
23209.211223	2438.689500	1391.708984	1917.716797
23209.211223	2438.689500	1390.626953	2201.616699
23209.211223	2438.689500	1389.545898	2131.991699
23209.211223	2438.689500	1388.463867	2438.443359
23209.211223	2438.689500	1387.381836	2660.445068
23209.211223	2438.689500	1386.299805	2413.799805
23209.211223	2438.689500	1385.217773	2344.353271
23209.211223	2438.689500	1384.134766	2338.521484
23209.211223	2438.689500	1383.051758	2268.132813
23209.211223	2438.689500	1381.968750	2285.831543
23209.211223	2438.689500	1380.885742	2236.939697
23209.211223	2438.689500	1379.802734	2253.137207
23209.211223	2438.689500	1378.718750	2560.573486
23209.211223	2438.689500	1377.634766	2500.819580
23209.211223	2438.689500	1376.550781	1935.937866
23209.211223	2438.689500	1375.465820	1914.190063
23209.211223	2438.689500	1374.381836	1557.771240
23209.211223	2438.689500	1373.296875	1729.228394
23209.211223	2438.689500	1372.211914	1743.602173
23209.211223	2438.689500	1371.126953	1831.745728
23209.211223	2438.689500	1370.041016	1022.685547
23209.211223	2438.689500	1368.955078	1170.258301
23209.211223	2438.689500	1367.869141	1138.090576
23209.211223	2438.689500	1366.783203	1305.615845
23209.211223	2438.689500	1365.697266	1078.831665
23209.211223	2438.689500	1364.610352	1064.700806
23209.211223	2438.689500	1363.523438	904.314880
23209.211223	2438.689500	1362.436523	1223.478149
23209.211223	2438.689500	1361.349609	1014.372009
23209.211223	2438.689500	1360.261719	891.910889
23209.211223	2438.689500	1359.174805	1308.954102
23209.211223	2438.689500	1358.086914	996.610596
23209.211223	2438.689500	1356.998047	1057.339600
23209.211223	2438.689500	1355.910156	856.255005
23209.211223	2438.689500	1354.821289	953.451233
23209.211223	2438.689500	1353.732422	971.234985
23209.211223	2438.689500	1352.643555	886.681946
23209.211223	2438.689500	1351.554688	884.893127
23209.211223	2438.689500	1350.464844	743.747620
23209.211223	2438.689500	1349.375000	999.527771
23209.211223	2438.689500	1348.285156	1044.371704
23209.211223	2438.689500	1347.195313	711.560181
23209.211223	2438.689500	1346.105469	917.872009
23209.211223	2438.689500	1345.014648	639.473999
23209.211223	2438.689500	1343.923828	880.606689
23209.211223	2438.689500	1342.833008	733.189453
23209.211223	2438.689500	1341.741211	1022.692383
23209.211223	2438.689500	1340.650391	1210.335815
23209.211223	2438.689500	1339.558594	733.289124
23209.211223	2438.689500	1338.466797	925.036194
23209.211223	2438.689500	1337.374023	1430.631592
23209.211223	2438.689500	1336.282227	1149.368774
23209.211223	2438.689500	1335.189453	1454.685669
23209.211223	2438.689500	1334.096680	1557.130249
23209.211223	2438.689500	1333.003906	1553.182007
23209.211223	2438.689500	1331.910156	1377.109375
23209.211223	2438.689500	1330.817383	1152.995239
23209.211223	2438.689500	1329.723633	1093.464600
23209.211223	2438.689500	1328.629883	1312.980469
23209.211223	2438.689500	1327.535156	988.116150
23209.211223	2438.689500	1326.441406	1131.053223
23209.211223	2438.689500	1325.346680	897.028931
23209.211223	2438.689500	1324.251953	874.576111
23209.211223	2438.689500	1323.156250	764.987305
23209.211223	2438.689500	1322.061523	1120.273193
23209.211223	2438.689500	1320.965820	1087.207031
23209.211223	2438.689500	1319.870117	821.501038
23209.211223	2438.689500	1318.774414	720.468811
23209.211223	2438.689500	1317.678711	854.572632
23209.211223	2438.689500	1316.582031	938.818542
23209.211223	2438.689500	1315.485352	1267.402466
23209.211223	2438.689500	1314.388672	1011.517151
23209.211223	2438.689500	1313.291016	1161.286133
23209.211223	2438.689500	1312.194336	1186.995361
23209.211223	2438.689500	1311.096680	1245.299194
23209.211223	2438.689500	1309.999023	1033.916382
23209.211223	2438.689500	1308.901367	1317.045410
23209.211223	2438.689500	1307.802734	1374.775269
23209.211223	2438.689500	1306.705078	1381.137085
23209.211223	2438.689500	1305.606445	1464.440308
23209.211223	2438.689500	1304.506836	1143.590698
23209.211223	2438.689500	1303.408203	1164.615356
23209.211223	2438.689500	1302.308594	1264.421387
23209.211223	2438.689500	1301.208984	1375.178345
23209.211223	2438.689500	1300.109375	1339.629761
23209.211223	2438.689500	1299.009766	1750.923340
23209.211223	2438.689500	1297.909180	1410.744263
23209.211223	2438.689500	1296.808594	1392.056641
23209.211223	2438.689500	1295.708008	1620.326416
23209.211223	2438.689500	1294.607422	1547.223145
23209.211223	2438.689500	1293.506836	1374.710938
23209.211223	2438.689500	1292.405273	1468.371704
23209.211223	2438.689500	1291.303711	1300.628296
23209.211223	2438.689500	1290.202148	869.802185
23209.211223	2438.689500	1289.099609	956.137756
23209.211223	2438.689500	1287.998047	540.189697
23209.211223	2438.689500	1286.895508	94.450920
23209.211223	2438.689500	1285.792969	149.472931
23209.211223	2438.689500	1284.689453	101.254036
23209.211223	2438.689500	1283.586914	19.463869
23209.211223	2438.689500	1282.483398	164.830124
23209.211223	2438.689500	1281.379883	178.540878
23209.211223	2438.689500	1280.276367	19.888506
23209.211223	2438.689500	1279.171875	154.685944
23209.211223	2438.689500	1278.067383	245.109467
23209.211223	2438.689500	1276.962891	-69.378578
23209.211223	2438.689500	1275.858398	20.936129
23209.211223	2438.689500	1274.753906	101.597992
23209.211223	2438.689500	1273.648438	206.814590
23209.211223	2438.689500	1272.542969	16.234777
23209.211223	2438.689500	1271.437500	-103.897774
23209.211223	2438.689500	1270.331055	-150.662567
23209.211223	2438.689500	1269.225586	-122.167664
23209.211223	2438.689500	1268.119141	-3.081305
23209.211223	2438.689500	1267.012695	37.003193
23209.211223	2438.689500	1265.906250	-183.029846
23209.211223	2438.689500	1264.798828	-71.064537
23209.211223	2438.689500	1263.691406	65.161293
23209.211223	2438.689500	1262.583984	23.340599
23209.211223	2438.689500	1261.476563	195.734711
23209.211223	2438.689500	1260.368164	139.777863
23209.211223	2438.689500	1259.260742	142.102386
23209.211223	2438.689500	1258.152344	50.250980
23209.211223	2438.689500	1257.043945	219.448837
23209.211223	2438.689500	1255.934570	240.368469
23209.211223	2438.689500	1254.825195	413.852295
23209.211223	2438.689500	1253.716797	385.164703
23209.211223	2438.689500	1252.606445	254.901932
23209.211223	2438.689500	1251.497070	249.435928
23209.211223	2438.689500	1250.387695	93.560333
23209.211223	2438.689500	1249.277344	227.154572
23209.211223	2438.689500	1248.166992	-124.923042
23209.211223	2438.689500	1247.055664	-5.486493
23209.211223	2438.689500	1245.945313	-144.836258
23209.211223	2438.689500	1244.833984	-10.064923
23209.211223	2438.689500	1243.722656	45.445786
23209.211223	2438.689500	1242.611328	-247.542587
23209.211223	2438.689500	1241.499023	-57.258190
23209.211223	2438.689500	1240.387695	-103.766663
23209.211223	2438.689500	1239.275391	99.710175
23209.211223	2438.689500	1238.162109	-36.044727
23209.211223	2438.689500	1237.049805	214.518585
23209.211223	2438.689500	1235.936523	154.361618
23209.211223	2438.689500	1234.823242	356.210541
23209.211223	2438.689500	1233.709961	384.703979
23209.211223	2438.689500	1232.596680	150.701324
23209.211223	2438.689500	1231.482422	26.952530
23209.211223	2438.689500	1230.369141	188.928284
23209.211223	2438.689500	1229.253906	238.747559
23209.211223	2438.689500	1228.139648	325.605927
23209.211223	2438.689500	1227.025391	309.919373
23209.211223	2438.689500	1225.910156	182.195496
23209.211223	2438.689500	1224.794922	380.786163
23209.211223	2438.689500	1223.679688	390.681702
23209.211223	2438.689500	1222.563477	197.873901
23209.211223	2438.689500	1221.447266	198.793030
23209.211223	2438.689500	1220.331055	-45.830284
23209.211223	2438.689500	1219.214844	88.363533
23209.211223	2438.689500	1218.098633	-53.861622
23209.211223	2438.689500	1216.981445	4.013045
23209.211223	2438.689500	1215.864258	32.174141
23209.211223	2438.689500	1214.747070	-53.184704
23209.211223	2438.689500	1213.629883	26.489540
23209.211223	2438.689500	1212.511719	7.559151
23209.211223	2438.689500	1211.393555	-156.470490
23209.211223	2438.689500	1210.275391	-118.759201
23209.211223	2438.689500	1209.157227	-164.558548
23209.211223	2438.689500	1208.038086	16.052044
23209.211223	2438.689500	1206.918945	145.433853
23209.211223	2438.689500	1205.799805	-235.178299
23209.211223	2438.689500	1204.680664	-147.823029
23209.211223	2438.689500	1203.560547	-66.638657
23209.211223	2438.689500	1202.441406	156.262177
23209.211223	2438.689500	1201.321289	-257.907471
23209.211223	2438.689500	1200.200195	-16.075127
23209.211223	2438.689500	1199.080078	-126.591003
23209.211223	2438.689500	1197.958984	-215.502380
23209.211223	2438.689500	1196.837891	-387.671509
23209.211223	2438.689500	1195.716797	-146.086075
23209.211223	2438.689500	1194.594727	-59.125271
23209.211223	2438.689500	1193.473633	-181.726074
23209.211223	2438.689500	1192.351563	-92.130096
23209.211223	2438.689500	1191.229492	-119.986038
23209.211223	2438.689500	1190.106445	-176.902039
23209.211223	2438.689500	1188.984375	86.730888
23209.211223	2438.689500	1187.861328	-188.423462
23209.211223	2438.689500	1186.738281	-254.892166
23209.211223	2438.689500	1185.614258	-73.422386
23209.211223	2438.689500	1184.491211	-247.091644
23209.211223	2438.689500	1183.367188	-372.822937
23209.211223	2438.689500	1182.243164	0.579890
23209.211223	2438.689500	1181.119141	89.920471
23209.211223	2438.689500	1179.994141	-18.212925
23209.211223	2438.689500	1178.869141	45.860634
23209.211223	2438.689500	1177.744141	93.206573
23209.211223	2438.689500	1176.619141	163.972366
23209.211223	2438.689500	1175.493164	229.468536
23209.211223	2438.689500	1174.368164	21.473469
23209.211223	2438.689500	1173.242188	-23.562824
23209.211223	2438.689500	1172.115234	-145.670898
23209.211223	2438.689500	1170.989258	-160.686752
23209.211223	2438.689500	1169.862305	-67.118118
23209.211223	2438.689500	1168.735352	-35.642097
23209.211223	2438.689500	1167.608398	25.666307
23209.211223	2438.689500	1166.481445	97.351265
23209.211223	2438.689500	1165.353516	-44.490589
23209.211223	2438.689500	1164.225586	99.308022
23209.211223	2438.689500	1163.097656	91.623352
23209.211223	2438.689500	1161.968750	6.243125
23209.211223	2438.689500	1160.840820	41.328068
23209.211223	2438.689500	1159.711914	-60.817295
23209.211223	2438.689500	1158.583008	174.709457
23209.211223	2438.689500	1157.453125	-59.734085
23209.211223	2438.689500	1156.324219	111.176079
23209.211223	2438.689500	1155.194336	-62.049488
23209.211223	2438.689500	1154.064453	136.304779
23209.211223	2438.689500	1152.933594	171.844025
23209.211223	2438.689500	1151.803711	102.454018
23209.211223	2438.689500	1150.672852	211.423599
23209.211223	2438.689500	1149.541992	148.105682
23209.211223	2438.689500	1148.411133	4.622910
23209.211223	2438.689500	1147.279297	32.199005
23209.211223	2438.689500	1146.147461	163.267456
23209.211223	2438.689500	1145.015625	207.380646
23209.211223	2438.689500	1143.883789	128.616425
23209.211223	2438.689500	1142.750977	226.369873
23209.211223	2438.689500	1141.619141	-26.607204
23209.211223	2438.689500	1140.486328	85.866196
23209.211223	2438.689500	1139.352539	301.363647
23209.211223	2438.689500	1138.219727	424.417175
23209.211223	2438.689500	1137.085938	394.138641
23209.211223	2438.689500	1135.952148	57.371212
23209.211223	2438.689500	1134.818359	412.384277
23209.211223	2438.689500	1133.683594	372.101288
23209.211223	2438.689500	1132.549805	436.975708
23209.211223	2438.689500	1131.415039	661.049744
23209.211223	2438.689500	1130.279297	1089.123657
23209.211223	2438.689500	1129.144531	1188.347168
23209.211223	2438.689500	1128.008789	732.431641
23209.211223	2438.689500	1126.873047	824.836792
23209.211223	2438.689500	1125.737305	859.189514
23209.211223	2438.689500	1124.601563	540.443115
23209.211223	2438.689500	1123.464844	734.785522
23209.211223	2438.689500	1122.328125	634.104797
23209.211223	2438.689500	1121.191406	887.326965
23209.211223	2438.689500	1120.054688	583.737244
23209.211223	2438.689500	1118.916992	695.066040
23209.211223	2438.689500	1117.779297	775.413147
23209.211223	2438.689500	1116.641602	723.534607
23209.211223	2438.689500	1115.503906	712.477539
23209.211223	2438.689500	1114.365234	632.055847
23209.211223	2438.689500	1113.226563	600.899231
23209.211223	2438.689500	1112.087891	645.607605
23209.211223	2438.689500	1110.949219	537.452698
23209.211223	2438.689500	1109.809570	351.615143
23209.211223	2438.689500	1108.669922	361.725311
23209.211223	2438.689500	1107.530273	734.281616
23209.211223	2438.689500	1106.390625	647.985596
23209.211223	2438.689500	1105.250000	490.372894
23209.211223	2438.689500	1104.109375	313.287354
23209.211223	2438.689500	1102.968750	599.967651
23209.211223	2438.689500	1101.828125	812.679993
23209.211223	2438.689500	1100.686523	940.287476
23209.211223	2438.689500	1099.544922	816.982422
23209.211223	2438.689500	1098.403320	667.233948
23209.211223	2438.689500	1097.261719	838.355164
23209.211223	2438.689500	1096.120117	796.104492
23209.211223	2438.689500	1094.977539	803.244934
23209.211223	2438.689500	1093.834961	785.740845
23209.211223	2438.689500	1092.691406	966.577820
23209.211223	2438.689500	1091.548828	846.628357
23209.211223	2438.689500	1090.405273	956.456421
23209.211223	2438.689500	1089.261719	761.447021
23209.211223	2438.689500	1088.118164	767.360535
23209.211223	2438.689500	1086.973633	750.730713
23209.211223	2438.689500	1085.829102	602.423462
23209.211223	2438.689500	1084.684570	1019.607422
23209.211223	2438.689500	1083.540039	595.681885
23209.211223	2438.689500	1082.395508	600.620117
23209.211223	2438.689500	1081.250000	955.105774
23209.211223	2438.689500	1080.104492	906.181213
23209.211223	2438.689500	1078.958984	937.898010
23209.211223	2438.689500	1077.812500	539.290955
23209.211223	2438.689500	1076.666016	553.568848
23209.211223	2438.689500	1075.519531	801.408325
23209.211223	2438.689500	1074.373047	646.808411
23209.211223	2438.689500	1073.226563	843.560913
23209.211223	2438.689500	1072.079102	809.912964
23209.211223	2438.689500	1070.931641	823.786987
23209.211223	2438.689500	1069.784180	606.697571
23209.211223	2438.689500	1068.635742	907.928589
23209.211223	2438.689500	1067.487305	940.473267
23209.211223	2438.689500	1066.338867	632.961487
23209.211223	2438.689500	1065.190430	964.804321
23209.211223	2438.689500	1064.041992	896.961792
23209.211223	2438.689500	1062.892578	569.775879
23209.211223	2438.689500	1061.743164	648.119202
23209.211223	2438.689500	1060.593750	679.045654
23209.211223	2438.689500	1059.443359	440.086273
23209.211223	2438.689500	1058.292969	685.932556
23209.211223	2438.689500	1057.142578	515.450806
23209.211223	2438.689500	1055.992188	479.907745
23209.211223	2438.689500	1054.841797	543.450989
23209.211223	2438.689500	1053.690430	479.761353
23209.211223	2438.689500	1052.539063	677.796753
23209.211223	2438.689500	1051.387695	486.630493
23209.211223	2438.689500	1050.235352	687.085876
23209.211223	2438.689500	1049.083984	600.713013
23209.211223	2438.689500	1047.931641	770.286072
23209.211223	2438.689500	1046.778320	549.477844
23209.211223	2438.689500	1045.625977	481.643860
23209.211223	2438.689500	1044.472656	431.694336
23209.211223	2438.689500	1043.319336	485.097778
23209.211223	2438.689500	1042.166016	544.066345
23209.211223	2438.689500	1041.012695	497.036774
23209.211223	2438.689500	1039.858398	567.202515
23209.211223	2438.689500	1038.704102	612.358704
23209.211223	2438.689500	1037.549805	468.483093
23209.211223	2438.689500	1036.394531	368.458374
23209.211223	2438.689500	1035.239258	406.023315
23209.211223	2438.689500	1034.083984	314.657684
23209.211223	2438.689500	1032.928711	351.184998
23209.211223	2438.689500	1031.773438	394.297943
23209.211223	2438.689500	1030.617188	576.769348
23209.211223	2438.689500	1029.460938	165.061188
23209.211223	2438.689500	1028.304688	420.428619
23209.211223	2438.689500	1027.147461	285.933289
23209.211223	2438.689500	1025.991211	412.358063
23209.211223	2438.689500	1024.833984	395.045532
23209.211223	2438.689500	1023.675781	371.936188
23209.211223	2438.689500	1022.518555	144.194305
23209.211223	2438.689500	1021.360352	485.091675
23209.211223	2438.689500	1020.202148	316.454285
23209.211223	2438.689500	1019.043945	489.517792
23209.211223	2438.689500	1017.884766	274.765137
23209.211223	2438.689500	1016.726563	308.382813
23209.211223	2438.689500	1015.567383	82.659470
23209.211223	2438.689500	1014.407227	267.103973
23209.211223	2438.689500	1013.248047	452.489319
23209.211223	2438.689500	1012.087891	162.531387
23209.211223	2438.689500	1010.927734	40.761856
23209.211223	2438.689500	1009.767578	251.213333
23209.211223	2438.689500	1008.606445	184.760727
23209.211223	2438.689500	1007.446289	-34.818409
23209.211223	2438.689500	1006.285156	292.417694
23209.211223	2438.689500	1005.123047	255.636169
23209.211223	2438.689500	1003.961914	393.607208
23209.211223	2438.689500	1002.799805	157.361984
23209.211223	2438.689500	1001.637695	415.866394
23209.211223	2438.689500	1000.475586	450.110016
23209.211223	2438.689500	999.312500	390.904755
23209.211223	2438.689500	998.149414	362.738129
23209.211223	2438.689500	996.986328	301.787292
23209.211223	2438.689500	995.823242	357.916809
23209.211223	2438.689500	994.659180	21.059410
23209.211223	2438.689500	993.496094	405.568420
23209.211223	2438.689500	992.332031	137.575485
23209.211223	2438.689500	991.166992	149.308289
23209.211223	2438.689500	990.002930	223.665421
23209.211223	2438.689500	988.837891	114.106293
23209.211223	2438.689500	987.672852	204.929504
23209.211223	2438.689500	986.506836	258.829071
23209.211223	2438.689500	985.341797	206.877838
23209.211223	2438.689500	984.175781	180.886322
23209.211223	2438.689500	983.009766	-13.231460
23209.211223	2438.689500	981.843750	-74.872643
23209.211223	2438.689500	980.676758	10.674119
23209.211223	2438.689500	979.509766	-134.280533
23209.211223	2438.689500	978.342773	170.233398
23209.211223	2438.689500	977.175781	-219.980087
23209.211223	2438.689500	976.007813	-55.016441
23209.211223	2438.689500	974.839844	58.835480
23209.211223	2438.689500	973.671875	20.096455
23209.211223	2438.689500	972.503906	-118.056503
23209.211223	2438.689500	971.334961	11.021185
23209.211223	2438.689500	970.166016	94.142380
23209.211223	2438.689500	968.997070	139.919617
23209.211223	2438.689500	967.828125	73.143166
23209.211223	2438.689500	966.658203	30.578531
23209.211223	2438.689500	965.488281	90.474220
23209.211223	2438.689500	964.318359	245.600937
23209.211223	2438.689500	963.148438	94.002831
23209.211223	2438.689500	961.977539	148.658127
23209.211223	2438.689500	960.806641	152.206055
23209.211223	2438.689500	959.635742	236.177048
23209.211223	2438.689500	958.463867	186.010193
23209.211223	2438.689500	957.292969	200.094315
23209.211223	2438.689500	956.121094	365.417755
23209.211223	2438.689500	954.948242	436.891663
23209.211223	2438.689500	953.776367	755.783936
23209.211223	2438.689500	952.603516	231.572891
23209.211223	2438.689500	951.430664	626.122559
23209.211223	2438.689500	950.257813	372.230804
23209.211223	2438.689500	949.084961	361.539276
23209.211223	2438.689500	947.911133	195.863770
23209.211223	2438.689500	946.737305	368.933441
23209.211223	2438.689500	945.563477	82.286446
23209.211223	2438.689500	944.388672	-146.181534
23209.211223	2438.689500	943.213867	104.899391
23209.211223	2438.689500	942.039063	-207.465942
23209.211223	2438.689500	940.864258	-157.487518
23209.211223	2438.689500	939.688477	140.618958
23209.211223	2438.689500	938.513672	352.283722
23209.211223	2438.689500	937.337891	328.035339
23209.211223	2438.689500	936.161133	36.663746
23209.211223	2438.689500	934.985352	227.589417
23209.211223	2438.689500	933.808594	309.586945
23209.211223	2438.689500	932.631836	333.610107
23209.211223	2438.689500	931.454102	116.657890
23209.211223	2438.689500	930.277344	638.887146
23209.211223	2438.689500	929.099609	410.203156
23209.211223	2438.689500	927.921875	436.505035
23209.211223	2438.689500	926.743164	511.395172
23209.211223	2438.689500	925.565430	157.712036
23209.211223	2438.689500	924.386719	394.776825
23209.211223	2438.689500	923.208008	117.637016
23209.211223	2438.689500	922.028320	312.973083
23209.211223	2438.689500	920.849609	105.412506
23209.211223	2438.689500	919.669922	112.579117
23209.211223	2438.689500	919.474609	239.368744
23209.211223	2438.689500	918.309570	126.699493
23209.211223	2438.689500	917.143555	134.393555
23209.211223	2438.689500	915.977539	63.437763
23209.211223	2438.689500	914.810547	-104.612564
23209.211223	2438.689500	913.644531	-87.622253
23209.211223	2438.689500	912.477539	10.284368
23209.211223	2438.689500	911.310547	-88.304375
23209.211223	2438.689500	910.143555	-62.065731
23209.211223	2438.689500	908.975586	65.828995
23209.211223	2438.689500	907.807617	71.253227
23209.211223	2438.689500	906.639648	-258.179321
23209.211223	2438.689500	905.471680	-231.897919
23209.211223	2438.689500	904.303711	-166.376770
23209.211223	2438.689500	903.134766	-160.877106
23209.211223	2438.689500	901.965820	-224.597885
23209.211223	2438.689500	900.796875	-39.122723
23209.211223	2438.689500	899.626953	-58.996105
23209.211223	2438.689500	898.457031	1.862242
23209.211223	2438.689500	897.287109	7.368629
23209.211223	2438.689500	896.117188	79.732307
23209.211223	2438.689500	894.947266	163.600021
23209.211223	2438.689500	893.776367	208.276840
23209.211223	2438.689500	892.605469	188.438614
23209.211223	2438.689500	891.434570	200.864838
23209.211223	2438.689500	890.262695	135.007034
23209.211223	2438.689500	889.091797	248.763458
23209.211223	2438.689500	887.919922	212.868973
23209.211223	2438.689500	886.748047	257.548126
23209.211223	2438.689500	885.575195	141.158661
23209.211223	2438.689500	884.403320	-150.012665
23209.211223	2438.689500	883.230469	-208.748566
23209.211223	2438.689500	882.057617	-170.869522
23209.211223	2438.689500	880.883789	280.843475
23209.211223	2438.689500	879.710938	-122.699883
23209.211223	2438.689500	878.537109	179.459839
23209.211223	2438.689500	877.362305	123.082390
23209.211223	2438.689500	876.188477	-13.670696
23209.211223	2438.689500	875.013672	60.947128
23209.211223	2438.689500	873.839844	-50.455410
23209.211223	2438.689500	872.664063	-113.578751
23209.211223	2438.689500	871.489258	59.744076
23209.211223	2438.689500	870.313477	127.449059
23209.211223	2438.689500	869.138672	78.119377
23209.211223	2438.689500	867.962891	90.759369
23209.211223	2438.689500	866.786133	-233.721008
23209.211223	2438.689500	865.610352	-156.799210
23209.211223	2438.689500	864.433594	-111.988495
23209.211223	2438.689500	863.256836	24.491756
23209.211223	2438.689500	862.079102	25.731455
23209.211223	2438.689500	860.902344	120.907310
23209.211223	2438.689500	859.724609	7.613446
23209.211223	2438.689500	858.546875	-151.430145
23209.211223	2438.689500	857.368164	-179.883636
23209.211223	2438.689500	856.190430	240.357315
23209.211223	2438.689500	855.011719	-30.755800
23209.211223	2438.689500	853.833008	-8.854643
23209.211223	2438.689500	852.654297	-121.935768
23209.211223	2438.689500	851.474609	-319.591064
23209.211223	2438.689500	850.294922	-96.379990
23209.211223	2438.689500	849.115234	-300.810883
23209.211223	2438.689500	847.935547	-68.544456
23209.211223	2438.689500	846.754883	-110.615990
23209.211223	2438.689500	845.575195	-241.788574
23209.211223	2438.689500	844.393555	145.688385
23209.211223	2438.689500	843.212891	67.059174
23209.211223	2438.689500	842.032227	-178.235031
23209.211223	2438.689500	840.850586	97.119987
23209.211223	2438.689500	839.668945	41.380966
23209.211223	2438.689500	838.486328	-41.714111
23209.211223	2438.689500	837.304688	21.243433
23209.211223	2438.689500	836.122070	-4.789316
23209.211223	2438.689500	834.939453	-60.463879
23209.211223	2438.689500	833.756836	-150.323975
23209.211223	2438.689500	832.573242	-135.274323
23209.211223	2438.689500	831.389648	71.226906
23209.211223	2438.689500	830.206055	-137.117996
23209.211223	2438.689500	829.022461	-204.122360
23209.211223	2438.689500	827.838867	75.136818
23209.211223	2438.689500	826.654297	-114.878105
23209.211223	2438.689500	825.469727	-33.863667
23209.211223	2438.689500	824.284180	28.900253
23209.211223	2438.689500	823.099609	39.271492
23209.211223	2438.689500	821.914063	13.222384
23209.211223	2438.689500	820.728516	23.571997
23209.211223	2438.689500	819.542969	-88.928673
23209.211223	2438.689500	818.356445	-110.424889
23209.211223	2438.689500	817.169922	-113.738213
23209.211223	2438.689500	815.983398	-267.102081
23209.211223	2438.689500	814.796875	-184.054611
23209.211223	2438.689500	813.609375	-5.620102
23209.211223	2438.689500	812.422852	-149.881989
23209.211223	2438.689500	811.235352	-307.729675
23209.211223	2438.689500	810.046875	-115.814705
23209.211223	2438.689500	808.859375	-162.400101
23209.211223	2438.689500	807.670898	6.657749
23209.211223	2438.689500	806.482422	-1.400180
23209.211223	2438.689500	805.293945	-229.575027
23209.211223	2438.689500	804.104492	86.770760
23209.211223	2438.689500	802.915039	-41.586697
23209.211223	2438.689500	801.725586	54.570198
23209.211223	2438.689500	800.536133	311.623077
23209.211223	2438.689500	799.345703	180.941742
23209.211223	2438.689500	798.155273	4.954739
23209.211223	2438.689500	796.964844	107.690147
23209.211223	2438.689500	795.774414	-27.505594
23209.211223	2438.689500	794.583008	90.975426
23209.211223	2438.689500	793.392578	179.927338
23209.211223	2438.689500	792.200195	246.174225
23209.211223	2438.689500	791.008789	2.264508
23209.211223	2438.689500	789.816406	25.438433
23209.211223	2438.689500	788.625000	157.150528
23209.211223	2438.689500	787.432617	-41.480186
23209.211223	2438.689500	786.239258	-72.720749
23209.211223	2438.689500	785.046875	-92.696510
23209.211223	2438.689500	783.853516	-205.390289
23209.211223	2438.689500	782.660156	-96.601707
23209.211223	2438.689500	781.465820	-28.580822
23209.211223	2438.689500	780.272461	50.650856
23209.211223	2438.689500	779.078125	-163.831268
23209.211223	2438.689500	777.883789	177.239716
23209.211223	2438.689500	776.688477	82.369415
23209.211223	2438.689500	775.494141	-132.160599
23209.211223	2438.689500	774.298828	34.742264
23209.211223	2438.689500	773.103516	163.155624
23209.211223	2438.689500	771.907227	171.895401
23209.211223	2438.689500	770.711914	273.032654
23209.211223	2438.689500	769.515625	290.632141
23209.211223	2438.689500	768.318359	42.133785
23209.211223	2438.689500	767.122070	147.542496
23209.211223	2438.689500	765.924805	34.248924
23209.211223	2438.689500	764.727539	254.381821
23209.211223	2438.689500	763.530273	136.459351
23209.211223	2438.689500	762.333008	236.968414
23209.211223	2438.689500	761.134766	33.388470
23209.211223	2438.689500	759.936523	117.965698
23209.211223	2438.689500	758.738281	137.159668
23209.211223	2438.689500	757.540039	257.523712
23209.211223	2438.689500	756.340820	-63.197395
23209.211223	2438.689500	755.141602	232.440094
23209.211223	2438.689500	753.942383	372.700439
23209.211223	2438.689500	752.742188	168.818466
23209.211223	2438.689500	751.541992	50.353363
23209.211223	2438.689500	750.341797	226.260788
23209.211223	2438.689500	749.141602	60.465195
23209.211223	2438.689500	747.941406	-71.655876
23209.211223	2438.689500	746.740234	142.075439
23209.211223	2438.689500	745.539063	292.746033
23209.211223	2438.689500	744.337891	61.590893
23209.211223	2438.689500	743.135742	180.598221
23209.211223	2438.689500	741.933594	86.261406
23209.211223	2438.689500	740.731445	229.694382
23209.211223	2438.689500	739.529297	-26.328751
23209.211223	2438.689500	738.326172	69.765800
23209.211223	2438.689500	737.124023	87.232742
23209.211223	2438.689500	735.919922	-108.381905
23209.211223	2438.689500	734.716797	63.556896
23209.211223	2438.689500	733.513672	67.245956
23209.211223	2438.689500	732.309570	113.395409
23209.211223	2438.689500	731.105469	36.216309
23209.211223	2438.689500	729.900391	182.904953
23209.211223	2438.689500	728.696289	22.672438
23209.211223	2438.689500	727.491211	-54.780842
23209.211223	2438.689500	726.286133	279.487030
23209.211223	2438.689500	725.080078	208.490433
23209.211223	2438.689500	723.874023	200.044510
23209.211223	2438.689500	722.668945	211.609421
23209.211223	2438.689500	721.461914	415.364716
23209.211223	2438.689500	720.255859	254.484070
23209.211223	2438.689500	719.048828	294.723297
23209.211223	2438.689500	717.841797	138.157913
23209.211223	2438.689500	716.634766	144.634537
23209.211223	2438.689500	715.427734	-72.402580
23209.211223	2438.689500	714.219727	-19.236706
23209.211223	2438.689500	713.011719	252.600739
23209.211223	2438.689500	711.803711	62.077515
23209.211223	2438.689500	710.594727	108.091728
23209.211223	2438.689500	709.385742	44.608410
23209.211223	2438.689500	708.176758	224.202835
23209.211223	2438.689500	706.967773	263.059631
23209.211223	2438.689500	705.758789	185.799072
23209.211223	2438.689500	704.548828	48.230869
23209.211223	2438.689500	703.338867	-20.312067
23209.211223	2438.689500	702.127930	187.395859
23209.211223	2438.689500	700.917969	100.746643
23209.211223	2438.689500	699.707031	152.116074
23209.211223	2438.689500	698.496094	-52.818684
23209.211223	2438.689500	697.285156	-81.890373
23209.211223	2438.689500	696.073242	-113.319138
23209.211223	2438.689500	694.861328	-104.814117
23209.211223	2438.689500	693.649414	-60.848587
23209.211223	2438.689500	692.436523	31.899996
23209.211223	2438.689500	691.224609	-71.291504
23209.211223	2438.689500	690.011719	272.443237
23209.211223	2438.689500	688.798828	115.583305
23209.211223	2438.689500	687.584961	203.181366
23209.211223	2438.689500	686.372070	466.181335
23209.211223	2438.689500	685.158203	355.597168
23209.211223	2438.689500	683.943359	242.687881
23209.211223	2438.689500	682.729492	251.843521
23209.211223	2438.689500	681.514648	382.983643
23209.211223	2438.689500	680.299805	342.955566
23209.211223	2438.689500	679.084961	67.491470
23209.211223	2438.689500	677.869141	313.537811
23209.211223	2438.689500	676.653320	430.633759
23209.211223	2438.689500	675.437500	310.154144
23209.211223	2438.689500	674.221680	162.958206
23209.211223	2438.689500	673.004883	614.390564
23209.211223	2438.689500	671.789063	637.597534
23209.211223	2438.689500	670.571289	179.642120
23209.211223	2438.689500	669.354492	665.783630
23209.211223	2438.689500	668.136719	486.874847
23209.211223	2438.689500	666.919922	580.356323
23209.211223	2438.689500	665.701172	266.137268
23209.211223	2438.689500	664.483398	206.533340
23209.211223	2438.689500	663.264648	332.752014
23209.211223	2438.689500	662.045898	233.010101
23209.211223	2438.689500	660.827148	666.446533
23209.211223	2438.689500	659.608398	396.018646
23209.211223	2438.689500	658.388672	428.575897
23209.211223	2438.689500	657.168945	394.622772
23209.211223	2438.689500	655.949219	24.468344
23209.211223	2438.689500	654.728516	527.453979
23209.211223	2438.689500	653.507813	373.699890
23209.211223	2438.689500	652.287109	405.462555
23209.211223	2438.689500	651.066406	465.779602
23209.211223	2438.689500	649.844727	446.404205
23209.211223	2438.689500	648.623047	585.873291
23209.211223	2438.689500	647.401367	663.318420
23209.211223	2438.689500	646.179688	720.718872
23209.211223	2438.689500	644.957031	596.987610
23209.211223	2438.689500	643.734375	554.793030
23209.211223	2438.689500	642.511719	838.930969
23209.211223	2438.689500	641.289063	825.080017
23209.211223	2438.689500	640.065430	687.609985
23209.211223	2438.689500	638.841797	534.625427
23209.211223	2438.689500	637.618164	445.475006
23209.211223	2438.689500	636.393555	503.846649
23209.211223	2438.689500	635.168945	568.661804
23209.211223	2438.689500	633.944336	476.927490
23209.211223	2438.689500	632.719727	541.439758
23209.211223	2438.689500	631.494141	308.564117
23209.211223	2438.689500	630.269531	110.874054
23209.211223	2438.689500	629.042969	593.127197
23209.211223	2438.689500	627.817383	236.767838
23209.211223	2438.689500	626.590820	285.173645
23209.211223	2438.689500	625.365234	29.932878
23209.211223	2438.689500	624.137695	146.253220
23209.211223	2438.689500	622.911133	174.469040
23209.211223	2438.689500	621.683594	202.539398
23209.211223	2438.689500	620.456055	100.821075
23209.211223	2438.689500	619.228516	-75.672569
23209.211223	2438.689500	618.000977	-100.658607
23209.211223	2438.689500	616.772461	65.292122
23209.211223	2438.689500	615.543945	-122.433746
23209.211223	2438.689500	614.314453	41.008877
23209.211223	2438.689500	613.085938	-107.361710
23209.211223	2438.689500	611.856445	202.783478
23209.211223	2438.689500	610.626953	-160.775818
23209.211223	2438.689500	609.397461	-48.361870
23209.211223	2438.689500	608.166992	-113.729431
23209.211223	2438.689500	606.936523	-126.559349
23209.211223	2438.689500	605.706055	-56.199142
23209.211223	2438.689500	604.474609	-130.610733
23209.211223	2438.689500	603.244141	176.132065
23209.211223	2438.689500	602.012695	134.357254
23209.211223	2438.689500	600.780273	-87.079681
23209.211223	2438.689500	599.548828	-177.140671
23209.211223	2438.689500	598.316406	-232.238266
23209.211223	2438.689500	597.083984	-210.804398
23209.211223	2438.689500	595.851563	-154.457779
23209.211223	2438.689500	594.618164	2.401908
23209.211223	2438.689500	593.384766	132.864548
23209.211223	2438.689500	592.151367	-145.721710
23209.211223	2438.689500	590.917969	-129.127823
23209.211223	2438.689500	589.683594	16.336275
23209.211223	2438.689500	588.449219	-0.049720
23209.211223	2438.689500	587.214844	149.548782
23209.211223	2438.689500	585.979492	78.384300
23209.211223	2438.689500	584.745117	-281.081482
23209.211223	2438.689500	583.509766	-315.137115
23209.211223	2438.689500	582.273438	-4.336736
23209.211223	2438.689500	581.038086	-241.526871
23209.211223	2438.689500	579.801758	189.025177
23209.211223	2438.689500	578.565430	-8.956944
23209.211223	2438.689500	577.329102	2.484600
23209.211223	2438.689500	576.091797	61.836548
23209.211223	2438.689500	574.854492	-18.411654
23209.211223	2438.689500	573.617188	25.576777
23209.211223	2438.689500	572.378906	-133.176285
23209.211223	2438.689500	571.141602	-104.508896
23209.211223	2438.689500	569.903320	-51.936760
23209.211223	2438.689500	568.664063	61.552685
23209.211223	2438.689500	567.425781	-23.167521
23209.211223	2438.689500	566.186523	-5.572143
23209.211223	2438.689500	564.947266	142.582458
23209.211223	2438.689500	563.708008	125.279625
23209.211223	2438.689500	562.467773	-107.421707
23209.211223	2438.689500	561.227539	55.825672
23209.211223	2438.689500	559.987305	116.786369
23209.211223	2438.689500	558.747070	105.967163
23209.211223	2438.689500	557.505859	175.563705
23209.211223	2438.689500	556.264648	38.673206
23209.211223	2438.689500	555.023438	247.308304
23209.211223	2438.689500	553.781250	-61.155674
23209.211223	2438.689500	552.539063	-4.615682
23209.211223	2438.689500	551.296875	-43.629436
23209.211223	2438.689500	550.054688	151.842987
23209.211223	2438.689500	548.811523	403.665222
23209.211223	2438.689500	547.569336	399.352753
23209.211223	2438.689500	546.325195	-173.364563
23209.211223	2438.689500	545.082031	-79.910278
23209.211223	2438.689500	543.837891	-32.020878
23209.211223	2438.689500	542.593750	-159.738144
23209.211223	2438.689500	541.349609	-51.096519
23209.211223	2438.689500	540.105469	48.861660
23209.211223	2438.689500	538.860352	57.804714
23209.211223	2438.689500	537.615234	60.282406
23209.211223	2438.689500	536.369141	-23.839695
23209.211223	2438.689500	535.124023	169.288956
23209.211223	2438.689500	533.877930	7.336437
23209.211223	2438.689500	532.631836	-35.454483
23209.211223	2438.689500	531.384766	-52.220192
23209.211223	2438.689500	530.138672	-55.934914
23209.211223	2438.689500	528.891602	161.024628
23209.211223	2438.689500	527.643555	-164.854904
23209.211223	2438.689500	526.396484	78.098251
23209.211223	2438.689500	525.148438	-167.521805
23209.211223	2438.689500	523.900391	-71.512100
23209.211223	2438.689500	522.652344	15.879204
23209.211223	2438.689500	521.403320	-37.121117
23209.211223	2438.689500	520.154297	324.642639
23209.211223	2438.689500	518.905273	55.810734
23209.211223	2438.689500	517.656250	26.798740
23209.211223	2438.689500	516.406250	25.921228
23209.211223	2438.689500	515.156250	35.909462
23209.211223	2438.689500	513.906250	274.659180
23209.211223	2438.689500	512.655273	73.354004
23209.211223	2438.689500	511.404297	-108.374924
23209.211223	2438.689500	510.153320	-5.348984
23209.211223	2438.689500	508.902344	-193.290054
23209.211223	2438.689500	507.650391	-25.481491
23209.211223	2438.689500	506.398438	144.490295
23209.211223	2438.689500	505.146484	-90.512970
23209.211223	2438.689500	503.893555	-6.589287
23209.211223	2438.689500	502.641602	-142.243073
23209.211223	2438.689500	501.388672	90.366272
23209.211223	2438.689500	500.134766	329.406769
23209.211223	2438.689500	498.881836	88.568466
23209.211223	2438.689500	497.627930	69.506371
23209.211223	2438.689500	496.374023	127.966354
23209.211223	2438.689500	495.119141	74.650604
23209.211223	2438.689500	493.865234	229.999893
23209.211223	2438.689500	492.610352	172.546066
23209.211223	2438.689500	491.355469	379.534027
23209.211223	2438.689500	490.099609	322.222107
23209.211223	2438.689500	488.843750	138.268799
23209.211223	2438.689500	487.587891	596.631104
23209.211223	2438.689500	486.332031	352.719086
23209.211223	2438.689500	485.075195	458.897919
23209.211223	2438.689500	483.818359	470.660858
23209.211223	2438.689500	482.561523	521.108704
23209.211223	2438.689500	481.304688	466.470856
23209.211223	2438.689500	480.046875	688.604004
23209.211223	2438.689500	478.789063	666.224976
23209.211223	2438.689500	477.531250	811.140442
23209.211223	2438.689500	476.272461	602.347229
23209.211223	2438.689500	475.013672	730.151001
23209.211223	2438.689500	473.754883	1014.348022
23209.211223	2438.689500	472.496094	767.203003
23209.211223	2438.689500	471.236328	667.961731
23209.211223	2438.689500	469.976563	759.356384
23209.211223	2438.689500	468.716797	994.158569
23209.211223	2438.689500	467.456055	736.595703
23209.211223	2438.689500	466.196289	1112.548462
23209.211223	2438.689500	464.935547	957.765869
23209.211223	2438.689500	463.673828	978.424683
23209.211223	2438.689500	462.413086	849.373230
23209.211223	2438.689500	461.151367	979.047119
23209.211223	2438.689500	459.889648	1033.818481
23209.211223	2438.689500	458.626953	902.595703
23209.211223	2438.689500	457.364258	1166.652588
23209.211223	2438.689500	456.101563	1082.347290
23209.211223	2438.689500	454.838867	998.012085
23209.211223	2438.689500	453.575195	1197.614502
23209.211223	2438.689500	452.312500	722.465210
23209.211223	2438.689500	451.047852	821.537720
23209.211223	2438.689500	449.784180	1161.588867
23209.211223	2438.689500	448.519531	940.287903
23209.211223	2438.689500	447.254883	953.571472
23209.211223	2438.689500	445.990234	1075.458618
23209.211223	2438.689500	444.725586	1197.137695
23209.211223	2438.689500	443.459961	1148.062134
23209.211223	2438.689500	442.194336	1252.261108
23209.211223	2438.689500	440.927734	1285.897705
23209.211223	2438.689500	439.662109	1364.045776
23209.211223	2438.689500	438.395508	1156.544678
23209.211223	2438.689500	437.127930	1268.264771
23209.211223	2438.689500	435.861328	1168.933960
23209.211223	2438.689500	434.593750	1248.138550
23209.211223	2438.689500	433.326172	1109.969727
23209.211223	2438.689500	432.058594	1046.007324
23209.211223	2438.689500	430.790039	1302.894775
23209.211223	2438.689500	429.521484	1327.534668
23209.211223	2438.689500	428.252930	1402.815552
23209.211223	2438.689500	426.984375	1324.633423
23209.211223	2438.689500	425.714844	1515.944336
23209.211223	2438.689500	424.445313	1239.319702
23209.211223	2438.689500	423.174805	1461.524170
23209.211223	2438.689500	421.905273	1339.123047
23209.211223	2438.689500	420.634766	1462.555054
23209.211223	2438.689500	419.364258	1617.245483
23209.211223	2438.689500	418.092773	1474.173706
23209.211223	2438.689500	416.822266	1434.571411
23209.211223	2438.689500	415.550781	1466.490479
23209.211223	2438.689500	414.278320	1368.371338
23209.211223	2438.689500	413.006836	1797.645264
23209.211223	2438.689500	411.734375	1698.140381
23209.211223	2438.689500	410.461914	1377.524170
23209.211223	2438.689500	409.188477	929.130371
23209.211223	2438.689500	407.916016	1369.995239
23209.211223	2438.689500	406.642578	1284.526855
23209.211223	2438.689500	405.368164	1075.402344
23209.211223	2438.689500	404.094727	1409.639038
23209.211223	2438.689500	402.820313	1327.902954
23209.211223	2438.689500	401.545898	1211.385010
23209.211223	2438.689500	400.270508	1493.810791
23209.211223	2438.689500	398.996094	1252.598755
23209.211223	2438.689500	397.720703	1408.016479
23209.211223	2438.689500	396.444336	1306.384277
23209.211223	2438.689500	395.168945	1140.251465
23209.211223	2438.689500	393.892578	1188.567383
23209.211223	2438.689500	392.616211	1127.861572
23209.211223	2438.689500	391.339844	928.587952
23209.211223	2438.689500	390.062500	1344.820557
23209.211223	2438.689500	388.785156	1799.633789
23209.211223	2438.689500	387.507813	1277.423706
23209.211223	2438.689500	386.229492	1309.099854
23209.211223	2438.689500	384.951172	1123.998047
23209.211223	2438.689500	383.672852	1344.634033
23209.211223	2438.689500	382.394531	1293.559814
23209.211223	2438.689500	381.115234	1301.970459
23209.211223	2438.689500	379.835938	1327.643433
23209.211223	2438.689500	378.556641	1199.755859
23209.211223	2438.689500	377.277344	1299.831665
23209.211223	2438.689500	375.997070	1056.583130
23209.211223	2438.689500	374.716797	1390.844604
23209.211223	2438.689500	373.435547	1154.231445
23209.211223	2438.689500	372.155273	1155.765869
23209.211223	2438.689500	370.874023	1134.077759
23209.211223	2438.689500	369.591797	1099.637451
23209.211223	2438.689500	368.310547	1256.617554
23209.211223	2438.689500	367.028320	1518.462158
23209.211223	2438.689500	365.746094	1232.999512
23209.211223	2438.689500	364.463867	1062.978638
23209.211223	2438.689500	363.180664	1176.398071
23209.211223	2438.689500	361.897461	1148.428955
23209.211223	2438.689500	360.614258	951.767273
23209.211223	2438.689500	359.330078	1172.621826
23209.211223	2438.689500	358.045898	888.473450
23209.211223	2438.689500	356.761719	1227.431763
23209.211223	2438.689500	355.477539	859.815308
23209.211223	2438.689500	354.192383	921.693054
23209.211223	2438.689500	352.907227	843.962341
23209.211223	2438.689500	351.622070	886.841309
23209.211223	2438.689500	350.336914	458.527313
23209.211223	2438.689500	349.050781	763.146912
23209.211223	2438.689500	347.764648	867.006470
23209.211223	2438.689500	346.477539	860.212158
23209.211223	2438.689500	345.191406	700.994751
23209.211223	2438.689500	343.904297	514.920593
23209.211223	2438.689500	342.616211	771.240234
23209.211223	2438.689500	341.329102	545.950012
23209.211223	2438.689500	340.041016	850.634399
23209.211223	2438.689500	338.752930	602.399414
23209.211223	2438.689500	337.463867	479.666870
23209.211223	2438.689500	336.175781	407.118347
23209.211223	2438.689500	334.886719	302.780060
23209.211223	2438.689500	333.596680	162.364120
23209.211223	2438.689500	332.307617	322.773346
23209.211223	2438.689500	331.017578	-65.561096
23209.211223	2438.689500	329.727539	-23.827110
23209.211223	2438.689500	328.436523	-1.964148
23209.211223	2438.689500	327.146484	41.980911
23209.211223	2438.689500	325.855469	-57.458527
23209.211223	2438.689500	324.563477	113.266731
23209.211223	2438.689500	323.272461	-57.759632
23209.211223	2438.689500	321.980469	-17.437628
23209.211223	2438.689500	320.688477	67.111198
23209.211223	2438.689500	319.395508	166.337982
23209.211223	2438.689500	318.103516	-105.597420
23209.211223	2438.689500	316.810547	-60.504753
23209.211223	2438.689500	315.516602	82.258331
23209.211223	2438.689500	314.223633	-52.504517
23209.211223	2438.689500	312.929688	-102.373352
23209.211223	2438.689500	311.635742	-159.085770
23209.211223	2438.689500	310.340820	8.320359
23209.211223	2438.689500	309.045898	-52.366352
23209.211223	2438.689500	307.750977	8.778637
23209.211223	2438.689500	306.456055	-143.766037
23209.211223	2438.689500	305.160156	-41.787678
23209.211223	2438.689500	303.865234	-224.309433
23209.211223	2438.689500	302.568359	207.046204
23209.211223	2438.689500	301.272461	338.974823
23209.211223	2438.689500	299.975586	572.505737
23209.211223	2438.689500	298.678711	485.434875
