#X		#Y		#Wave		#Intensity
13312.174681	3903.115500	1999.980469	100.778122
13312.174681	3903.115500	1999.016602	221.739868
13312.174681	3903.115500	1998.052734	-25.561743
13312.174681	3903.115500	1997.087891	-121.668320
13312.174681	3903.115500	1996.123047	146.418304
13312.174681	3903.115500	1995.158203	-61.275051
13312.174681	3903.115500	1994.193359	-3.932563
13312.174681	3903.115500	1993.228516	1.335259
13312.174681	3903.115500	1992.262695	-23.157328
13312.174681	3903.115500	1991.297852	118.163971
13312.174681	3903.115500	1990.332031	11.897457
13312.174681	3903.115500	1989.366211	51.622761
13312.174681	3903.115500	1988.399414	271.895416
13312.174681	3903.115500	1987.433594	49.288849
13312.174681	3903.115500	1986.466797	-101.550392
13312.174681	3903.115500	1985.500977	-27.356001
13312.174681	3903.115500	1984.534180	61.614044
13312.174681	3903.115500	1983.567383	143.108673
13312.174681	3903.115500	1982.599609	7.077912
13312.174681	3903.115500	1981.632813	81.092247
13312.174681	3903.115500	1980.665039	167.408905
13312.174681	3903.115500	1979.697266	120.301109
13312.174681	3903.115500	1978.729492	-35.459743
13312.174681	3903.115500	1977.761719	169.288315
13312.174681	3903.115500	1976.792969	20.951460
13312.174681	3903.115500	1975.825195	50.356869
13312.174681	3903.115500	1974.856445	97.013222
13312.174681	3903.115500	1973.887695	67.163254
13312.174681	3903.115500	1972.918945	20.050219
13312.174681	3903.115500	1971.949219	0.076081
13312.174681	3903.115500	1970.980469	-56.879398
13312.174681	3903.115500	1970.010742	73.543709
13312.174681	3903.115500	1969.041016	85.605019
13312.174681	3903.115500	1968.071289	-35.413387
13312.174681	3903.115500	1967.101563	122.035667
13312.174681	3903.115500	1966.130859	5.984724
13312.174681	3903.115500	1965.161133	8.205362
13312.174681	3903.115500	1964.190430	44.903931
13312.174681	3903.115500	1963.219727	-68.591866
13312.174681	3903.115500	1962.249023	-61.418671
13312.174681	3903.115500	1961.277344	-128.076828
13312.174681	3903.115500	1960.306641	24.303591
13312.174681	3903.115500	1959.334961	38.861423
13312.174681	3903.115500	1958.363281	119.839172
13312.174681	3903.115500	1957.391602	26.185928
13312.174681	3903.115500	1956.419922	-114.138496
13312.174681	3903.115500	1955.447266	-42.974464
13312.174681	3903.115500	1954.474609	190.402267
13312.174681	3903.115500	1953.501953	175.499222
13312.174681	3903.115500	1952.529297	-8.918742
13312.174681	3903.115500	1951.556641	-151.490173
13312.174681	3903.115500	1950.583984	-146.624115
13312.174681	3903.115500	1949.610352	89.090408
13312.174681	3903.115500	1948.636719	-18.996202
13312.174681	3903.115500	1947.663086	-33.742821
13312.174681	3903.115500	1946.689453	10.437929
13312.174681	3903.115500	1945.715820	47.260353
13312.174681	3903.115500	1944.741211	-1.781116
13312.174681	3903.115500	1943.767578	39.975758
13312.174681	3903.115500	1942.792969	89.093613
13312.174681	3903.115500	1941.818359	-97.180534
13312.174681	3903.115500	1940.842773	182.432861
13312.174681	3903.115500	1939.868164	111.455605
13312.174681	3903.115500	1938.892578	155.706268
13312.174681	3903.115500	1937.916992	-108.762184
13312.174681	3903.115500	1936.941406	31.096788
13312.174681	3903.115500	1935.965820	-93.597031
13312.174681	3903.115500	1934.990234	58.495346
13312.174681	3903.115500	1934.013672	88.134392
13312.174681	3903.115500	1933.037109	117.784943
13312.174681	3903.115500	1932.060547	66.680923
13312.174681	3903.115500	1931.083984	71.899506
13312.174681	3903.115500	1930.107422	-13.383537
13312.174681	3903.115500	1929.129883	72.613266
13312.174681	3903.115500	1928.153320	70.558830
13312.174681	3903.115500	1927.175781	-83.074226
13312.174681	3903.115500	1926.198242	-14.157839
13312.174681	3903.115500	1925.219727	35.200809
13312.174681	3903.115500	1924.242188	11.248961
13312.174681	3903.115500	1923.263672	-71.312630
13312.174681	3903.115500	1922.285156	56.267952
13312.174681	3903.115500	1921.306641	54.373329
13312.174681	3903.115500	1920.328125	91.572128
13312.174681	3903.115500	1919.349609	-7.946908
13312.174681	3903.115500	1918.370117	-2.441841
13312.174681	3903.115500	1917.391602	-16.442720
13312.174681	3903.115500	1916.412109	-220.751541
13312.174681	3903.115500	1915.431641	80.056725
13312.174681	3903.115500	1914.452148	24.641329
13312.174681	3903.115500	1913.472656	71.696312
13312.174681	3903.115500	1912.492188	101.683861
13312.174681	3903.115500	1911.511719	-53.600590
13312.174681	3903.115500	1910.531250	-8.938664
13312.174681	3903.115500	1909.550781	-56.880081
13312.174681	3903.115500	1908.569336	7.293711
13312.174681	3903.115500	1907.588867	-96.627579
13312.174681	3903.115500	1906.607422	133.186600
13312.174681	3903.115500	1905.625977	102.368912
13312.174681	3903.115500	1904.644531	64.274345
13312.174681	3903.115500	1903.662109	72.460823
13312.174681	3903.115500	1902.680664	-67.802185
13312.174681	3903.115500	1901.698242	-23.064400
13312.174681	3903.115500	1900.715820	-104.839310
13312.174681	3903.115500	1899.733398	-108.731926
13312.174681	3903.115500	1898.750000	-27.490953
13312.174681	3903.115500	1897.767578	61.026886
13312.174681	3903.115500	1896.784180	96.040535
13312.174681	3903.115500	1895.800781	-19.645760
13312.174681	3903.115500	1894.817383	17.821930
13312.174681	3903.115500	1893.833984	79.583649
13312.174681	3903.115500	1892.850586	-108.881203
13312.174681	3903.115500	1891.866211	108.342743
13312.174681	3903.115500	1890.881836	-2.331964
13312.174681	3903.115500	1889.897461	-20.697430
13312.174681	3903.115500	1888.913086	-116.726440
13312.174681	3903.115500	1887.927734	68.816689
13312.174681	3903.115500	1886.943359	123.264374
13312.174681	3903.115500	1885.958008	32.133053
13312.174681	3903.115500	1884.972656	-44.405548
13312.174681	3903.115500	1883.987305	19.748026
13312.174681	3903.115500	1883.001953	-197.384903
13312.174681	3903.115500	1882.015625	-7.158997
13312.174681	3903.115500	1881.029297	23.027628
13312.174681	3903.115500	1880.042969	-17.072773
13312.174681	3903.115500	1879.056641	10.683660
13312.174681	3903.115500	1878.070313	-41.510387
13312.174681	3903.115500	1877.083984	61.321938
13312.174681	3903.115500	1876.096680	98.733200
13312.174681	3903.115500	1875.109375	70.759796
13312.174681	3903.115500	1874.122070	47.635906
13312.174681	3903.115500	1873.134766	150.365723
13312.174681	3903.115500	1872.146484	-134.100769
13312.174681	3903.115500	1871.159180	53.290409
13312.174681	3903.115500	1870.170898	-69.000984
13312.174681	3903.115500	1869.182617	19.144463
13312.174681	3903.115500	1868.194336	116.921364
13312.174681	3903.115500	1867.205078	-29.507448
13312.174681	3903.115500	1866.216797	244.666946
13312.174681	3903.115500	1865.227539	40.255302
13312.174681	3903.115500	1864.238281	-94.023331
13312.174681	3903.115500	1863.249023	129.252701
13312.174681	3903.115500	1862.259766	60.196453
13312.174681	3903.115500	1861.269531	-20.918442
13312.174681	3903.115500	1860.279297	117.683250
13312.174681	3903.115500	1859.290039	108.976997
13312.174681	3903.115500	1858.298828	-83.156395
13312.174681	3903.115500	1857.308594	81.879875
13312.174681	3903.115500	1856.318359	191.352066
13312.174681	3903.115500	1855.327148	192.226608
13312.174681	3903.115500	1854.335938	-48.071293
13312.174681	3903.115500	1853.344727	56.491364
13312.174681	3903.115500	1852.353516	-29.444521
13312.174681	3903.115500	1851.362305	84.679436
13312.174681	3903.115500	1850.370117	22.829575
13312.174681	3903.115500	1849.377930	173.000046
13312.174681	3903.115500	1848.385742	123.159409
13312.174681	3903.115500	1847.393555	20.331865
13312.174681	3903.115500	1846.401367	52.364883
13312.174681	3903.115500	1845.408203	106.029396
13312.174681	3903.115500	1844.415039	171.685394
13312.174681	3903.115500	1843.421875	92.898117
13312.174681	3903.115500	1842.428711	30.957911
13312.174681	3903.115500	1841.435547	53.213718
13312.174681	3903.115500	1840.441406	207.721039
13312.174681	3903.115500	1839.448242	-29.832354
13312.174681	3903.115500	1838.454102	119.768692
13312.174681	3903.115500	1837.459961	103.419037
13312.174681	3903.115500	1836.464844	-73.982185
13312.174681	3903.115500	1835.470703	125.917610
13312.174681	3903.115500	1834.475586	-94.726219
13312.174681	3903.115500	1833.480469	83.421257
13312.174681	3903.115500	1832.485352	-24.319790
13312.174681	3903.115500	1831.490234	12.016324
13312.174681	3903.115500	1830.495117	-62.126682
13312.174681	3903.115500	1829.499023	55.743423
13312.174681	3903.115500	1828.502930	-28.047543
13312.174681	3903.115500	1827.506836	99.299141
13312.174681	3903.115500	1826.510742	3.466467
13312.174681	3903.115500	1825.513672	-41.999737
13312.174681	3903.115500	1824.517578	123.536575
13312.174681	3903.115500	1823.520508	-77.848503
13312.174681	3903.115500	1822.523438	176.247269
13312.174681	3903.115500	1821.526367	-53.908131
13312.174681	3903.115500	1820.529297	61.032402
13312.174681	3903.115500	1819.531250	1.001225
13312.174681	3903.115500	1818.533203	36.762558
13312.174681	3903.115500	1817.535156	-104.746155
13312.174681	3903.115500	1816.537109	148.826111
13312.174681	3903.115500	1815.539063	-11.885427
13312.174681	3903.115500	1814.540039	145.749680
13312.174681	3903.115500	1813.541992	181.239929
13312.174681	3903.115500	1812.542969	-106.322708
13312.174681	3903.115500	1811.543945	55.893661
13312.174681	3903.115500	1810.543945	-61.820007
13312.174681	3903.115500	1809.544922	-9.758540
13312.174681	3903.115500	1808.544922	123.521736
13312.174681	3903.115500	1807.544922	24.846596
13312.174681	3903.115500	1806.544922	95.841064
13312.174681	3903.115500	1805.544922	-31.558310
13312.174681	3903.115500	1804.544922	15.435145
13312.174681	3903.115500	1803.543945	67.137985
13312.174681	3903.115500	1802.542969	56.683849
13312.174681	3903.115500	1801.541992	74.835022
13312.174681	3903.115500	1800.541016	-50.298084
13312.174681	3903.115500	1799.539063	8.338731
13312.174681	3903.115500	1798.538086	76.449287
13312.174681	3903.115500	1797.536133	106.308853
13312.174681	3903.115500	1796.534180	167.115372
13312.174681	3903.115500	1795.532227	20.362593
13312.174681	3903.115500	1794.529297	9.522980
13312.174681	3903.115500	1793.527344	-13.282618
13312.174681	3903.115500	1792.524414	137.862213
13312.174681	3903.115500	1791.521484	-44.733448
13312.174681	3903.115500	1790.518555	68.131218
13312.174681	3903.115500	1789.514648	52.259026
13312.174681	3903.115500	1788.511719	-104.179802
13312.174681	3903.115500	1787.507813	89.428925
13312.174681	3903.115500	1786.503906	-9.931108
13312.174681	3903.115500	1785.500000	154.911194
13312.174681	3903.115500	1784.496094	19.766567
13312.174681	3903.115500	1783.491211	265.327698
13312.174681	3903.115500	1782.486328	144.371964
13312.174681	3903.115500	1781.481445	16.269697
13312.174681	3903.115500	1780.476563	-2.448086
13312.174681	3903.115500	1779.471680	31.091900
13312.174681	3903.115500	1778.465820	52.672432
13312.174681	3903.115500	1777.460938	5.264807
13312.174681	3903.115500	1776.455078	-23.176552
13312.174681	3903.115500	1775.449219	29.113962
13312.174681	3903.115500	1774.442383	69.445313
13312.174681	3903.115500	1773.436523	7.583211
13312.174681	3903.115500	1772.429688	21.666246
13312.174681	3903.115500	1771.422852	83.165359
13312.174681	3903.115500	1770.416016	127.966133
13312.174681	3903.115500	1769.409180	-29.026810
13312.174681	3903.115500	1768.402344	200.728378
13312.174681	3903.115500	1767.394531	83.986137
13312.174681	3903.115500	1766.386719	-30.400938
13312.174681	3903.115500	1765.378906	-109.234711
13312.174681	3903.115500	1764.371094	72.698563
13312.174681	3903.115500	1763.362305	-3.879581
13312.174681	3903.115500	1762.354492	-16.496046
13312.174681	3903.115500	1761.345703	67.978310
13312.174681	3903.115500	1760.336914	-84.549309
13312.174681	3903.115500	1759.328125	-28.640005
13312.174681	3903.115500	1758.318359	-48.599354
13312.174681	3903.115500	1757.308594	-113.600029
13312.174681	3903.115500	1756.299805	36.789543
13312.174681	3903.115500	1755.290039	-108.797745
13312.174681	3903.115500	1754.279297	-138.443146
13312.174681	3903.115500	1753.269531	58.995037
13312.174681	3903.115500	1752.258789	-13.373556
13312.174681	3903.115500	1751.249023	122.350822
13312.174681	3903.115500	1750.238281	-23.427481
13312.174681	3903.115500	1749.226563	3.364130
13312.174681	3903.115500	1748.215820	167.181442
13312.174681	3903.115500	1747.204102	-80.331757
13312.174681	3903.115500	1746.193359	64.413368
13312.174681	3903.115500	1745.181641	-34.283386
13312.174681	3903.115500	1744.168945	-26.724850
13312.174681	3903.115500	1743.157227	-101.876007
13312.174681	3903.115500	1742.144531	-148.734238
13312.174681	3903.115500	1741.132813	-216.875610
13312.174681	3903.115500	1740.120117	-207.175171
13312.174681	3903.115500	1739.106445	-86.643730
13312.174681	3903.115500	1738.093750	-81.813515
13312.174681	3903.115500	1737.080078	5.502615
13312.174681	3903.115500	1736.067383	-44.050087
13312.174681	3903.115500	1735.053711	12.451145
13312.174681	3903.115500	1734.040039	31.151562
13312.174681	3903.115500	1733.025391	-30.357687
13312.174681	3903.115500	1732.011719	-91.898628
13312.174681	3903.115500	1730.997070	-82.801849
13312.174681	3903.115500	1729.982422	69.919960
13312.174681	3903.115500	1728.967773	1.141497
13312.174681	3903.115500	1727.952148	-58.258244
13312.174681	3903.115500	1726.937500	160.108292
13312.174681	3903.115500	1725.921875	-80.660294
13312.174681	3903.115500	1724.906250	-46.058334
13312.174681	3903.115500	1723.890625	37.880718
13312.174681	3903.115500	1722.875000	-2.950329
13312.174681	3903.115500	1721.858398	54.951267
13312.174681	3903.115500	1720.841797	70.443985
13312.174681	3903.115500	1719.825195	74.116463
13312.174681	3903.115500	1718.808594	65.975800
13312.174681	3903.115500	1717.791992	179.988083
13312.174681	3903.115500	1716.774414	44.821838
13312.174681	3903.115500	1715.756836	175.116135
13312.174681	3903.115500	1714.739258	86.862961
13312.174681	3903.115500	1713.721680	-8.459840
13312.174681	3903.115500	1712.704102	58.203213
13312.174681	3903.115500	1711.685547	-11.376061
13312.174681	3903.115500	1710.667969	76.271317
13312.174681	3903.115500	1709.649414	84.038742
13312.174681	3903.115500	1708.630859	21.363041
13312.174681	3903.115500	1707.611328	207.289307
13312.174681	3903.115500	1706.592773	320.394379
13312.174681	3903.115500	1705.573242	46.505814
13312.174681	3903.115500	1704.553711	16.476725
13312.174681	3903.115500	1703.534180	176.258652
13312.174681	3903.115500	1702.513672	359.351532
13312.174681	3903.115500	1701.494141	87.790741
13312.174681	3903.115500	1700.473633	50.525475
13312.174681	3903.115500	1699.453125	207.613205
13312.174681	3903.115500	1698.432617	85.934708
13312.174681	3903.115500	1697.412109	128.132477
13312.174681	3903.115500	1696.390625	226.431793
13312.174681	3903.115500	1695.369141	43.808338
13312.174681	3903.115500	1694.347656	247.275223
13312.174681	3903.115500	1693.326172	226.032578
13312.174681	3903.115500	1692.304688	153.290817
13312.174681	3903.115500	1691.282227	169.381470
13312.174681	3903.115500	1690.260742	241.536835
13312.174681	3903.115500	1689.238281	89.199753
13312.174681	3903.115500	1688.214844	240.690887
13312.174681	3903.115500	1687.192383	64.948349
13312.174681	3903.115500	1686.168945	263.013885
13312.174681	3903.115500	1685.146484	269.429810
13312.174681	3903.115500	1684.123047	261.775818
13312.174681	3903.115500	1683.099609	251.743454
13312.174681	3903.115500	1682.075195	437.753296
13312.174681	3903.115500	1681.051758	280.557526
13312.174681	3903.115500	1680.027344	328.720306
13312.174681	3903.115500	1679.002930	278.830444
13312.174681	3903.115500	1677.978516	147.272705
13312.174681	3903.115500	1676.953125	325.894257
13312.174681	3903.115500	1675.928711	310.878296
13312.174681	3903.115500	1674.903320	347.104645
13312.174681	3903.115500	1673.877930	392.598785
13312.174681	3903.115500	1672.852539	393.755280
13312.174681	3903.115500	1671.826172	152.548599
13312.174681	3903.115500	1670.800781	326.051971
13312.174681	3903.115500	1669.774414	457.516479
13312.174681	3903.115500	1668.748047	372.331055
13312.174681	3903.115500	1667.721680	322.062683
13312.174681	3903.115500	1666.694336	318.319427
13312.174681	3903.115500	1665.667969	354.111481
13312.174681	3903.115500	1664.640625	408.458099
13312.174681	3903.115500	1663.613281	604.653687
13312.174681	3903.115500	1662.585938	496.044586
13312.174681	3903.115500	1661.557617	499.054169
13312.174681	3903.115500	1660.530273	629.911621
13312.174681	3903.115500	1659.501953	565.412354
13312.174681	3903.115500	1658.473633	624.081421
13312.174681	3903.115500	1657.444336	668.743469
13312.174681	3903.115500	1656.416016	769.120117
13312.174681	3903.115500	1655.386719	562.815247
13312.174681	3903.115500	1654.358398	704.910767
13312.174681	3903.115500	1653.328125	819.041504
13312.174681	3903.115500	1652.298828	798.464539
13312.174681	3903.115500	1651.269531	935.690125
13312.174681	3903.115500	1650.239258	1017.131592
13312.174681	3903.115500	1649.208984	1012.671753
13312.174681	3903.115500	1648.178711	994.268188
13312.174681	3903.115500	1647.148438	903.949951
13312.174681	3903.115500	1646.117188	999.126404
13312.174681	3903.115500	1645.086914	1080.340088
13312.174681	3903.115500	1644.055664	1133.673706
13312.174681	3903.115500	1643.024414	918.147888
13312.174681	3903.115500	1641.992188	1221.660278
13312.174681	3903.115500	1640.960938	989.938232
13312.174681	3903.115500	1639.928711	1094.094482
13312.174681	3903.115500	1638.896484	1221.345093
13312.174681	3903.115500	1637.864258	1181.835205
13312.174681	3903.115500	1636.832031	1306.660400
13312.174681	3903.115500	1635.798828	1315.697632
13312.174681	3903.115500	1634.766602	1313.151733
13312.174681	3903.115500	1633.733398	1116.259644
13312.174681	3903.115500	1632.699219	1199.272949
13312.174681	3903.115500	1631.666016	1173.561646
13312.174681	3903.115500	1630.632813	1436.840820
13312.174681	3903.115500	1629.598633	1265.424805
13312.174681	3903.115500	1628.564453	1297.434082
13312.174681	3903.115500	1627.530273	1456.500244
13312.174681	3903.115500	1626.495117	1647.823364
13312.174681	3903.115500	1625.460938	1485.679199
13312.174681	3903.115500	1624.425781	1542.957397
13312.174681	3903.115500	1623.390625	1586.347046
13312.174681	3903.115500	1622.355469	1814.380005
13312.174681	3903.115500	1621.319336	1712.268188
13312.174681	3903.115500	1620.284180	1774.027344
13312.174681	3903.115500	1619.248047	1884.190918
13312.174681	3903.115500	1618.211914	2024.287842
13312.174681	3903.115500	1617.174805	2014.414429
13312.174681	3903.115500	1616.138672	2244.337891
13312.174681	3903.115500	1615.101563	1994.665405
13312.174681	3903.115500	1614.065430	2097.726807
13312.174681	3903.115500	1613.027344	2014.070801
13312.174681	3903.115500	1611.990234	2144.715576
13312.174681	3903.115500	1610.953125	2284.519043
13312.174681	3903.115500	1609.915039	2249.226318
13312.174681	3903.115500	1608.876953	2158.684814
13312.174681	3903.115500	1607.838867	2252.343262
13312.174681	3903.115500	1606.800781	2069.766846
13312.174681	3903.115500	1605.761719	2071.347168
13312.174681	3903.115500	1604.723633	2259.297363
13312.174681	3903.115500	1603.684570	2263.142090
13312.174681	3903.115500	1602.644531	2204.881104
13312.174681	3903.115500	1601.605469	2215.635498
13312.174681	3903.115500	1600.566406	2072.359619
13312.174681	3903.115500	1599.526367	2069.343262
13312.174681	3903.115500	1598.486328	2057.138916
13312.174681	3903.115500	1597.446289	1780.720703
13312.174681	3903.115500	1596.405273	1757.093628
13312.174681	3903.115500	1595.365234	1942.493164
13312.174681	3903.115500	1594.324219	1714.489868
13312.174681	3903.115500	1593.283203	1709.278564
13312.174681	3903.115500	1592.242188	1609.967285
13312.174681	3903.115500	1591.200195	2015.577637
13312.174681	3903.115500	1590.159180	1975.921265
13312.174681	3903.115500	1589.117188	1821.580566
13312.174681	3903.115500	1588.075195	1896.669067
13312.174681	3903.115500	1587.032227	1705.728027
13312.174681	3903.115500	1585.990234	1702.884399
13312.174681	3903.115500	1584.947266	1690.876709
13312.174681	3903.115500	1583.904297	1761.392944
13312.174681	3903.115500	1582.861328	1563.809814
13312.174681	3903.115500	1581.818359	1863.442383
13312.174681	3903.115500	1580.775391	1622.431030
13312.174681	3903.115500	1579.731445	1651.740723
13312.174681	3903.115500	1578.687500	1646.712646
13312.174681	3903.115500	1577.643555	1669.175537
13312.174681	3903.115500	1576.598633	1547.454956
13312.174681	3903.115500	1575.554688	1679.800293
13312.174681	3903.115500	1574.509766	1583.330688
13312.174681	3903.115500	1573.464844	1640.169189
13312.174681	3903.115500	1572.419922	1660.418213
13312.174681	3903.115500	1571.374023	1447.459961
13312.174681	3903.115500	1570.329102	1449.497681
13312.174681	3903.115500	1569.283203	1360.129395
13312.174681	3903.115500	1568.237305	1359.937866
13312.174681	3903.115500	1567.191406	1405.463867
13312.174681	3903.115500	1566.144531	1247.699097
13312.174681	3903.115500	1565.098633	1249.892700
13312.174681	3903.115500	1564.051758	1389.098755
13312.174681	3903.115500	1563.004883	1338.806274
13312.174681	3903.115500	1561.957031	1169.869507
13312.174681	3903.115500	1560.910156	1112.851440
13312.174681	3903.115500	1559.862305	1192.765747
13312.174681	3903.115500	1558.814453	1144.942871
13312.174681	3903.115500	1557.766602	1172.428589
13312.174681	3903.115500	1556.718750	1088.210815
13312.174681	3903.115500	1555.669922	974.413330
13312.174681	3903.115500	1554.621094	1052.149902
13312.174681	3903.115500	1553.573242	740.227722
13312.174681	3903.115500	1552.523438	843.102173
13312.174681	3903.115500	1551.474609	791.084595
13312.174681	3903.115500	1550.424805	857.541565
13312.174681	3903.115500	1549.375000	725.911865
13312.174681	3903.115500	1548.325195	756.005615
13312.174681	3903.115500	1547.275391	808.886963
13312.174681	3903.115500	1546.225586	620.567261
13312.174681	3903.115500	1545.174805	598.443237
13312.174681	3903.115500	1544.124023	681.006104
13312.174681	3903.115500	1543.073242	768.125671
13312.174681	3903.115500	1542.022461	725.643372
13312.174681	3903.115500	1540.970703	694.578064
13312.174681	3903.115500	1539.919922	652.211121
13312.174681	3903.115500	1538.868164	671.253723
13312.174681	3903.115500	1537.815430	524.464355
13312.174681	3903.115500	1536.763672	618.576172
13312.174681	3903.115500	1535.710938	737.671814
13312.174681	3903.115500	1534.659180	761.403076
13312.174681	3903.115500	1533.606445	680.731628
13312.174681	3903.115500	1532.552734	883.858337
13312.174681	3903.115500	1531.500000	789.672180
13312.174681	3903.115500	1530.446289	856.657471
13312.174681	3903.115500	1529.393555	889.645386
13312.174681	3903.115500	1528.338867	738.944946
13312.174681	3903.115500	1527.285156	692.670044
13312.174681	3903.115500	1526.231445	891.312805
13312.174681	3903.115500	1525.176758	926.720825
13312.174681	3903.115500	1524.122070	871.516418
13312.174681	3903.115500	1523.067383	886.625854
13312.174681	3903.115500	1522.012695	670.716614
13312.174681	3903.115500	1520.957031	778.819275
13312.174681	3903.115500	1519.901367	696.718811
13312.174681	3903.115500	1518.845703	714.322083
13312.174681	3903.115500	1517.790039	539.570984
13312.174681	3903.115500	1516.734375	711.199341
13312.174681	3903.115500	1515.677734	468.743866
13312.174681	3903.115500	1514.621094	486.593781
13312.174681	3903.115500	1513.564453	495.446838
13312.174681	3903.115500	1512.507813	391.288879
13312.174681	3903.115500	1511.450195	538.178223
13312.174681	3903.115500	1510.393555	314.367920
13312.174681	3903.115500	1509.335938	149.458481
13312.174681	3903.115500	1508.278320	411.721680
13312.174681	3903.115500	1507.219727	278.597870
13312.174681	3903.115500	1506.162109	199.801453
13312.174681	3903.115500	1505.103516	215.934494
13312.174681	3903.115500	1504.044922	403.708862
13312.174681	3903.115500	1502.986328	316.083984
13312.174681	3903.115500	1501.926758	327.851135
13312.174681	3903.115500	1500.868164	328.400787
13312.174681	3903.115500	1499.808594	193.652023
13312.174681	3903.115500	1498.749023	174.049774
13312.174681	3903.115500	1497.688477	150.004654
13312.174681	3903.115500	1496.628906	89.966286
13312.174681	3903.115500	1495.568359	113.415665
13312.174681	3903.115500	1494.507813	-36.613636
13312.174681	3903.115500	1493.447266	-60.335098
13312.174681	3903.115500	1492.386719	1.625687
13312.174681	3903.115500	1491.325195	212.279297
13312.174681	3903.115500	1490.263672	179.711746
13312.174681	3903.115500	1489.202148	84.184151
13312.174681	3903.115500	1488.140625	51.790619
13312.174681	3903.115500	1487.079102	66.741486
13312.174681	3903.115500	1486.016602	-39.755123
13312.174681	3903.115500	1484.954102	-164.137939
13312.174681	3903.115500	1483.891602	-101.715233
13312.174681	3903.115500	1482.829102	64.196945
13312.174681	3903.115500	1481.765625	-1.466459
13312.174681	3903.115500	1480.702148	-96.248978
13312.174681	3903.115500	1479.638672	-89.787003
13312.174681	3903.115500	1478.575195	49.302597
13312.174681	3903.115500	1477.511719	174.894150
13312.174681	3903.115500	1476.447266	37.811604
13312.174681	3903.115500	1475.382813	-60.998714
13312.174681	3903.115500	1474.318359	-36.240604
13312.174681	3903.115500	1473.253906	76.137001
13312.174681	3903.115500	1472.189453	264.748657
13312.174681	3903.115500	1471.124023	197.765274
13312.174681	3903.115500	1470.058594	368.336945
13312.174681	3903.115500	1468.993164	393.449280
13312.174681	3903.115500	1467.927734	279.619141
13312.174681	3903.115500	1466.861328	396.671051
13312.174681	3903.115500	1465.794922	330.046753
13312.174681	3903.115500	1464.728516	449.315826
13312.174681	3903.115500	1463.662109	467.907257
13312.174681	3903.115500	1462.594727	410.636017
13312.174681	3903.115500	1461.528320	532.077942
13312.174681	3903.115500	1460.460938	511.189026
13312.174681	3903.115500	1459.393555	592.390137
13312.174681	3903.115500	1458.326172	711.511475
13312.174681	3903.115500	1457.257813	631.893799
13312.174681	3903.115500	1456.189453	517.614014
13312.174681	3903.115500	1455.121094	616.746399
13312.174681	3903.115500	1454.052734	736.904419
13312.174681	3903.115500	1452.984375	572.127441
13312.174681	3903.115500	1451.915039	590.398987
13312.174681	3903.115500	1450.845703	769.716492
13312.174681	3903.115500	1449.776367	669.151306
13312.174681	3903.115500	1448.707031	743.966370
13312.174681	3903.115500	1447.636719	703.215820
13312.174681	3903.115500	1446.567383	772.336670
13312.174681	3903.115500	1445.497070	690.282104
13312.174681	3903.115500	1444.425781	707.633484
13312.174681	3903.115500	1443.355469	900.825317
13312.174681	3903.115500	1442.285156	829.107300
13312.174681	3903.115500	1441.213867	804.809509
13312.174681	3903.115500	1440.142578	858.605225
13312.174681	3903.115500	1439.070313	900.814819
13312.174681	3903.115500	1437.999023	611.805603
13312.174681	3903.115500	1436.926758	794.117920
13312.174681	3903.115500	1435.854492	749.931519
13312.174681	3903.115500	1434.782227	725.642883
13312.174681	3903.115500	1433.709961	461.474731
13312.174681	3903.115500	1432.636719	630.574219
13312.174681	3903.115500	1431.563477	573.690002
13312.174681	3903.115500	1430.490234	625.400330
13312.174681	3903.115500	1429.416992	496.426910
13312.174681	3903.115500	1428.343750	569.061768
13312.174681	3903.115500	1427.269531	468.724792
13312.174681	3903.115500	1426.195313	513.807861
13312.174681	3903.115500	1425.121094	431.214325
13312.174681	3903.115500	1424.046875	557.980347
13312.174681	3903.115500	1422.971680	444.177429
13312.174681	3903.115500	1421.896484	649.740112
13312.174681	3903.115500	1420.821289	479.765076
13312.174681	3903.115500	1419.746094	581.900757
13312.174681	3903.115500	1418.669922	554.702393
13312.174681	3903.115500	1417.594727	734.676819
13312.174681	3903.115500	1416.518555	744.716675
13312.174681	3903.115500	1415.442383	694.751160
13312.174681	3903.115500	1414.365234	593.064270
13312.174681	3903.115500	1413.289063	300.205200
13312.174681	3903.115500	1412.211914	531.715637
13312.174681	3903.115500	1411.134766	456.514648
13312.174681	3903.115500	1410.057617	438.632446
13312.174681	3903.115500	1408.979492	456.605408
13312.174681	3903.115500	1407.902344	600.181030
13312.174681	3903.115500	1406.824219	367.723145
13312.174681	3903.115500	1405.746094	525.989197
13312.174681	3903.115500	1404.666992	580.190674
13312.174681	3903.115500	1403.588867	452.010040
13312.174681	3903.115500	1402.509766	542.235413
13312.174681	3903.115500	1401.430664	526.632874
13312.174681	3903.115500	1400.351563	382.216888
13312.174681	3903.115500	1399.271484	630.508789
13312.174681	3903.115500	1398.192383	542.563354
13312.174681	3903.115500	1397.112305	521.037720
13312.174681	3903.115500	1396.031250	651.898682
13312.174681	3903.115500	1394.951172	618.628357
13312.174681	3903.115500	1393.871094	472.654327
13312.174681	3903.115500	1392.790039	565.589294
13312.174681	3903.115500	1391.708984	516.451355
13312.174681	3903.115500	1390.626953	618.084656
13312.174681	3903.115500	1389.545898	607.225342
13312.174681	3903.115500	1388.463867	767.674255
13312.174681	3903.115500	1387.381836	688.116150
13312.174681	3903.115500	1386.299805	593.965942
13312.174681	3903.115500	1385.217773	800.384644
13312.174681	3903.115500	1384.134766	623.592712
13312.174681	3903.115500	1383.051758	468.286469
13312.174681	3903.115500	1381.968750	528.745911
13312.174681	3903.115500	1380.885742	640.659363
13312.174681	3903.115500	1379.802734	546.049988
13312.174681	3903.115500	1378.718750	624.907349
13312.174681	3903.115500	1377.634766	764.734863
13312.174681	3903.115500	1376.550781	606.452209
13312.174681	3903.115500	1375.465820	562.725769
13312.174681	3903.115500	1374.381836	533.231934
13312.174681	3903.115500	1373.296875	591.670044
13312.174681	3903.115500	1372.211914	704.810669
13312.174681	3903.115500	1371.126953	669.848938
13312.174681	3903.115500	1370.041016	757.066772
13312.174681	3903.115500	1368.955078	489.515900
13312.174681	3903.115500	1367.869141	707.744812
13312.174681	3903.115500	1366.783203	619.406616
13312.174681	3903.115500	1365.697266	637.920959
13312.174681	3903.115500	1364.610352	531.358276
13312.174681	3903.115500	1363.523438	749.503174
13312.174681	3903.115500	1362.436523	496.733276
13312.174681	3903.115500	1361.349609	534.481018
13312.174681	3903.115500	1360.261719	577.463501
13312.174681	3903.115500	1359.174805	542.697693
13312.174681	3903.115500	1358.086914	345.480713
13312.174681	3903.115500	1356.998047	607.063354
13312.174681	3903.115500	1355.910156	531.747314
13312.174681	3903.115500	1354.821289	513.349609
13312.174681	3903.115500	1353.732422	558.638550
13312.174681	3903.115500	1352.643555	517.085449
13312.174681	3903.115500	1351.554688	564.990845
13312.174681	3903.115500	1350.464844	458.015808
13312.174681	3903.115500	1349.375000	586.764282
13312.174681	3903.115500	1348.285156	617.302429
13312.174681	3903.115500	1347.195313	475.988190
13312.174681	3903.115500	1346.105469	652.712891
13312.174681	3903.115500	1345.014648	621.536438
13312.174681	3903.115500	1343.923828	401.675598
13312.174681	3903.115500	1342.833008	491.594025
13312.174681	3903.115500	1341.741211	355.267700
13312.174681	3903.115500	1340.650391	457.915344
13312.174681	3903.115500	1339.558594	450.042297
13312.174681	3903.115500	1338.466797	477.828918
13312.174681	3903.115500	1337.374023	312.911682
13312.174681	3903.115500	1336.282227	386.750000
13312.174681	3903.115500	1335.189453	370.980530
13312.174681	3903.115500	1334.096680	326.303864
13312.174681	3903.115500	1333.003906	383.330017
13312.174681	3903.115500	1331.910156	355.446747
13312.174681	3903.115500	1330.817383	345.642944
13312.174681	3903.115500	1329.723633	398.108734
13312.174681	3903.115500	1328.629883	530.693787
13312.174681	3903.115500	1327.535156	450.756775
13312.174681	3903.115500	1326.441406	507.767670
13312.174681	3903.115500	1325.346680	589.937439
13312.174681	3903.115500	1324.251953	520.159424
13312.174681	3903.115500	1323.156250	452.539734
13312.174681	3903.115500	1322.061523	585.004761
13312.174681	3903.115500	1320.965820	430.406555
13312.174681	3903.115500	1319.870117	262.972321
13312.174681	3903.115500	1318.774414	499.142975
13312.174681	3903.115500	1317.678711	441.611450
13312.174681	3903.115500	1316.582031	520.947937
13312.174681	3903.115500	1315.485352	494.878326
13312.174681	3903.115500	1314.388672	502.573059
13312.174681	3903.115500	1313.291016	375.459900
13312.174681	3903.115500	1312.194336	544.045288
13312.174681	3903.115500	1311.096680	499.856140
13312.174681	3903.115500	1309.999023	555.444275
13312.174681	3903.115500	1308.901367	546.968323
13312.174681	3903.115500	1307.802734	527.226501
13312.174681	3903.115500	1306.705078	488.465820
13312.174681	3903.115500	1305.606445	600.263611
13312.174681	3903.115500	1304.506836	489.493530
13312.174681	3903.115500	1303.408203	551.154297
13312.174681	3903.115500	1302.308594	359.984619
13312.174681	3903.115500	1301.208984	433.914703
13312.174681	3903.115500	1300.109375	439.408905
13312.174681	3903.115500	1299.009766	336.727509
13312.174681	3903.115500	1297.909180	432.264771
13312.174681	3903.115500	1296.808594	474.147949
13312.174681	3903.115500	1295.708008	429.928314
13312.174681	3903.115500	1294.607422	445.008667
13312.174681	3903.115500	1293.506836	530.548645
13312.174681	3903.115500	1292.405273	179.030685
13312.174681	3903.115500	1291.303711	310.369873
13312.174681	3903.115500	1290.202148	144.868423
13312.174681	3903.115500	1289.099609	198.571396
13312.174681	3903.115500	1287.998047	161.601990
13312.174681	3903.115500	1286.895508	193.765747
13312.174681	3903.115500	1285.792969	269.607361
13312.174681	3903.115500	1284.689453	27.354692
13312.174681	3903.115500	1283.586914	223.693069
13312.174681	3903.115500	1282.483398	63.615875
13312.174681	3903.115500	1281.379883	295.871735
13312.174681	3903.115500	1280.276367	182.442535
13312.174681	3903.115500	1279.171875	235.741882
13312.174681	3903.115500	1278.067383	155.961609
13312.174681	3903.115500	1276.962891	216.744736
13312.174681	3903.115500	1275.858398	376.861206
13312.174681	3903.115500	1274.753906	363.726532
13312.174681	3903.115500	1273.648438	177.340424
13312.174681	3903.115500	1272.542969	82.983376
13312.174681	3903.115500	1271.437500	114.642136
13312.174681	3903.115500	1270.331055	136.664230
13312.174681	3903.115500	1269.225586	51.980919
13312.174681	3903.115500	1268.119141	82.378662
13312.174681	3903.115500	1267.012695	156.102570
13312.174681	3903.115500	1265.906250	-123.955345
13312.174681	3903.115500	1264.798828	16.740126
13312.174681	3903.115500	1263.691406	-51.619732
13312.174681	3903.115500	1262.583984	13.475262
13312.174681	3903.115500	1261.476563	-20.727415
13312.174681	3903.115500	1260.368164	-61.398476
13312.174681	3903.115500	1259.260742	-138.045822
13312.174681	3903.115500	1258.152344	73.009270
13312.174681	3903.115500	1257.043945	83.493965
13312.174681	3903.115500	1255.934570	-29.355076
13312.174681	3903.115500	1254.825195	-17.247257
13312.174681	3903.115500	1253.716797	89.239723
13312.174681	3903.115500	1252.606445	130.668686
13312.174681	3903.115500	1251.497070	146.267670
13312.174681	3903.115500	1250.387695	157.296783
13312.174681	3903.115500	1249.277344	132.980164
13312.174681	3903.115500	1248.166992	160.191238
13312.174681	3903.115500	1247.055664	135.930542
13312.174681	3903.115500	1245.945313	211.644501
13312.174681	3903.115500	1244.833984	67.738113
13312.174681	3903.115500	1243.722656	133.551498
13312.174681	3903.115500	1242.611328	89.900452
13312.174681	3903.115500	1241.499023	121.839378
13312.174681	3903.115500	1240.387695	78.819305
13312.174681	3903.115500	1239.275391	-8.233006
13312.174681	3903.115500	1238.162109	24.850891
13312.174681	3903.115500	1237.049805	-55.814083
13312.174681	3903.115500	1235.936523	-77.770729
13312.174681	3903.115500	1234.823242	-99.711411
13312.174681	3903.115500	1233.709961	-72.361305
13312.174681	3903.115500	1232.596680	126.403992
13312.174681	3903.115500	1231.482422	-2.826737
13312.174681	3903.115500	1230.369141	-5.932985
13312.174681	3903.115500	1229.253906	97.303024
13312.174681	3903.115500	1228.139648	55.605705
13312.174681	3903.115500	1227.025391	-37.882431
13312.174681	3903.115500	1225.910156	60.200935
13312.174681	3903.115500	1224.794922	-40.058426
13312.174681	3903.115500	1223.679688	-70.458954
13312.174681	3903.115500	1222.563477	-92.771088
13312.174681	3903.115500	1221.447266	-60.840763
13312.174681	3903.115500	1220.331055	-8.567971
13312.174681	3903.115500	1219.214844	22.466618
13312.174681	3903.115500	1218.098633	95.289764
13312.174681	3903.115500	1216.981445	-23.241930
13312.174681	3903.115500	1215.864258	-12.098511
13312.174681	3903.115500	1214.747070	-59.283489
13312.174681	3903.115500	1213.629883	7.637120
13312.174681	3903.115500	1212.511719	34.074661
13312.174681	3903.115500	1211.393555	-5.121629
13312.174681	3903.115500	1210.275391	131.742981
13312.174681	3903.115500	1209.157227	75.500916
13312.174681	3903.115500	1208.038086	112.559654
13312.174681	3903.115500	1206.918945	137.544769
13312.174681	3903.115500	1205.799805	221.612900
13312.174681	3903.115500	1204.680664	139.171661
13312.174681	3903.115500	1203.560547	315.210602
13312.174681	3903.115500	1202.441406	194.701080
13312.174681	3903.115500	1201.321289	339.101257
13312.174681	3903.115500	1200.200195	227.864716
13312.174681	3903.115500	1199.080078	410.968567
13312.174681	3903.115500	1197.958984	393.939453
13312.174681	3903.115500	1196.837891	412.207520
13312.174681	3903.115500	1195.716797	362.205780
13312.174681	3903.115500	1194.594727	343.637756
13312.174681	3903.115500	1193.473633	344.983398
13312.174681	3903.115500	1192.351563	433.061432
13312.174681	3903.115500	1191.229492	406.566620
13312.174681	3903.115500	1190.106445	458.480804
13312.174681	3903.115500	1188.984375	431.558350
13312.174681	3903.115500	1187.861328	400.091614
13312.174681	3903.115500	1186.738281	428.299774
13312.174681	3903.115500	1185.614258	438.767212
13312.174681	3903.115500	1184.491211	379.287384
13312.174681	3903.115500	1183.367188	341.313751
13312.174681	3903.115500	1182.243164	438.335083
13312.174681	3903.115500	1181.119141	464.773651
13312.174681	3903.115500	1179.994141	411.517517
13312.174681	3903.115500	1178.869141	414.462677
13312.174681	3903.115500	1177.744141	306.202332
13312.174681	3903.115500	1176.619141	364.800354
13312.174681	3903.115500	1175.493164	348.554016
13312.174681	3903.115500	1174.368164	353.036102
13312.174681	3903.115500	1173.242188	343.661987
13312.174681	3903.115500	1172.115234	415.024902
13312.174681	3903.115500	1170.989258	366.002258
13312.174681	3903.115500	1169.862305	344.226318
13312.174681	3903.115500	1168.735352	323.363495
13312.174681	3903.115500	1167.608398	353.141815
13312.174681	3903.115500	1166.481445	348.089081
13312.174681	3903.115500	1165.353516	425.067902
13312.174681	3903.115500	1164.225586	428.081787
13312.174681	3903.115500	1163.097656	344.102814
13312.174681	3903.115500	1161.968750	381.857880
13312.174681	3903.115500	1160.840820	423.114288
13312.174681	3903.115500	1159.711914	359.714050
13312.174681	3903.115500	1158.583008	212.073746
13312.174681	3903.115500	1157.453125	364.434875
13312.174681	3903.115500	1156.324219	232.190796
13312.174681	3903.115500	1155.194336	358.956848
13312.174681	3903.115500	1154.064453	297.463196
13312.174681	3903.115500	1152.933594	239.021103
13312.174681	3903.115500	1151.803711	289.985931
13312.174681	3903.115500	1150.672852	332.870422
13312.174681	3903.115500	1149.541992	331.811981
13312.174681	3903.115500	1148.411133	318.032257
13312.174681	3903.115500	1147.279297	304.663300
13312.174681	3903.115500	1146.147461	411.119904
13312.174681	3903.115500	1145.015625	468.157440
13312.174681	3903.115500	1143.883789	577.160156
13312.174681	3903.115500	1142.750977	634.416321
13312.174681	3903.115500	1141.619141	640.454407
13312.174681	3903.115500	1140.486328	621.018311
13312.174681	3903.115500	1139.352539	721.901550
13312.174681	3903.115500	1138.219727	676.461731
13312.174681	3903.115500	1137.085938	788.894897
13312.174681	3903.115500	1135.952148	512.909973
13312.174681	3903.115500	1134.818359	541.333557
13312.174681	3903.115500	1133.683594	609.753601
13312.174681	3903.115500	1132.549805	591.916626
13312.174681	3903.115500	1131.415039	679.286133
13312.174681	3903.115500	1130.279297	571.733643
13312.174681	3903.115500	1129.144531	550.722595
13312.174681	3903.115500	1128.008789	456.592255
13312.174681	3903.115500	1126.873047	525.568359
13312.174681	3903.115500	1125.737305	461.792450
13312.174681	3903.115500	1124.601563	398.540039
13312.174681	3903.115500	1123.464844	272.851471
13312.174681	3903.115500	1122.328125	126.251389
13312.174681	3903.115500	1121.191406	146.963425
13312.174681	3903.115500	1120.054688	291.498901
13312.174681	3903.115500	1118.916992	310.517212
13312.174681	3903.115500	1117.779297	270.554321
13312.174681	3903.115500	1116.641602	323.624939
13312.174681	3903.115500	1115.503906	88.464958
13312.174681	3903.115500	1114.365234	-27.766756
13312.174681	3903.115500	1113.226563	0.145042
13312.174681	3903.115500	1112.087891	-43.217060
13312.174681	3903.115500	1110.949219	6.882853
13312.174681	3903.115500	1109.809570	135.825714
13312.174681	3903.115500	1108.669922	148.647202
13312.174681	3903.115500	1107.530273	-5.835226
13312.174681	3903.115500	1106.390625	238.663681
13312.174681	3903.115500	1105.250000	77.931976
13312.174681	3903.115500	1104.109375	185.691971
13312.174681	3903.115500	1102.968750	109.906677
13312.174681	3903.115500	1101.828125	148.602539
13312.174681	3903.115500	1100.686523	234.100235
13312.174681	3903.115500	1099.544922	269.876587
13312.174681	3903.115500	1098.403320	377.992767
13312.174681	3903.115500	1097.261719	257.068481
13312.174681	3903.115500	1096.120117	219.161499
13312.174681	3903.115500	1094.977539	154.674850
13312.174681	3903.115500	1093.834961	234.381439
13312.174681	3903.115500	1092.691406	161.369797
13312.174681	3903.115500	1091.548828	78.894363
13312.174681	3903.115500	1090.405273	38.638397
13312.174681	3903.115500	1089.261719	-48.496635
13312.174681	3903.115500	1088.118164	13.278958
13312.174681	3903.115500	1086.973633	59.743496
13312.174681	3903.115500	1085.829102	252.432358
13312.174681	3903.115500	1084.684570	-4.028357
13312.174681	3903.115500	1083.540039	-5.160937
13312.174681	3903.115500	1082.395508	55.487888
13312.174681	3903.115500	1081.250000	28.205070
13312.174681	3903.115500	1080.104492	-164.163773
13312.174681	3903.115500	1078.958984	-71.306465
13312.174681	3903.115500	1077.812500	58.770382
13312.174681	3903.115500	1076.666016	116.471596
13312.174681	3903.115500	1075.519531	57.093235
13312.174681	3903.115500	1074.373047	87.495834
13312.174681	3903.115500	1073.226563	91.388565
13312.174681	3903.115500	1072.079102	133.822250
13312.174681	3903.115500	1070.931641	66.135521
13312.174681	3903.115500	1069.784180	149.544388
13312.174681	3903.115500	1068.635742	120.860306
13312.174681	3903.115500	1067.487305	231.763824
13312.174681	3903.115500	1066.338867	186.725357
13312.174681	3903.115500	1065.190430	161.478500
13312.174681	3903.115500	1064.041992	283.138214
13312.174681	3903.115500	1062.892578	253.064133
13312.174681	3903.115500	1061.743164	193.146957
13312.174681	3903.115500	1060.593750	282.490936
13312.174681	3903.115500	1059.443359	293.059052
13312.174681	3903.115500	1058.292969	268.431152
13312.174681	3903.115500	1057.142578	66.412148
13312.174681	3903.115500	1055.992188	189.999817
13312.174681	3903.115500	1054.841797	90.822807
13312.174681	3903.115500	1053.690430	6.887442
13312.174681	3903.115500	1052.539063	37.720997
13312.174681	3903.115500	1051.387695	-30.658699
13312.174681	3903.115500	1050.235352	44.499172
13312.174681	3903.115500	1049.083984	-120.397636
13312.174681	3903.115500	1047.931641	-98.098259
13312.174681	3903.115500	1046.778320	-84.955582
13312.174681	3903.115500	1045.625977	-127.086502
13312.174681	3903.115500	1044.472656	-172.018219
13312.174681	3903.115500	1043.319336	-175.317322
13312.174681	3903.115500	1042.166016	-44.973770
13312.174681	3903.115500	1041.012695	-78.576645
13312.174681	3903.115500	1039.858398	-43.773930
13312.174681	3903.115500	1038.704102	-84.389824
13312.174681	3903.115500	1037.549805	-171.712128
13312.174681	3903.115500	1036.394531	-12.612586
13312.174681	3903.115500	1035.239258	36.003204
13312.174681	3903.115500	1034.083984	-4.501186
13312.174681	3903.115500	1032.928711	102.299347
13312.174681	3903.115500	1031.773438	-124.944016
13312.174681	3903.115500	1030.617188	-119.293152
13312.174681	3903.115500	1029.460938	-17.093380
13312.174681	3903.115500	1028.304688	19.838234
13312.174681	3903.115500	1027.147461	210.270737
13312.174681	3903.115500	1025.991211	131.058548
13312.174681	3903.115500	1024.833984	169.355103
13312.174681	3903.115500	1023.675781	181.096649
13312.174681	3903.115500	1022.518555	218.615433
13312.174681	3903.115500	1021.360352	206.369797
13312.174681	3903.115500	1020.202148	295.418152
13312.174681	3903.115500	1019.043945	244.233505
13312.174681	3903.115500	1017.884766	233.326233
13312.174681	3903.115500	1016.726563	83.270790
13312.174681	3903.115500	1015.567383	234.823898
13312.174681	3903.115500	1014.407227	257.970154
13312.174681	3903.115500	1013.248047	237.217361
13312.174681	3903.115500	1012.087891	10.697990
13312.174681	3903.115500	1010.927734	-25.130239
13312.174681	3903.115500	1009.767578	50.656872
13312.174681	3903.115500	1008.606445	141.101105
13312.174681	3903.115500	1007.446289	42.322102
13312.174681	3903.115500	1006.285156	32.688663
13312.174681	3903.115500	1005.123047	94.817238
13312.174681	3903.115500	1003.961914	182.150528
13312.174681	3903.115500	1002.799805	346.215729
13312.174681	3903.115500	1001.637695	197.447571
13312.174681	3903.115500	1000.475586	293.620361
13312.174681	3903.115500	999.312500	434.082153
13312.174681	3903.115500	998.149414	291.311737
13312.174681	3903.115500	996.986328	293.863770
13312.174681	3903.115500	995.823242	281.960297
13312.174681	3903.115500	994.659180	305.396942
13312.174681	3903.115500	993.496094	125.388329
13312.174681	3903.115500	992.332031	50.830444
13312.174681	3903.115500	991.166992	110.245033
13312.174681	3903.115500	990.002930	-30.027977
13312.174681	3903.115500	988.837891	119.290886
13312.174681	3903.115500	987.672852	50.996822
13312.174681	3903.115500	986.506836	109.543343
13312.174681	3903.115500	985.341797	184.268326
13312.174681	3903.115500	984.175781	146.459183
13312.174681	3903.115500	983.009766	34.231632
13312.174681	3903.115500	981.843750	165.389832
13312.174681	3903.115500	980.676758	60.670242
13312.174681	3903.115500	979.509766	74.740517
13312.174681	3903.115500	978.342773	291.361359
13312.174681	3903.115500	977.175781	45.464394
13312.174681	3903.115500	976.007813	161.884521
13312.174681	3903.115500	974.839844	170.147018
13312.174681	3903.115500	973.671875	143.354889
13312.174681	3903.115500	972.503906	189.153152
13312.174681	3903.115500	971.334961	204.395081
13312.174681	3903.115500	970.166016	229.012894
13312.174681	3903.115500	968.997070	314.093994
13312.174681	3903.115500	967.828125	404.213074
13312.174681	3903.115500	966.658203	263.545013
13312.174681	3903.115500	965.488281	316.190704
13312.174681	3903.115500	964.318359	202.893799
13312.174681	3903.115500	963.148438	403.285645
13312.174681	3903.115500	961.977539	465.496521
13312.174681	3903.115500	960.806641	282.436096
13312.174681	3903.115500	959.635742	464.422791
13312.174681	3903.115500	958.463867	353.778046
13312.174681	3903.115500	957.292969	259.308136
13312.174681	3903.115500	956.121094	339.635925
13312.174681	3903.115500	954.948242	316.049438
13312.174681	3903.115500	953.776367	330.096863
13312.174681	3903.115500	952.603516	323.385681
13312.174681	3903.115500	951.430664	410.832886
13312.174681	3903.115500	950.257813	278.867737
13312.174681	3903.115500	949.084961	328.093262
13312.174681	3903.115500	947.911133	481.443359
13312.174681	3903.115500	946.737305	460.339111
13312.174681	3903.115500	945.563477	323.312775
13312.174681	3903.115500	944.388672	507.032501
13312.174681	3903.115500	943.213867	526.854553
13312.174681	3903.115500	942.039063	690.216003
13312.174681	3903.115500	940.864258	638.302979
13312.174681	3903.115500	939.688477	604.994812
13312.174681	3903.115500	938.513672	683.976318
13312.174681	3903.115500	937.337891	536.086609
13312.174681	3903.115500	936.161133	651.999451
13312.174681	3903.115500	934.985352	657.063538
13312.174681	3903.115500	933.808594	668.378479
13312.174681	3903.115500	932.631836	743.089600
13312.174681	3903.115500	931.454102	670.415833
13312.174681	3903.115500	930.277344	589.467407
13312.174681	3903.115500	929.099609	520.872375
13312.174681	3903.115500	927.921875	544.147949
13312.174681	3903.115500	926.743164	712.492188
13312.174681	3903.115500	925.565430	596.667786
13312.174681	3903.115500	924.386719	533.959534
13312.174681	3903.115500	923.208008	595.832581
13312.174681	3903.115500	922.028320	555.500488
13312.174681	3903.115500	920.849609	555.971436
13312.174681	3903.115500	919.669922	557.810059
13312.174681	3903.115500	919.474609	387.232025
13312.174681	3903.115500	918.309570	385.552551
13312.174681	3903.115500	917.143555	375.654419
13312.174681	3903.115500	915.977539	522.812622
13312.174681	3903.115500	914.810547	553.576965
13312.174681	3903.115500	913.644531	521.044434
13312.174681	3903.115500	912.477539	492.547363
13312.174681	3903.115500	911.310547	565.940979
13312.174681	3903.115500	910.143555	447.647247
13312.174681	3903.115500	908.975586	514.793884
13312.174681	3903.115500	907.807617	534.994080
13312.174681	3903.115500	906.639648	463.461823
13312.174681	3903.115500	905.471680	369.499023
13312.174681	3903.115500	904.303711	356.967621
13312.174681	3903.115500	903.134766	346.421295
13312.174681	3903.115500	901.965820	571.929626
13312.174681	3903.115500	900.796875	555.125977
13312.174681	3903.115500	899.626953	269.710480
13312.174681	3903.115500	898.457031	494.928986
13312.174681	3903.115500	897.287109	508.490234
13312.174681	3903.115500	896.117188	507.757111
13312.174681	3903.115500	894.947266	559.823975
13312.174681	3903.115500	893.776367	374.012329
13312.174681	3903.115500	892.605469	421.910583
13312.174681	3903.115500	891.434570	490.050629
13312.174681	3903.115500	890.262695	478.889008
13312.174681	3903.115500	889.091797	445.336823
13312.174681	3903.115500	887.919922	377.226868
13312.174681	3903.115500	886.748047	327.359283
13312.174681	3903.115500	885.575195	356.612274
13312.174681	3903.115500	884.403320	199.113190
13312.174681	3903.115500	883.230469	214.069901
13312.174681	3903.115500	882.057617	306.042999
13312.174681	3903.115500	880.883789	296.527740
13312.174681	3903.115500	879.710938	311.291931
13312.174681	3903.115500	878.537109	283.427429
13312.174681	3903.115500	877.362305	255.519699
13312.174681	3903.115500	876.188477	436.277252
13312.174681	3903.115500	875.013672	284.664246
13312.174681	3903.115500	873.839844	339.656952
13312.174681	3903.115500	872.664063	331.796600
13312.174681	3903.115500	871.489258	641.752747
13312.174681	3903.115500	870.313477	429.282227
13312.174681	3903.115500	869.138672	398.988556
13312.174681	3903.115500	867.962891	251.297318
13312.174681	3903.115500	866.786133	338.277893
13312.174681	3903.115500	865.610352	489.893036
13312.174681	3903.115500	864.433594	425.024048
13312.174681	3903.115500	863.256836	333.847504
13312.174681	3903.115500	862.079102	305.316040
13312.174681	3903.115500	860.902344	315.142670
13312.174681	3903.115500	859.724609	379.465302
13312.174681	3903.115500	858.546875	397.249176
13312.174681	3903.115500	857.368164	328.128448
13312.174681	3903.115500	856.190430	246.870667
13312.174681	3903.115500	855.011719	258.460571
13312.174681	3903.115500	853.833008	241.736664
13312.174681	3903.115500	852.654297	273.401825
13312.174681	3903.115500	851.474609	305.002045
13312.174681	3903.115500	850.294922	298.213348
13312.174681	3903.115500	849.115234	315.578003
13312.174681	3903.115500	847.935547	268.363831
13312.174681	3903.115500	846.754883	247.324631
13312.174681	3903.115500	845.575195	490.278107
13312.174681	3903.115500	844.393555	531.570190
13312.174681	3903.115500	843.212891	524.445740
13312.174681	3903.115500	842.032227	670.359253
13312.174681	3903.115500	840.850586	487.905243
13312.174681	3903.115500	839.668945	257.155640
13312.174681	3903.115500	838.486328	386.782471
13312.174681	3903.115500	837.304688	395.552734
13312.174681	3903.115500	836.122070	299.636414
13312.174681	3903.115500	834.939453	455.184204
13312.174681	3903.115500	833.756836	256.620697
13312.174681	3903.115500	832.573242	343.645081
13312.174681	3903.115500	831.389648	217.469757
13312.174681	3903.115500	830.206055	266.180878
13312.174681	3903.115500	829.022461	290.708923
13312.174681	3903.115500	827.838867	427.701111
13312.174681	3903.115500	826.654297	387.807617
13312.174681	3903.115500	825.469727	341.859711
13312.174681	3903.115500	824.284180	382.229675
13312.174681	3903.115500	823.099609	456.669281
13312.174681	3903.115500	821.914063	155.680145
13312.174681	3903.115500	820.728516	209.975983
13312.174681	3903.115500	819.542969	167.898376
13312.174681	3903.115500	818.356445	93.695427
13312.174681	3903.115500	817.169922	222.041885
13312.174681	3903.115500	815.983398	95.637253
13312.174681	3903.115500	814.796875	99.549210
13312.174681	3903.115500	813.609375	181.582352
13312.174681	3903.115500	812.422852	107.236206
13312.174681	3903.115500	811.235352	6.830611
13312.174681	3903.115500	810.046875	82.692429
13312.174681	3903.115500	808.859375	-3.732826
13312.174681	3903.115500	807.670898	45.986809
13312.174681	3903.115500	806.482422	119.666054
13312.174681	3903.115500	805.293945	23.152382
13312.174681	3903.115500	804.104492	-1.328941
13312.174681	3903.115500	802.915039	-21.839554
13312.174681	3903.115500	801.725586	33.624760
13312.174681	3903.115500	800.536133	79.027191
13312.174681	3903.115500	799.345703	136.363892
13312.174681	3903.115500	798.155273	89.692505
13312.174681	3903.115500	796.964844	68.981110
13312.174681	3903.115500	795.774414	10.275434
13312.174681	3903.115500	794.583008	29.462624
13312.174681	3903.115500	793.392578	-75.225800
13312.174681	3903.115500	792.200195	49.726337
13312.174681	3903.115500	791.008789	-47.016312
13312.174681	3903.115500	789.816406	25.905033
13312.174681	3903.115500	788.625000	-14.989768
13312.174681	3903.115500	787.432617	45.848385
13312.174681	3903.115500	786.239258	18.850407
13312.174681	3903.115500	785.046875	35.706734
13312.174681	3903.115500	783.853516	46.534672
13312.174681	3903.115500	782.660156	-88.208313
13312.174681	3903.115500	781.465820	76.039429
13312.174681	3903.115500	780.272461	80.767403
13312.174681	3903.115500	779.078125	133.270920
13312.174681	3903.115500	777.883789	46.284409
13312.174681	3903.115500	776.688477	62.854301
13312.174681	3903.115500	775.494141	-101.802139
13312.174681	3903.115500	774.298828	52.080395
13312.174681	3903.115500	773.103516	46.644676
13312.174681	3903.115500	771.907227	-137.911133
13312.174681	3903.115500	770.711914	-89.655663
13312.174681	3903.115500	769.515625	159.434494
13312.174681	3903.115500	768.318359	171.741943
13312.174681	3903.115500	767.122070	-76.437065
13312.174681	3903.115500	765.924805	-56.197887
13312.174681	3903.115500	764.727539	-45.934700
13312.174681	3903.115500	763.530273	-71.471832
13312.174681	3903.115500	762.333008	10.244795
13312.174681	3903.115500	761.134766	-160.344162
13312.174681	3903.115500	759.936523	4.693424
13312.174681	3903.115500	758.738281	-46.764645
13312.174681	3903.115500	757.540039	28.803015
13312.174681	3903.115500	756.340820	22.943428
13312.174681	3903.115500	755.141602	-40.479553
13312.174681	3903.115500	753.942383	56.771267
13312.174681	3903.115500	752.742188	-173.282516
13312.174681	3903.115500	751.541992	5.192720
13312.174681	3903.115500	750.341797	66.605103
13312.174681	3903.115500	749.141602	199.316833
13312.174681	3903.115500	747.941406	-113.907532
13312.174681	3903.115500	746.740234	-54.571400
13312.174681	3903.115500	745.539063	105.732712
13312.174681	3903.115500	744.337891	89.695145
13312.174681	3903.115500	743.135742	-31.299852
13312.174681	3903.115500	741.933594	-49.333996
13312.174681	3903.115500	740.731445	41.466167
13312.174681	3903.115500	739.529297	-138.875031
13312.174681	3903.115500	738.326172	-184.644791
13312.174681	3903.115500	737.124023	-70.207420
13312.174681	3903.115500	735.919922	-230.713501
13312.174681	3903.115500	734.716797	-7.624896
13312.174681	3903.115500	733.513672	-51.495438
13312.174681	3903.115500	732.309570	-107.229095
13312.174681	3903.115500	731.105469	32.643375
13312.174681	3903.115500	729.900391	-50.784466
13312.174681	3903.115500	728.696289	-5.820556
13312.174681	3903.115500	727.491211	-6.313357
13312.174681	3903.115500	726.286133	-46.307724
13312.174681	3903.115500	725.080078	63.695618
13312.174681	3903.115500	723.874023	17.743156
13312.174681	3903.115500	722.668945	113.845291
13312.174681	3903.115500	721.461914	205.936920
13312.174681	3903.115500	720.255859	177.680710
13312.174681	3903.115500	719.048828	269.687012
13312.174681	3903.115500	717.841797	63.979912
13312.174681	3903.115500	716.634766	309.666321
13312.174681	3903.115500	715.427734	100.065506
13312.174681	3903.115500	714.219727	115.115654
13312.174681	3903.115500	713.011719	136.054291
13312.174681	3903.115500	711.803711	40.788090
13312.174681	3903.115500	710.594727	47.920746
13312.174681	3903.115500	709.385742	64.879753
13312.174681	3903.115500	708.176758	-34.290009
13312.174681	3903.115500	706.967773	90.868965
13312.174681	3903.115500	705.758789	160.884964
13312.174681	3903.115500	704.548828	-30.716511
13312.174681	3903.115500	703.338867	1.909588
13312.174681	3903.115500	702.127930	-95.240051
13312.174681	3903.115500	700.917969	78.880173
13312.174681	3903.115500	699.707031	-20.229002
13312.174681	3903.115500	698.496094	-62.330429
13312.174681	3903.115500	697.285156	64.501663
13312.174681	3903.115500	696.073242	36.126740
13312.174681	3903.115500	694.861328	-43.292725
13312.174681	3903.115500	693.649414	42.206631
13312.174681	3903.115500	692.436523	25.604885
13312.174681	3903.115500	691.224609	-57.705608
13312.174681	3903.115500	690.011719	92.458946
13312.174681	3903.115500	688.798828	197.444626
13312.174681	3903.115500	687.584961	121.971268
13312.174681	3903.115500	686.372070	93.582108
13312.174681	3903.115500	685.158203	53.437019
13312.174681	3903.115500	683.943359	64.253769
13312.174681	3903.115500	682.729492	347.408142
13312.174681	3903.115500	681.514648	197.526321
13312.174681	3903.115500	680.299805	286.637970
13312.174681	3903.115500	679.084961	258.228485
13312.174681	3903.115500	677.869141	300.300842
13312.174681	3903.115500	676.653320	283.638702
13312.174681	3903.115500	675.437500	265.027222
13312.174681	3903.115500	674.221680	404.893127
13312.174681	3903.115500	673.004883	331.494385
13312.174681	3903.115500	671.789063	414.578796
13312.174681	3903.115500	670.571289	568.008118
13312.174681	3903.115500	669.354492	744.837097
13312.174681	3903.115500	668.136719	694.887329
13312.174681	3903.115500	666.919922	877.483765
13312.174681	3903.115500	665.701172	895.904175
13312.174681	3903.115500	664.483398	863.545105
13312.174681	3903.115500	663.264648	846.822388
13312.174681	3903.115500	662.045898	732.499146
13312.174681	3903.115500	660.827148	686.545532
13312.174681	3903.115500	659.608398	681.599243
13312.174681	3903.115500	658.388672	608.371521
13312.174681	3903.115500	657.168945	593.701477
13312.174681	3903.115500	655.949219	506.887970
13312.174681	3903.115500	654.728516	468.861389
13312.174681	3903.115500	653.507813	586.812500
13312.174681	3903.115500	652.287109	587.784302
13312.174681	3903.115500	651.066406	688.143433
13312.174681	3903.115500	649.844727	663.784790
13312.174681	3903.115500	648.623047	684.246155
13312.174681	3903.115500	647.401367	798.183350
13312.174681	3903.115500	646.179688	768.012329
13312.174681	3903.115500	644.957031	759.275024
13312.174681	3903.115500	643.734375	770.015503
13312.174681	3903.115500	642.511719	469.455475
13312.174681	3903.115500	641.289063	466.664825
13312.174681	3903.115500	640.065430	623.365540
13312.174681	3903.115500	638.841797	583.625671
13312.174681	3903.115500	637.618164	493.373413
13312.174681	3903.115500	636.393555	533.395874
13312.174681	3903.115500	635.168945	449.051941
13312.174681	3903.115500	633.944336	382.246490
13312.174681	3903.115500	632.719727	439.801239
13312.174681	3903.115500	631.494141	367.233795
13312.174681	3903.115500	630.269531	469.461151
13312.174681	3903.115500	629.042969	336.776764
13312.174681	3903.115500	627.817383	279.861755
13312.174681	3903.115500	626.590820	296.720612
13312.174681	3903.115500	625.365234	311.657349
13312.174681	3903.115500	624.137695	186.956421
13312.174681	3903.115500	622.911133	264.001801
13312.174681	3903.115500	621.683594	246.036880
13312.174681	3903.115500	620.456055	224.226059
13312.174681	3903.115500	619.228516	299.341766
13312.174681	3903.115500	618.000977	258.201813
13312.174681	3903.115500	616.772461	261.652618
13312.174681	3903.115500	615.543945	189.597733
13312.174681	3903.115500	614.314453	177.617950
13312.174681	3903.115500	613.085938	308.923645
13312.174681	3903.115500	611.856445	176.981140
13312.174681	3903.115500	610.626953	217.335983
13312.174681	3903.115500	609.397461	375.710297
13312.174681	3903.115500	608.166992	151.075607
13312.174681	3903.115500	606.936523	156.681946
13312.174681	3903.115500	605.706055	326.649353
13312.174681	3903.115500	604.474609	260.751160
13312.174681	3903.115500	603.244141	125.342842
13312.174681	3903.115500	602.012695	268.243591
13312.174681	3903.115500	600.780273	268.163818
13312.174681	3903.115500	599.548828	134.858688
13312.174681	3903.115500	598.316406	210.173965
13312.174681	3903.115500	597.083984	326.027893
13312.174681	3903.115500	595.851563	449.584930
13312.174681	3903.115500	594.618164	378.223480
13312.174681	3903.115500	593.384766	376.377380
13312.174681	3903.115500	592.151367	249.191025
13312.174681	3903.115500	590.917969	241.654465
13312.174681	3903.115500	589.683594	230.295166
13312.174681	3903.115500	588.449219	149.580978
13312.174681	3903.115500	587.214844	165.295410
13312.174681	3903.115500	585.979492	159.839523
13312.174681	3903.115500	584.745117	-45.917999
13312.174681	3903.115500	583.509766	-33.922375
13312.174681	3903.115500	582.273438	172.580658
13312.174681	3903.115500	581.038086	122.991295
13312.174681	3903.115500	579.801758	19.564199
13312.174681	3903.115500	578.565430	35.524704
13312.174681	3903.115500	577.329102	213.123520
13312.174681	3903.115500	576.091797	15.598780
13312.174681	3903.115500	574.854492	8.580499
13312.174681	3903.115500	573.617188	51.592297
13312.174681	3903.115500	572.378906	134.988098
13312.174681	3903.115500	571.141602	201.091843
13312.174681	3903.115500	569.903320	223.009644
13312.174681	3903.115500	568.664063	239.189987
13312.174681	3903.115500	567.425781	155.532257
13312.174681	3903.115500	566.186523	79.626610
13312.174681	3903.115500	564.947266	28.749670
13312.174681	3903.115500	563.708008	-60.455421
13312.174681	3903.115500	562.467773	57.664238
13312.174681	3903.115500	561.227539	-37.189587
13312.174681	3903.115500	559.987305	-39.891857
13312.174681	3903.115500	558.747070	-142.277527
13312.174681	3903.115500	557.505859	81.365463
13312.174681	3903.115500	556.264648	38.497959
13312.174681	3903.115500	555.023438	152.843063
13312.174681	3903.115500	553.781250	-45.150791
13312.174681	3903.115500	552.539063	57.744179
13312.174681	3903.115500	551.296875	-57.709415
13312.174681	3903.115500	550.054688	73.945351
13312.174681	3903.115500	548.811523	184.520706
13312.174681	3903.115500	547.569336	218.527069
13312.174681	3903.115500	546.325195	103.288170
13312.174681	3903.115500	545.082031	146.937927
13312.174681	3903.115500	543.837891	280.508728
13312.174681	3903.115500	542.593750	165.444763
13312.174681	3903.115500	541.349609	125.035797
13312.174681	3903.115500	540.105469	224.229324
13312.174681	3903.115500	538.860352	250.790268
13312.174681	3903.115500	537.615234	248.714371
13312.174681	3903.115500	536.369141	124.410141
13312.174681	3903.115500	535.124023	130.075119
13312.174681	3903.115500	533.877930	298.084290
13312.174681	3903.115500	532.631836	214.048889
13312.174681	3903.115500	531.384766	177.801254
13312.174681	3903.115500	530.138672	74.813980
13312.174681	3903.115500	528.891602	145.524200
13312.174681	3903.115500	527.643555	149.472946
13312.174681	3903.115500	526.396484	269.788330
13312.174681	3903.115500	525.148438	52.598000
13312.174681	3903.115500	523.900391	18.535698
13312.174681	3903.115500	522.652344	-103.150200
13312.174681	3903.115500	521.403320	76.308189
13312.174681	3903.115500	520.154297	-35.753880
13312.174681	3903.115500	518.905273	-27.745846
13312.174681	3903.115500	517.656250	43.126915
13312.174681	3903.115500	516.406250	13.092692
13312.174681	3903.115500	515.156250	-89.232239
13312.174681	3903.115500	513.906250	31.165400
13312.174681	3903.115500	512.655273	52.599785
13312.174681	3903.115500	511.404297	247.148941
13312.174681	3903.115500	510.153320	91.708824
13312.174681	3903.115500	508.902344	39.031826
13312.174681	3903.115500	507.650391	128.970139
13312.174681	3903.115500	506.398438	85.850563
13312.174681	3903.115500	505.146484	227.083084
13312.174681	3903.115500	503.893555	138.402130
13312.174681	3903.115500	502.641602	-33.793701
13312.174681	3903.115500	501.388672	97.926537
13312.174681	3903.115500	500.134766	147.966827
13312.174681	3903.115500	498.881836	-81.022987
13312.174681	3903.115500	497.627930	-122.031456
13312.174681	3903.115500	496.374023	-126.964653
13312.174681	3903.115500	495.119141	-19.972673
13312.174681	3903.115500	493.865234	-218.351227
13312.174681	3903.115500	492.610352	-92.413216
13312.174681	3903.115500	491.355469	-13.917486
13312.174681	3903.115500	490.099609	-62.436668
13312.174681	3903.115500	488.843750	21.703381
13312.174681	3903.115500	487.587891	58.444702
13312.174681	3903.115500	486.332031	97.060814
13312.174681	3903.115500	485.075195	-27.198364
13312.174681	3903.115500	483.818359	-79.469460
13312.174681	3903.115500	482.561523	214.655151
13312.174681	3903.115500	481.304688	141.516190
13312.174681	3903.115500	480.046875	144.073715
13312.174681	3903.115500	478.789063	161.746078
13312.174681	3903.115500	477.531250	194.521744
13312.174681	3903.115500	476.272461	217.807373
13312.174681	3903.115500	475.013672	222.156387
13312.174681	3903.115500	473.754883	209.468185
13312.174681	3903.115500	472.496094	219.431686
13312.174681	3903.115500	471.236328	318.147980
13312.174681	3903.115500	469.976563	273.244568
13312.174681	3903.115500	468.716797	224.548294
13312.174681	3903.115500	467.456055	187.159531
13312.174681	3903.115500	466.196289	168.621552
13312.174681	3903.115500	464.935547	121.738235
13312.174681	3903.115500	463.673828	152.180313
13312.174681	3903.115500	462.413086	203.308426
13312.174681	3903.115500	461.151367	75.200935
13312.174681	3903.115500	459.889648	211.056244
13312.174681	3903.115500	458.626953	212.950989
13312.174681	3903.115500	457.364258	237.396454
13312.174681	3903.115500	456.101563	267.416046
13312.174681	3903.115500	454.838867	188.088257
13312.174681	3903.115500	453.575195	165.221069
13312.174681	3903.115500	452.312500	404.026306
13312.174681	3903.115500	451.047852	456.262512
13312.174681	3903.115500	449.784180	329.581421
13312.174681	3903.115500	448.519531	490.777740
13312.174681	3903.115500	447.254883	418.516418
13312.174681	3903.115500	445.990234	312.329376
13312.174681	3903.115500	444.725586	484.410126
13312.174681	3903.115500	443.459961	417.524384
13312.174681	3903.115500	442.194336	181.375458
13312.174681	3903.115500	440.927734	450.757050
13312.174681	3903.115500	439.662109	265.195465
13312.174681	3903.115500	438.395508	425.237305
13312.174681	3903.115500	437.127930	483.655273
13312.174681	3903.115500	435.861328	573.835815
13312.174681	3903.115500	434.593750	611.267090
13312.174681	3903.115500	433.326172	616.626343
13312.174681	3903.115500	432.058594	854.518799
13312.174681	3903.115500	430.790039	679.402344
13312.174681	3903.115500	429.521484	682.389954
13312.174681	3903.115500	428.252930	747.090271
13312.174681	3903.115500	426.984375	654.097168
13312.174681	3903.115500	425.714844	712.791443
13312.174681	3903.115500	424.445313	640.087830
13312.174681	3903.115500	423.174805	672.141907
13312.174681	3903.115500	421.905273	608.450195
13312.174681	3903.115500	420.634766	904.163452
13312.174681	3903.115500	419.364258	787.595093
13312.174681	3903.115500	418.092773	762.583069
13312.174681	3903.115500	416.822266	720.515259
13312.174681	3903.115500	415.550781	766.173462
13312.174681	3903.115500	414.278320	697.444763
13312.174681	3903.115500	413.006836	621.020264
13312.174681	3903.115500	411.734375	621.038818
13312.174681	3903.115500	410.461914	501.137115
13312.174681	3903.115500	409.188477	586.622620
13312.174681	3903.115500	407.916016	546.588928
13312.174681	3903.115500	406.642578	444.620880
13312.174681	3903.115500	405.368164	583.364075
13312.174681	3903.115500	404.094727	480.832794
13312.174681	3903.115500	402.820313	331.345520
13312.174681	3903.115500	401.545898	388.813782
13312.174681	3903.115500	400.270508	438.453491
13312.174681	3903.115500	398.996094	288.081512
13312.174681	3903.115500	397.720703	180.326645
13312.174681	3903.115500	396.444336	292.338654
13312.174681	3903.115500	395.168945	237.981369
13312.174681	3903.115500	393.892578	252.241333
13312.174681	3903.115500	392.616211	122.584938
13312.174681	3903.115500	391.339844	154.714798
13312.174681	3903.115500	390.062500	89.530212
13312.174681	3903.115500	388.785156	79.836769
13312.174681	3903.115500	387.507813	51.095821
13312.174681	3903.115500	386.229492	27.502497
13312.174681	3903.115500	384.951172	124.465782
13312.174681	3903.115500	383.672852	-6.129205
13312.174681	3903.115500	382.394531	-45.967373
13312.174681	3903.115500	381.115234	1.148133
13312.174681	3903.115500	379.835938	38.446217
13312.174681	3903.115500	378.556641	26.872242
13312.174681	3903.115500	377.277344	24.077431
13312.174681	3903.115500	375.997070	-46.176357
13312.174681	3903.115500	374.716797	24.281872
13312.174681	3903.115500	373.435547	32.825497
13312.174681	3903.115500	372.155273	-89.215134
13312.174681	3903.115500	370.874023	-31.670008
13312.174681	3903.115500	369.591797	-47.176182
13312.174681	3903.115500	368.310547	-161.653763
13312.174681	3903.115500	367.028320	38.766022
13312.174681	3903.115500	365.746094	141.973373
13312.174681	3903.115500	364.463867	-31.920776
13312.174681	3903.115500	363.180664	-108.135025
13312.174681	3903.115500	361.897461	-19.976711
13312.174681	3903.115500	360.614258	-62.326817
13312.174681	3903.115500	359.330078	9.514618
13312.174681	3903.115500	358.045898	-84.327309
13312.174681	3903.115500	356.761719	39.729523
13312.174681	3903.115500	355.477539	77.763092
13312.174681	3903.115500	354.192383	57.569664
13312.174681	3903.115500	352.907227	3.258907
13312.174681	3903.115500	351.622070	74.022263
13312.174681	3903.115500	350.336914	23.630995
13312.174681	3903.115500	349.050781	20.490107
13312.174681	3903.115500	347.764648	86.770164
13312.174681	3903.115500	346.477539	109.570564
13312.174681	3903.115500	345.191406	-71.909279
13312.174681	3903.115500	343.904297	41.508717
13312.174681	3903.115500	342.616211	-23.523209
13312.174681	3903.115500	341.329102	91.617538
13312.174681	3903.115500	340.041016	-3.060131
13312.174681	3903.115500	338.752930	-34.058777
13312.174681	3903.115500	337.463867	63.156223
13312.174681	3903.115500	336.175781	83.620407
13312.174681	3903.115500	334.886719	3.303175
13312.174681	3903.115500	333.596680	95.360153
13312.174681	3903.115500	332.307617	49.771114
13312.174681	3903.115500	331.017578	113.704697
13312.174681	3903.115500	329.727539	-19.026949
13312.174681	3903.115500	328.436523	-208.229340
13312.174681	3903.115500	327.146484	-77.775589
13312.174681	3903.115500	325.855469	16.339369
13312.174681	3903.115500	324.563477	-106.454185
13312.174681	3903.115500	323.272461	29.310009
13312.174681	3903.115500	321.980469	-14.975082
13312.174681	3903.115500	320.688477	33.340450
13312.174681	3903.115500	319.395508	-32.058064
13312.174681	3903.115500	318.103516	66.886963
13312.174681	3903.115500	316.810547	-23.353031
13312.174681	3903.115500	315.516602	22.947153
13312.174681	3903.115500	314.223633	130.353134
13312.174681	3903.115500	312.929688	2.635467
13312.174681	3903.115500	311.635742	27.894800
13312.174681	3903.115500	310.340820	44.197750
13312.174681	3903.115500	309.045898	-88.095856
13312.174681	3903.115500	307.750977	147.366898
13312.174681	3903.115500	306.456055	-59.760689
13312.174681	3903.115500	305.160156	-2.221183
13312.174681	3903.115500	303.865234	257.467621
13312.174681	3903.115500	302.568359	173.764664
13312.174681	3903.115500	301.272461	150.802719
13312.174681	3903.115500	299.975586	4.902440
13312.174681	3903.115500	298.678711	59.042210
