#X		#Y		#Wave		#Intensity
3053.736543	5961.720833	1999.980469	-258.743286
3053.736543	5961.720833	1999.016602	-210.277435
3053.736543	5961.720833	1998.052734	-44.464947
3053.736543	5961.720833	1997.087891	-249.333252
3053.736543	5961.720833	1996.123047	-31.806942
3053.736543	5961.720833	1995.158203	15.864281
3053.736543	5961.720833	1994.193359	7.746289
3053.736543	5961.720833	1993.228516	107.344574
3053.736543	5961.720833	1992.262695	-108.711761
3053.736543	5961.720833	1991.297852	-199.631744
3053.736543	5961.720833	1990.332031	131.576721
3053.736543	5961.720833	1989.366211	-55.595108
3053.736543	5961.720833	1988.399414	-30.981619
3053.736543	5961.720833	1987.433594	-118.729111
3053.736543	5961.720833	1986.466797	25.045124
3053.736543	5961.720833	1985.500977	115.867348
3053.736543	5961.720833	1984.534180	64.825783
3053.736543	5961.720833	1983.567383	156.265411
3053.736543	5961.720833	1982.599609	150.434692
3053.736543	5961.720833	1981.632813	111.641853
3053.736543	5961.720833	1980.665039	506.841278
3053.736543	5961.720833	1979.697266	174.975555
3053.736543	5961.720833	1978.729492	84.486763
3053.736543	5961.720833	1977.761719	331.555511
3053.736543	5961.720833	1976.792969	234.723495
3053.736543	5961.720833	1975.825195	127.382492
3053.736543	5961.720833	1974.856445	145.289505
3053.736543	5961.720833	1973.887695	51.553967
3053.736543	5961.720833	1972.918945	243.393463
3053.736543	5961.720833	1971.949219	350.744965
3053.736543	5961.720833	1970.980469	277.512329
3053.736543	5961.720833	1970.010742	87.918175
3053.736543	5961.720833	1969.041016	275.015472
3053.736543	5961.720833	1968.071289	316.167389
3053.736543	5961.720833	1967.101563	245.974808
3053.736543	5961.720833	1966.130859	200.007126
3053.736543	5961.720833	1965.161133	30.493979
3053.736543	5961.720833	1964.190430	279.279999
3053.736543	5961.720833	1963.219727	350.329834
3053.736543	5961.720833	1962.249023	283.147095
3053.736543	5961.720833	1961.277344	156.580902
3053.736543	5961.720833	1960.306641	273.356232
3053.736543	5961.720833	1959.334961	237.247208
3053.736543	5961.720833	1958.363281	223.004990
3053.736543	5961.720833	1957.391602	206.039841
3053.736543	5961.720833	1956.419922	405.211792
3053.736543	5961.720833	1955.447266	289.388977
3053.736543	5961.720833	1954.474609	252.043533
3053.736543	5961.720833	1953.501953	455.340790
3053.736543	5961.720833	1952.529297	-0.118881
3053.736543	5961.720833	1951.556641	146.277252
3053.736543	5961.720833	1950.583984	186.840622
3053.736543	5961.720833	1949.610352	323.003082
3053.736543	5961.720833	1948.636719	208.542130
3053.736543	5961.720833	1947.663086	-16.466425
3053.736543	5961.720833	1946.689453	84.917191
3053.736543	5961.720833	1945.715820	328.481903
3053.736543	5961.720833	1944.741211	297.077972
3053.736543	5961.720833	1943.767578	454.486359
3053.736543	5961.720833	1942.792969	89.381813
3053.736543	5961.720833	1941.818359	288.316315
3053.736543	5961.720833	1940.842773	28.676474
3053.736543	5961.720833	1939.868164	-12.753770
3053.736543	5961.720833	1938.892578	249.674118
3053.736543	5961.720833	1937.916992	24.389845
3053.736543	5961.720833	1936.941406	7.401785
3053.736543	5961.720833	1935.965820	10.007067
3053.736543	5961.720833	1934.990234	122.809120
3053.736543	5961.720833	1934.013672	135.186340
3053.736543	5961.720833	1933.037109	101.062958
3053.736543	5961.720833	1932.060547	35.155769
3053.736543	5961.720833	1931.083984	35.371662
3053.736543	5961.720833	1930.107422	177.520554
3053.736543	5961.720833	1929.129883	99.501976
3053.736543	5961.720833	1928.153320	126.727760
3053.736543	5961.720833	1927.175781	92.857719
3053.736543	5961.720833	1926.198242	-65.623619
3053.736543	5961.720833	1925.219727	152.425583
3053.736543	5961.720833	1924.242188	72.320908
3053.736543	5961.720833	1923.263672	-100.538162
3053.736543	5961.720833	1922.285156	41.876564
3053.736543	5961.720833	1921.306641	-74.583450
3053.736543	5961.720833	1920.328125	-71.260345
3053.736543	5961.720833	1919.349609	37.132427
3053.736543	5961.720833	1918.370117	165.095871
3053.736543	5961.720833	1917.391602	-234.066010
3053.736543	5961.720833	1916.412109	-323.089996
3053.736543	5961.720833	1915.431641	51.555977
3053.736543	5961.720833	1914.452148	-151.937683
3053.736543	5961.720833	1913.472656	-204.048355
3053.736543	5961.720833	1912.492188	-34.152672
3053.736543	5961.720833	1911.511719	-117.757111
3053.736543	5961.720833	1910.531250	300.887787
3053.736543	5961.720833	1909.550781	-45.728451
3053.736543	5961.720833	1908.569336	7.479115
3053.736543	5961.720833	1907.588867	12.058437
3053.736543	5961.720833	1906.607422	-107.475143
3053.736543	5961.720833	1905.625977	4.487314
3053.736543	5961.720833	1904.644531	55.651230
3053.736543	5961.720833	1903.662109	-136.521774
3053.736543	5961.720833	1902.680664	216.662704
3053.736543	5961.720833	1901.698242	148.854095
3053.736543	5961.720833	1900.715820	-293.481628
3053.736543	5961.720833	1899.733398	-197.974808
3053.736543	5961.720833	1898.750000	-126.716743
3053.736543	5961.720833	1897.767578	-142.906509
3053.736543	5961.720833	1896.784180	23.343979
3053.736543	5961.720833	1895.800781	-123.907784
3053.736543	5961.720833	1894.817383	-132.479355
3053.736543	5961.720833	1893.833984	-97.206963
3053.736543	5961.720833	1892.850586	-27.834188
3053.736543	5961.720833	1891.866211	-189.123428
3053.736543	5961.720833	1890.881836	-121.987091
3053.736543	5961.720833	1889.897461	-64.487488
3053.736543	5961.720833	1888.913086	22.217274
3053.736543	5961.720833	1887.927734	-111.871567
3053.736543	5961.720833	1886.943359	-29.854164
3053.736543	5961.720833	1885.958008	35.240593
3053.736543	5961.720833	1884.972656	-47.562485
3053.736543	5961.720833	1883.987305	61.340691
3053.736543	5961.720833	1883.001953	-55.209557
3053.736543	5961.720833	1882.015625	24.728401
3053.736543	5961.720833	1881.029297	-157.054749
3053.736543	5961.720833	1880.042969	-103.627136
3053.736543	5961.720833	1879.056641	117.034813
3053.736543	5961.720833	1878.070313	-154.068817
3053.736543	5961.720833	1877.083984	78.769981
3053.736543	5961.720833	1876.096680	154.186157
3053.736543	5961.720833	1875.109375	-82.681877
3053.736543	5961.720833	1874.122070	-19.243507
3053.736543	5961.720833	1873.134766	-185.688446
3053.736543	5961.720833	1872.146484	-209.256775
3053.736543	5961.720833	1871.159180	-210.989822
3053.736543	5961.720833	1870.170898	87.254601
3053.736543	5961.720833	1869.182617	220.983322
3053.736543	5961.720833	1868.194336	163.687027
3053.736543	5961.720833	1867.205078	-290.014069
3053.736543	5961.720833	1866.216797	29.927879
3053.736543	5961.720833	1865.227539	54.959900
3053.736543	5961.720833	1864.238281	89.673363
3053.736543	5961.720833	1863.249023	73.667130
3053.736543	5961.720833	1862.259766	-137.944336
3053.736543	5961.720833	1861.269531	-4.157112
3053.736543	5961.720833	1860.279297	197.191223
3053.736543	5961.720833	1859.290039	-161.533890
3053.736543	5961.720833	1858.298828	254.567657
3053.736543	5961.720833	1857.308594	-53.361122
3053.736543	5961.720833	1856.318359	-103.044937
3053.736543	5961.720833	1855.327148	122.249504
3053.736543	5961.720833	1854.335938	-96.279457
3053.736543	5961.720833	1853.344727	34.868168
3053.736543	5961.720833	1852.353516	-125.742233
3053.736543	5961.720833	1851.362305	215.003555
3053.736543	5961.720833	1850.370117	206.180450
3053.736543	5961.720833	1849.377930	91.319801
3053.736543	5961.720833	1848.385742	207.714508
3053.736543	5961.720833	1847.393555	-109.484138
3053.736543	5961.720833	1846.401367	-79.865082
3053.736543	5961.720833	1845.408203	36.363155
3053.736543	5961.720833	1844.415039	354.685211
3053.736543	5961.720833	1843.421875	102.473053
3053.736543	5961.720833	1842.428711	28.349684
3053.736543	5961.720833	1841.435547	156.265213
3053.736543	5961.720833	1840.441406	120.508881
3053.736543	5961.720833	1839.448242	19.766619
3053.736543	5961.720833	1838.454102	29.582733
3053.736543	5961.720833	1837.459961	106.622963
3053.736543	5961.720833	1836.464844	106.639175
3053.736543	5961.720833	1835.470703	267.566956
3053.736543	5961.720833	1834.475586	-198.712051
3053.736543	5961.720833	1833.480469	142.175262
3053.736543	5961.720833	1832.485352	211.454529
3053.736543	5961.720833	1831.490234	379.050629
3053.736543	5961.720833	1830.495117	359.222412
3053.736543	5961.720833	1829.499023	173.670441
3053.736543	5961.720833	1828.502930	355.240082
3053.736543	5961.720833	1827.506836	87.946144
3053.736543	5961.720833	1826.510742	257.226318
3053.736543	5961.720833	1825.513672	205.657669
3053.736543	5961.720833	1824.517578	173.163712
3053.736543	5961.720833	1823.520508	75.812408
3053.736543	5961.720833	1822.523438	-52.803902
3053.736543	5961.720833	1821.526367	242.689133
3053.736543	5961.720833	1820.529297	267.158081
3053.736543	5961.720833	1819.531250	-65.497345
3053.736543	5961.720833	1818.533203	171.893005
3053.736543	5961.720833	1817.535156	471.302246
3053.736543	5961.720833	1816.537109	351.425171
3053.736543	5961.720833	1815.539063	329.580719
3053.736543	5961.720833	1814.540039	-68.199196
3053.736543	5961.720833	1813.541992	194.473358
3053.736543	5961.720833	1812.542969	121.912529
3053.736543	5961.720833	1811.543945	3.750752
3053.736543	5961.720833	1810.543945	150.921768
3053.736543	5961.720833	1809.544922	-60.820724
3053.736543	5961.720833	1808.544922	427.811829
3053.736543	5961.720833	1807.544922	177.470245
3053.736543	5961.720833	1806.544922	211.420090
3053.736543	5961.720833	1805.544922	335.958191
3053.736543	5961.720833	1804.544922	316.913696
3053.736543	5961.720833	1803.543945	381.264221
3053.736543	5961.720833	1802.542969	352.252625
3053.736543	5961.720833	1801.541992	215.600708
3053.736543	5961.720833	1800.541016	-21.468660
3053.736543	5961.720833	1799.539063	96.944405
3053.736543	5961.720833	1798.538086	212.717468
3053.736543	5961.720833	1797.536133	113.499565
3053.736543	5961.720833	1796.534180	16.482260
3053.736543	5961.720833	1795.532227	200.692368
3053.736543	5961.720833	1794.529297	265.374664
3053.736543	5961.720833	1793.527344	67.575081
3053.736543	5961.720833	1792.524414	-20.749653
3053.736543	5961.720833	1791.521484	155.243744
3053.736543	5961.720833	1790.518555	37.872375
3053.736543	5961.720833	1789.514648	299.059845
3053.736543	5961.720833	1788.511719	150.260834
3053.736543	5961.720833	1787.507813	113.183975
3053.736543	5961.720833	1786.503906	394.902466
3053.736543	5961.720833	1785.500000	62.133060
3053.736543	5961.720833	1784.496094	283.757660
3053.736543	5961.720833	1783.491211	93.388245
3053.736543	5961.720833	1782.486328	195.453613
3053.736543	5961.720833	1781.481445	95.046761
3053.736543	5961.720833	1780.476563	148.996078
3053.736543	5961.720833	1779.471680	155.110489
3053.736543	5961.720833	1778.465820	132.422852
3053.736543	5961.720833	1777.460938	385.194550
3053.736543	5961.720833	1776.455078	352.436096
3053.736543	5961.720833	1775.449219	257.650726
3053.736543	5961.720833	1774.442383	93.733765
3053.736543	5961.720833	1773.436523	259.738892
3053.736543	5961.720833	1772.429688	304.295929
3053.736543	5961.720833	1771.422852	123.028465
3053.736543	5961.720833	1770.416016	36.499809
3053.736543	5961.720833	1769.409180	54.146400
3053.736543	5961.720833	1768.402344	235.225037
3053.736543	5961.720833	1767.394531	325.796631
3053.736543	5961.720833	1766.386719	209.708069
3053.736543	5961.720833	1765.378906	233.293427
3053.736543	5961.720833	1764.371094	12.386892
3053.736543	5961.720833	1763.362305	111.274139
3053.736543	5961.720833	1762.354492	141.127533
3053.736543	5961.720833	1761.345703	165.931061
3053.736543	5961.720833	1760.336914	-115.172501
3053.736543	5961.720833	1759.328125	105.696190
3053.736543	5961.720833	1758.318359	136.722137
3053.736543	5961.720833	1757.308594	139.037338
3053.736543	5961.720833	1756.299805	36.921383
3053.736543	5961.720833	1755.290039	272.995056
3053.736543	5961.720833	1754.279297	264.935028
3053.736543	5961.720833	1753.269531	318.123169
3053.736543	5961.720833	1752.258789	-50.073204
3053.736543	5961.720833	1751.249023	-207.911697
3053.736543	5961.720833	1750.238281	-181.561066
3053.736543	5961.720833	1749.226563	28.871479
3053.736543	5961.720833	1748.215820	-146.325943
3053.736543	5961.720833	1747.204102	68.166672
3053.736543	5961.720833	1746.193359	183.071259
3053.736543	5961.720833	1745.181641	25.954901
3053.736543	5961.720833	1744.168945	152.011444
3053.736543	5961.720833	1743.157227	72.308350
3053.736543	5961.720833	1742.144531	-83.226448
3053.736543	5961.720833	1741.132813	268.544067
3053.736543	5961.720833	1740.120117	289.458923
3053.736543	5961.720833	1739.106445	62.294319
3053.736543	5961.720833	1738.093750	21.325733
3053.736543	5961.720833	1737.080078	121.586090
3053.736543	5961.720833	1736.067383	113.063980
3053.736543	5961.720833	1735.053711	156.107773
3053.736543	5961.720833	1734.040039	116.341263
3053.736543	5961.720833	1733.025391	29.142326
3053.736543	5961.720833	1732.011719	106.669846
3053.736543	5961.720833	1730.997070	-202.527573
3053.736543	5961.720833	1729.982422	105.269852
3053.736543	5961.720833	1728.967773	-279.737549
3053.736543	5961.720833	1727.952148	-201.033310
3053.736543	5961.720833	1726.937500	-51.986938
3053.736543	5961.720833	1725.921875	-11.575642
3053.736543	5961.720833	1724.906250	-202.082947
3053.736543	5961.720833	1723.890625	-35.157890
3053.736543	5961.720833	1722.875000	-84.993423
3053.736543	5961.720833	1721.858398	-76.312614
3053.736543	5961.720833	1720.841797	75.534836
3053.736543	5961.720833	1719.825195	-59.778645
3053.736543	5961.720833	1718.808594	-70.726082
3053.736543	5961.720833	1717.791992	-86.638855
3053.736543	5961.720833	1716.774414	113.333160
3053.736543	5961.720833	1715.756836	-55.873089
3053.736543	5961.720833	1714.739258	-168.906235
3053.736543	5961.720833	1713.721680	-129.515457
3053.736543	5961.720833	1712.704102	-59.876656
3053.736543	5961.720833	1711.685547	-63.326202
3053.736543	5961.720833	1710.667969	-104.552078
3053.736543	5961.720833	1709.649414	-237.565994
3053.736543	5961.720833	1708.630859	-293.359711
3053.736543	5961.720833	1707.611328	-316.575073
3053.736543	5961.720833	1706.592773	-290.752502
3053.736543	5961.720833	1705.573242	-138.599716
3053.736543	5961.720833	1704.553711	-164.919922
3053.736543	5961.720833	1703.534180	-212.570251
3053.736543	5961.720833	1702.513672	107.441315
3053.736543	5961.720833	1701.494141	-39.128338
3053.736543	5961.720833	1700.473633	-66.444031
3053.736543	5961.720833	1699.453125	-164.245117
3053.736543	5961.720833	1698.432617	-46.814365
3053.736543	5961.720833	1697.412109	-353.413025
3053.736543	5961.720833	1696.390625	-14.114521
3053.736543	5961.720833	1695.369141	121.223587
3053.736543	5961.720833	1694.347656	146.312851
3053.736543	5961.720833	1693.326172	168.831604
3053.736543	5961.720833	1692.304688	104.581306
3053.736543	5961.720833	1691.282227	26.075548
3053.736543	5961.720833	1690.260742	-59.595753
3053.736543	5961.720833	1689.238281	43.865292
3053.736543	5961.720833	1688.214844	-103.031326
3053.736543	5961.720833	1687.192383	-259.389801
3053.736543	5961.720833	1686.168945	84.028198
3053.736543	5961.720833	1685.146484	163.201263
3053.736543	5961.720833	1684.123047	-0.761880
3053.736543	5961.720833	1683.099609	236.740982
3053.736543	5961.720833	1682.075195	98.081497
3053.736543	5961.720833	1681.051758	97.024963
3053.736543	5961.720833	1680.027344	63.075321
3053.736543	5961.720833	1679.002930	150.275040
3053.736543	5961.720833	1677.978516	393.545105
3053.736543	5961.720833	1676.953125	286.680298
3053.736543	5961.720833	1675.928711	163.394974
3053.736543	5961.720833	1674.903320	527.183777
3053.736543	5961.720833	1673.877930	189.084244
3053.736543	5961.720833	1672.852539	296.048737
3053.736543	5961.720833	1671.826172	302.586273
3053.736543	5961.720833	1670.800781	290.360016
3053.736543	5961.720833	1669.774414	452.621155
3053.736543	5961.720833	1668.748047	677.538879
3053.736543	5961.720833	1667.721680	813.747314
3053.736543	5961.720833	1666.694336	756.518677
3053.736543	5961.720833	1665.667969	1013.382629
3053.736543	5961.720833	1664.640625	688.270935
3053.736543	5961.720833	1663.613281	851.675781
3053.736543	5961.720833	1662.585938	996.276306
3053.736543	5961.720833	1661.557617	1149.951538
3053.736543	5961.720833	1660.530273	943.101807
3053.736543	5961.720833	1659.501953	1198.753296
3053.736543	5961.720833	1658.473633	1179.939941
3053.736543	5961.720833	1657.444336	1521.141968
3053.736543	5961.720833	1656.416016	1748.297852
3053.736543	5961.720833	1655.386719	1633.768799
3053.736543	5961.720833	1654.358398	1767.702393
3053.736543	5961.720833	1653.328125	1620.456055
3053.736543	5961.720833	1652.298828	1763.378540
3053.736543	5961.720833	1651.269531	1804.024292
3053.736543	5961.720833	1650.239258	2085.851563
3053.736543	5961.720833	1649.208984	1961.469727
3053.736543	5961.720833	1648.178711	1990.141846
3053.736543	5961.720833	1647.148438	2102.205322
3053.736543	5961.720833	1646.117188	2473.802246
3053.736543	5961.720833	1645.086914	2251.741455
3053.736543	5961.720833	1644.055664	2479.306885
3053.736543	5961.720833	1643.024414	2512.055420
3053.736543	5961.720833	1641.992188	2354.696777
3053.736543	5961.720833	1640.960938	2811.237793
3053.736543	5961.720833	1639.928711	3070.639893
3053.736543	5961.720833	1638.896484	2899.190430
3053.736543	5961.720833	1637.864258	3343.574707
3053.736543	5961.720833	1636.832031	3116.483643
3053.736543	5961.720833	1635.798828	3354.551025
3053.736543	5961.720833	1634.766602	3539.307373
3053.736543	5961.720833	1633.733398	3603.622070
3053.736543	5961.720833	1632.699219	3938.439697
3053.736543	5961.720833	1631.666016	4048.832520
3053.736543	5961.720833	1630.632813	4034.306641
3053.736543	5961.720833	1629.598633	4026.656250
3053.736543	5961.720833	1628.564453	4190.006836
3053.736543	5961.720833	1627.530273	4263.162598
3053.736543	5961.720833	1626.495117	4363.958008
3053.736543	5961.720833	1625.460938	4591.780273
3053.736543	5961.720833	1624.425781	4530.804688
3053.736543	5961.720833	1623.390625	4555.279297
3053.736543	5961.720833	1622.355469	4508.183105
3053.736543	5961.720833	1621.319336	4703.403320
3053.736543	5961.720833	1620.284180	4757.837891
3053.736543	5961.720833	1619.248047	4766.083984
3053.736543	5961.720833	1618.211914	4665.930176
3053.736543	5961.720833	1617.174805	4890.960449
3053.736543	5961.720833	1616.138672	4737.833008
3053.736543	5961.720833	1615.101563	4637.770020
3053.736543	5961.720833	1614.065430	4606.958496
3053.736543	5961.720833	1613.027344	4638.332031
3053.736543	5961.720833	1611.990234	4904.766113
3053.736543	5961.720833	1610.953125	4717.356934
3053.736543	5961.720833	1609.915039	4944.564941
3053.736543	5961.720833	1608.876953	4727.338867
3053.736543	5961.720833	1607.838867	4991.388672
3053.736543	5961.720833	1606.800781	4868.710449
3053.736543	5961.720833	1605.761719	4833.547363
3053.736543	5961.720833	1604.723633	4842.209961
3053.736543	5961.720833	1603.684570	4965.913086
3053.736543	5961.720833	1602.644531	4986.102539
3053.736543	5961.720833	1601.605469	5128.263184
3053.736543	5961.720833	1600.566406	4854.333984
3053.736543	5961.720833	1599.526367	5031.058594
3053.736543	5961.720833	1598.486328	5010.165039
3053.736543	5961.720833	1597.446289	5338.599609
3053.736543	5961.720833	1596.405273	4970.919922
3053.736543	5961.720833	1595.365234	5113.383301
3053.736543	5961.720833	1594.324219	5584.215332
3053.736543	5961.720833	1593.283203	5191.737793
3053.736543	5961.720833	1592.242188	5249.408203
3053.736543	5961.720833	1591.200195	5651.362305
3053.736543	5961.720833	1590.159180	5234.181152
3053.736543	5961.720833	1589.117188	5312.747559
3053.736543	5961.720833	1588.075195	5563.416992
3053.736543	5961.720833	1587.032227	5353.153320
3053.736543	5961.720833	1585.990234	5264.644043
3053.736543	5961.720833	1584.947266	4988.296875
3053.736543	5961.720833	1583.904297	5154.500977
3053.736543	5961.720833	1582.861328	5155.799316
3053.736543	5961.720833	1581.818359	4740.290527
3053.736543	5961.720833	1580.775391	5028.249023
3053.736543	5961.720833	1579.731445	4787.212402
3053.736543	5961.720833	1578.687500	4876.112305
3053.736543	5961.720833	1577.643555	4612.604492
3053.736543	5961.720833	1576.598633	4816.201660
3053.736543	5961.720833	1575.554688	4408.961914
3053.736543	5961.720833	1574.509766	4487.008789
3053.736543	5961.720833	1573.464844	4325.018066
3053.736543	5961.720833	1572.419922	4300.468750
3053.736543	5961.720833	1571.374023	4122.872070
3053.736543	5961.720833	1570.329102	4251.871094
3053.736543	5961.720833	1569.283203	4140.979492
3053.736543	5961.720833	1568.237305	3968.611572
3053.736543	5961.720833	1567.191406	4024.952148
3053.736543	5961.720833	1566.144531	3994.624023
3053.736543	5961.720833	1565.098633	4183.761230
3053.736543	5961.720833	1564.051758	3747.368652
3053.736543	5961.720833	1563.004883	3404.932129
3053.736543	5961.720833	1561.957031	3546.653809
3053.736543	5961.720833	1560.910156	3720.499512
3053.736543	5961.720833	1559.862305	3620.665283
3053.736543	5961.720833	1558.814453	3473.175537
3053.736543	5961.720833	1557.766602	3487.868652
3053.736543	5961.720833	1556.718750	3356.837158
3053.736543	5961.720833	1555.669922	3358.258301
3053.736543	5961.720833	1554.621094	3282.399902
3053.736543	5961.720833	1553.573242	3395.958252
3053.736543	5961.720833	1552.523438	3495.957764
3053.736543	5961.720833	1551.474609	3231.712891
3053.736543	5961.720833	1550.424805	3297.991455
3053.736543	5961.720833	1549.375000	3189.145508
3053.736543	5961.720833	1548.325195	3308.226563
3053.736543	5961.720833	1547.275391	3045.107666
3053.736543	5961.720833	1546.225586	3080.439941
3053.736543	5961.720833	1545.174805	2922.572754
3053.736543	5961.720833	1544.124023	2965.185059
3053.736543	5961.720833	1543.073242	3096.722168
3053.736543	5961.720833	1542.022461	3219.356689
3053.736543	5961.720833	1540.970703	2989.782227
3053.736543	5961.720833	1539.919922	2712.846436
3053.736543	5961.720833	1538.868164	2836.204346
3053.736543	5961.720833	1537.815430	2771.157959
3053.736543	5961.720833	1536.763672	2529.236328
3053.736543	5961.720833	1535.710938	2517.030273
3053.736543	5961.720833	1534.659180	2452.888184
3053.736543	5961.720833	1533.606445	2520.684570
3053.736543	5961.720833	1532.552734	2432.074707
3053.736543	5961.720833	1531.500000	2877.094727
3053.736543	5961.720833	1530.446289	2228.564209
3053.736543	5961.720833	1529.393555	2172.657227
3053.736543	5961.720833	1528.338867	2064.830322
3053.736543	5961.720833	1527.285156	1821.292603
3053.736543	5961.720833	1526.231445	2176.648438
3053.736543	5961.720833	1525.176758	1949.583496
3053.736543	5961.720833	1524.122070	1824.869263
3053.736543	5961.720833	1523.067383	1492.034790
3053.736543	5961.720833	1522.012695	1673.849121
3053.736543	5961.720833	1520.957031	1554.623901
3053.736543	5961.720833	1519.901367	1528.576660
3053.736543	5961.720833	1518.845703	1529.997803
3053.736543	5961.720833	1517.790039	1425.324463
3053.736543	5961.720833	1516.734375	1207.831421
3053.736543	5961.720833	1515.677734	1321.042725
3053.736543	5961.720833	1514.621094	1276.154541
3053.736543	5961.720833	1513.564453	935.291260
3053.736543	5961.720833	1512.507813	949.887756
3053.736543	5961.720833	1511.450195	804.238525
3053.736543	5961.720833	1510.393555	1079.407227
3053.736543	5961.720833	1509.335938	1397.690674
3053.736543	5961.720833	1508.278320	1137.718628
3053.736543	5961.720833	1507.219727	1097.265259
3053.736543	5961.720833	1506.162109	932.932617
3053.736543	5961.720833	1505.103516	726.051086
3053.736543	5961.720833	1504.044922	989.169189
3053.736543	5961.720833	1502.986328	780.723389
3053.736543	5961.720833	1501.926758	895.383545
3053.736543	5961.720833	1500.868164	644.797607
3053.736543	5961.720833	1499.808594	557.036926
3053.736543	5961.720833	1498.749023	650.068237
3053.736543	5961.720833	1497.688477	907.980408
3053.736543	5961.720833	1496.628906	606.987305
3053.736543	5961.720833	1495.568359	754.994385
3053.736543	5961.720833	1494.507813	801.846130
3053.736543	5961.720833	1493.447266	1247.826538
3053.736543	5961.720833	1492.386719	1020.367676
3053.736543	5961.720833	1491.325195	662.671570
3053.736543	5961.720833	1490.263672	681.510864
3053.736543	5961.720833	1489.202148	579.089294
3053.736543	5961.720833	1488.140625	515.303772
3053.736543	5961.720833	1487.079102	658.920593
3053.736543	5961.720833	1486.016602	-119.749695
3053.736543	5961.720833	1484.954102	155.061951
3053.736543	5961.720833	1483.891602	92.711411
3053.736543	5961.720833	1482.829102	-47.988434
3053.736543	5961.720833	1481.765625	27.520254
3053.736543	5961.720833	1480.702148	224.723892
3053.736543	5961.720833	1479.638672	260.343475
3053.736543	5961.720833	1478.575195	58.142883
3053.736543	5961.720833	1477.511719	-33.580757
3053.736543	5961.720833	1476.447266	115.335297
3053.736543	5961.720833	1475.382813	48.973381
3053.736543	5961.720833	1474.318359	366.804321
3053.736543	5961.720833	1473.253906	-24.107336
3053.736543	5961.720833	1472.189453	375.041199
3053.736543	5961.720833	1471.124023	361.623016
3053.736543	5961.720833	1470.058594	523.427795
3053.736543	5961.720833	1468.993164	156.447601
3053.736543	5961.720833	1467.927734	372.948059
3053.736543	5961.720833	1466.861328	351.881500
3053.736543	5961.720833	1465.794922	483.542023
3053.736543	5961.720833	1464.728516	449.437286
3053.736543	5961.720833	1463.662109	530.623718
3053.736543	5961.720833	1462.594727	625.425903
3053.736543	5961.720833	1461.528320	988.135620
3053.736543	5961.720833	1460.460938	593.752197
3053.736543	5961.720833	1459.393555	1057.971924
3053.736543	5961.720833	1458.326172	934.624573
3053.736543	5961.720833	1457.257813	978.944275
3053.736543	5961.720833	1456.189453	1048.458496
3053.736543	5961.720833	1455.121094	980.773926
3053.736543	5961.720833	1454.052734	1265.999756
3053.736543	5961.720833	1452.984375	1300.916504
3053.736543	5961.720833	1451.915039	1365.051025
3053.736543	5961.720833	1450.845703	1466.293945
3053.736543	5961.720833	1449.776367	1672.769775
3053.736543	5961.720833	1448.707031	1750.249390
3053.736543	5961.720833	1447.636719	1977.647095
3053.736543	5961.720833	1446.567383	1632.241821
3053.736543	5961.720833	1445.497070	2238.693359
3053.736543	5961.720833	1444.425781	2124.029297
3053.736543	5961.720833	1443.355469	2280.163330
3053.736543	5961.720833	1442.285156	1946.037354
3053.736543	5961.720833	1441.213867	2172.085205
3053.736543	5961.720833	1440.142578	2312.348877
3053.736543	5961.720833	1439.070313	1987.342529
3053.736543	5961.720833	1437.999023	2060.480469
3053.736543	5961.720833	1436.926758	2171.807861
3053.736543	5961.720833	1435.854492	2400.822754
3053.736543	5961.720833	1434.782227	2104.693359
3053.736543	5961.720833	1433.709961	1910.429077
3053.736543	5961.720833	1432.636719	2059.549316
3053.736543	5961.720833	1431.563477	1937.939087
3053.736543	5961.720833	1430.490234	1987.276978
3053.736543	5961.720833	1429.416992	1844.585205
3053.736543	5961.720833	1428.343750	2066.220215
3053.736543	5961.720833	1427.269531	1843.304688
3053.736543	5961.720833	1426.195313	1533.750977
3053.736543	5961.720833	1425.121094	1570.136230
3053.736543	5961.720833	1424.046875	1378.642700
3053.736543	5961.720833	1422.971680	1471.112793
3053.736543	5961.720833	1421.896484	1321.665039
3053.736543	5961.720833	1420.821289	1331.917236
3053.736543	5961.720833	1419.746094	1403.594360
3053.736543	5961.720833	1418.669922	1388.192505
3053.736543	5961.720833	1417.594727	1369.602661
3053.736543	5961.720833	1416.518555	1251.165894
3053.736543	5961.720833	1415.442383	1302.942139
3053.736543	5961.720833	1414.365234	1288.131348
3053.736543	5961.720833	1413.289063	1330.807617
3053.736543	5961.720833	1412.211914	1380.779419
3053.736543	5961.720833	1411.134766	1329.001465
3053.736543	5961.720833	1410.057617	1572.644287
3053.736543	5961.720833	1408.979492	1620.119995
3053.736543	5961.720833	1407.902344	1604.511841
3053.736543	5961.720833	1406.824219	1725.560059
3053.736543	5961.720833	1405.746094	1832.323853
3053.736543	5961.720833	1404.666992	1818.991943
3053.736543	5961.720833	1403.588867	1773.164429
3053.736543	5961.720833	1402.509766	1640.287109
3053.736543	5961.720833	1401.430664	1316.788940
3053.736543	5961.720833	1400.351563	1817.308838
3053.736543	5961.720833	1399.271484	1723.739746
3053.736543	5961.720833	1398.192383	1955.497681
3053.736543	5961.720833	1397.112305	2255.446777
3053.736543	5961.720833	1396.031250	2057.898438
3053.736543	5961.720833	1394.951172	2125.655518
3053.736543	5961.720833	1393.871094	2138.381348
3053.736543	5961.720833	1392.790039	2156.909424
3053.736543	5961.720833	1391.708984	2200.108154
3053.736543	5961.720833	1390.626953	1946.348389
3053.736543	5961.720833	1389.545898	2051.253174
3053.736543	5961.720833	1388.463867	2439.411133
3053.736543	5961.720833	1387.381836	2307.450684
3053.736543	5961.720833	1386.299805	2067.264893
3053.736543	5961.720833	1385.217773	2102.726074
3053.736543	5961.720833	1384.134766	2240.545410
3053.736543	5961.720833	1383.051758	1930.586548
3053.736543	5961.720833	1381.968750	2069.591553
3053.736543	5961.720833	1380.885742	1990.699219
3053.736543	5961.720833	1379.802734	2136.422852
3053.736543	5961.720833	1378.718750	2044.425293
3053.736543	5961.720833	1377.634766	2265.266602
3053.736543	5961.720833	1376.550781	1754.227905
3053.736543	5961.720833	1375.465820	1938.732300
3053.736543	5961.720833	1374.381836	1969.228027
3053.736543	5961.720833	1373.296875	2001.233765
3053.736543	5961.720833	1372.211914	2105.112793
3053.736543	5961.720833	1371.126953	2267.892578
3053.736543	5961.720833	1370.041016	2381.182617
3053.736543	5961.720833	1368.955078	2088.781250
3053.736543	5961.720833	1367.869141	2045.567261
3053.736543	5961.720833	1366.783203	2155.802002
3053.736543	5961.720833	1365.697266	2144.457764
3053.736543	5961.720833	1364.610352	1870.541870
3053.736543	5961.720833	1363.523438	2150.218750
3053.736543	5961.720833	1362.436523	1960.406006
3053.736543	5961.720833	1361.349609	1992.167847
3053.736543	5961.720833	1360.261719	1907.379272
3053.736543	5961.720833	1359.174805	1593.882935
3053.736543	5961.720833	1358.086914	1565.953247
3053.736543	5961.720833	1356.998047	1830.869507
3053.736543	5961.720833	1355.910156	1893.955566
3053.736543	5961.720833	1354.821289	1997.336426
3053.736543	5961.720833	1353.732422	1791.516479
3053.736543	5961.720833	1352.643555	1698.202515
3053.736543	5961.720833	1351.554688	1549.130127
3053.736543	5961.720833	1350.464844	1405.305176
3053.736543	5961.720833	1349.375000	1672.862183
3053.736543	5961.720833	1348.285156	1729.652100
3053.736543	5961.720833	1347.195313	1586.868042
3053.736543	5961.720833	1346.105469	1638.050415
3053.736543	5961.720833	1345.014648	1507.326904
3053.736543	5961.720833	1343.923828	1592.508667
3053.736543	5961.720833	1342.833008	1792.595337
3053.736543	5961.720833	1341.741211	1752.664307
3053.736543	5961.720833	1340.650391	2031.983398
3053.736543	5961.720833	1339.558594	1839.737183
3053.736543	5961.720833	1338.466797	1988.034790
3053.736543	5961.720833	1337.374023	1859.825439
3053.736543	5961.720833	1336.282227	1682.026245
3053.736543	5961.720833	1335.189453	1598.189819
3053.736543	5961.720833	1334.096680	1427.278687
3053.736543	5961.720833	1333.003906	1377.916992
3053.736543	5961.720833	1331.910156	1227.611328
3053.736543	5961.720833	1330.817383	1068.996094
3053.736543	5961.720833	1329.723633	1132.506226
3053.736543	5961.720833	1328.629883	1019.316345
3053.736543	5961.720833	1327.535156	899.403748
3053.736543	5961.720833	1326.441406	870.612915
3053.736543	5961.720833	1325.346680	1067.018677
3053.736543	5961.720833	1324.251953	878.204895
3053.736543	5961.720833	1323.156250	989.698486
3053.736543	5961.720833	1322.061523	896.938599
3053.736543	5961.720833	1320.965820	827.782104
3053.736543	5961.720833	1319.870117	726.880920
3053.736543	5961.720833	1318.774414	793.988464
3053.736543	5961.720833	1317.678711	638.297607
3053.736543	5961.720833	1316.582031	997.824097
3053.736543	5961.720833	1315.485352	903.723267
3053.736543	5961.720833	1314.388672	923.691956
3053.736543	5961.720833	1313.291016	883.416077
3053.736543	5961.720833	1312.194336	1056.145264
3053.736543	5961.720833	1311.096680	1213.832397
3053.736543	5961.720833	1309.999023	1133.540283
3053.736543	5961.720833	1308.901367	860.338867
3053.736543	5961.720833	1307.802734	1051.912720
3053.736543	5961.720833	1306.705078	944.488953
3053.736543	5961.720833	1305.606445	1086.238159
3053.736543	5961.720833	1304.506836	1029.742065
3053.736543	5961.720833	1303.408203	1103.039917
3053.736543	5961.720833	1302.308594	1368.081909
3053.736543	5961.720833	1301.208984	1414.977417
3053.736543	5961.720833	1300.109375	1385.931030
3053.736543	5961.720833	1299.009766	1399.028076
3053.736543	5961.720833	1297.909180	1569.317383
3053.736543	5961.720833	1296.808594	1576.788452
3053.736543	5961.720833	1295.708008	1544.974365
3053.736543	5961.720833	1294.607422	1293.128418
3053.736543	5961.720833	1293.506836	1492.933838
3053.736543	5961.720833	1292.405273	1112.441528
3053.736543	5961.720833	1291.303711	1204.197632
3053.736543	5961.720833	1290.202148	1026.750610
3053.736543	5961.720833	1289.099609	1171.171021
3053.736543	5961.720833	1287.998047	893.107544
3053.736543	5961.720833	1286.895508	833.360107
3053.736543	5961.720833	1285.792969	567.828186
3053.736543	5961.720833	1284.689453	747.625427
3053.736543	5961.720833	1283.586914	725.083923
3053.736543	5961.720833	1282.483398	688.337830
3053.736543	5961.720833	1281.379883	820.382141
3053.736543	5961.720833	1280.276367	879.769287
3053.736543	5961.720833	1279.171875	816.271545
3053.736543	5961.720833	1278.067383	662.606323
3053.736543	5961.720833	1276.962891	758.324158
3053.736543	5961.720833	1275.858398	580.489197
3053.736543	5961.720833	1274.753906	745.597412
3053.736543	5961.720833	1273.648438	509.800079
3053.736543	5961.720833	1272.542969	589.869263
3053.736543	5961.720833	1271.437500	479.794952
3053.736543	5961.720833	1270.331055	424.494324
3053.736543	5961.720833	1269.225586	500.511414
3053.736543	5961.720833	1268.119141	503.280334
3053.736543	5961.720833	1267.012695	378.688293
3053.736543	5961.720833	1265.906250	267.399170
3053.736543	5961.720833	1264.798828	340.369263
3053.736543	5961.720833	1263.691406	297.452606
3053.736543	5961.720833	1262.583984	396.998657
3053.736543	5961.720833	1261.476563	192.679199
3053.736543	5961.720833	1260.368164	237.206451
3053.736543	5961.720833	1259.260742	259.520935
3053.736543	5961.720833	1258.152344	329.959351
3053.736543	5961.720833	1257.043945	459.779999
3053.736543	5961.720833	1255.934570	395.148315
3053.736543	5961.720833	1254.825195	368.133179
3053.736543	5961.720833	1253.716797	572.852356
3053.736543	5961.720833	1252.606445	560.481812
3053.736543	5961.720833	1251.497070	604.255798
3053.736543	5961.720833	1250.387695	519.271362
3053.736543	5961.720833	1249.277344	476.959595
3053.736543	5961.720833	1248.166992	444.551636
3053.736543	5961.720833	1247.055664	592.462891
3053.736543	5961.720833	1245.945313	483.001434
3053.736543	5961.720833	1244.833984	458.382782
3053.736543	5961.720833	1243.722656	610.244446
3053.736543	5961.720833	1242.611328	466.279999
3053.736543	5961.720833	1241.499023	215.031708
3053.736543	5961.720833	1240.387695	336.309875
3053.736543	5961.720833	1239.275391	287.349457
3053.736543	5961.720833	1238.162109	124.707260
3053.736543	5961.720833	1237.049805	118.879242
3053.736543	5961.720833	1235.936523	270.112000
3053.736543	5961.720833	1234.823242	105.297234
3053.736543	5961.720833	1233.709961	155.423508
3053.736543	5961.720833	1232.596680	-38.577271
3053.736543	5961.720833	1231.482422	-95.801521
3053.736543	5961.720833	1230.369141	118.311707
3053.736543	5961.720833	1229.253906	93.077866
3053.736543	5961.720833	1228.139648	33.522030
3053.736543	5961.720833	1227.025391	-4.001027
3053.736543	5961.720833	1225.910156	131.533218
3053.736543	5961.720833	1224.794922	98.370461
3053.736543	5961.720833	1223.679688	126.099037
3053.736543	5961.720833	1222.563477	184.055878
3053.736543	5961.720833	1221.447266	202.514206
3053.736543	5961.720833	1220.331055	119.980377
3053.736543	5961.720833	1219.214844	153.267380
3053.736543	5961.720833	1218.098633	226.078842
3053.736543	5961.720833	1216.981445	345.976166
3053.736543	5961.720833	1215.864258	120.480927
3053.736543	5961.720833	1214.747070	53.142567
3053.736543	5961.720833	1213.629883	131.414780
3053.736543	5961.720833	1212.511719	-195.442001
3053.736543	5961.720833	1211.393555	15.840228
3053.736543	5961.720833	1210.275391	-37.720295
3053.736543	5961.720833	1209.157227	-80.882675
3053.736543	5961.720833	1208.038086	-5.599575
3053.736543	5961.720833	1206.918945	-306.303802
3053.736543	5961.720833	1205.799805	-117.139206
3053.736543	5961.720833	1204.680664	56.060997
3053.736543	5961.720833	1203.560547	-286.159973
3053.736543	5961.720833	1202.441406	-241.427383
3053.736543	5961.720833	1201.321289	-200.944611
3053.736543	5961.720833	1200.200195	-109.459122
3053.736543	5961.720833	1199.080078	-281.337891
3053.736543	5961.720833	1197.958984	-194.308121
3053.736543	5961.720833	1196.837891	-87.133865
3053.736543	5961.720833	1195.716797	-48.480259
3053.736543	5961.720833	1194.594727	-55.271286
3053.736543	5961.720833	1193.473633	-133.089920
3053.736543	5961.720833	1192.351563	148.125092
3053.736543	5961.720833	1191.229492	-119.032455
3053.736543	5961.720833	1190.106445	-13.492629
3053.736543	5961.720833	1188.984375	-4.841604
3053.736543	5961.720833	1187.861328	5.073094
3053.736543	5961.720833	1186.738281	25.445288
3053.736543	5961.720833	1185.614258	-197.491302
3053.736543	5961.720833	1184.491211	109.898590
3053.736543	5961.720833	1183.367188	212.296158
3053.736543	5961.720833	1182.243164	164.034286
3053.736543	5961.720833	1181.119141	133.678558
3053.736543	5961.720833	1179.994141	28.296366
3053.736543	5961.720833	1178.869141	60.994343
3053.736543	5961.720833	1177.744141	55.107662
3053.736543	5961.720833	1176.619141	28.930506
3053.736543	5961.720833	1175.493164	87.440109
3053.736543	5961.720833	1174.368164	53.316467
3053.736543	5961.720833	1173.242188	-72.881760
3053.736543	5961.720833	1172.115234	72.149178
3053.736543	5961.720833	1170.989258	191.576187
3053.736543	5961.720833	1169.862305	115.605904
3053.736543	5961.720833	1168.735352	-117.103287
3053.736543	5961.720833	1167.608398	-69.212120
3053.736543	5961.720833	1166.481445	-87.947746
3053.736543	5961.720833	1165.353516	-44.753502
3053.736543	5961.720833	1164.225586	-52.331871
3053.736543	5961.720833	1163.097656	-106.218521
3053.736543	5961.720833	1161.968750	-195.917587
3053.736543	5961.720833	1160.840820	-74.197784
3053.736543	5961.720833	1159.711914	-178.936066
3053.736543	5961.720833	1158.583008	-119.199577
3053.736543	5961.720833	1157.453125	-12.496667
3053.736543	5961.720833	1156.324219	-209.558090
3053.736543	5961.720833	1155.194336	-127.515419
3053.736543	5961.720833	1154.064453	79.109596
3053.736543	5961.720833	1152.933594	-4.238601
3053.736543	5961.720833	1151.803711	-206.938339
3053.736543	5961.720833	1150.672852	-76.682465
3053.736543	5961.720833	1149.541992	16.781185
3053.736543	5961.720833	1148.411133	-8.787920
3053.736543	5961.720833	1147.279297	281.673401
3053.736543	5961.720833	1146.147461	92.429359
3053.736543	5961.720833	1145.015625	163.803955
3053.736543	5961.720833	1143.883789	356.925873
3053.736543	5961.720833	1142.750977	194.564972
3053.736543	5961.720833	1141.619141	208.495285
3053.736543	5961.720833	1140.486328	-24.452288
3053.736543	5961.720833	1139.352539	212.151459
3053.736543	5961.720833	1138.219727	125.280457
3053.736543	5961.720833	1137.085938	277.487671
3053.736543	5961.720833	1135.952148	139.362595
3053.736543	5961.720833	1134.818359	252.573151
3053.736543	5961.720833	1133.683594	365.091614
3053.736543	5961.720833	1132.549805	402.519989
3053.736543	5961.720833	1131.415039	649.166138
3053.736543	5961.720833	1130.279297	1027.932129
3053.736543	5961.720833	1129.144531	1084.170410
3053.736543	5961.720833	1128.008789	1234.241333
3053.736543	5961.720833	1126.873047	996.574951
3053.736543	5961.720833	1125.737305	1052.356934
3053.736543	5961.720833	1124.601563	869.563965
3053.736543	5961.720833	1123.464844	1088.874512
3053.736543	5961.720833	1122.328125	753.369873
3053.736543	5961.720833	1121.191406	745.815552
3053.736543	5961.720833	1120.054688	775.120056
3053.736543	5961.720833	1118.916992	838.459534
3053.736543	5961.720833	1117.779297	941.527039
3053.736543	5961.720833	1116.641602	939.861694
3053.736543	5961.720833	1115.503906	916.555481
3053.736543	5961.720833	1114.365234	565.479675
3053.736543	5961.720833	1113.226563	744.198792
3053.736543	5961.720833	1112.087891	621.130920
3053.736543	5961.720833	1110.949219	814.940491
3053.736543	5961.720833	1109.809570	698.121277
3053.736543	5961.720833	1108.669922	345.080139
3053.736543	5961.720833	1107.530273	680.514587
3053.736543	5961.720833	1106.390625	715.838928
3053.736543	5961.720833	1105.250000	644.769409
3053.736543	5961.720833	1104.109375	832.912537
3053.736543	5961.720833	1102.968750	904.926697
3053.736543	5961.720833	1101.828125	881.312378
3053.736543	5961.720833	1100.686523	1118.300903
3053.736543	5961.720833	1099.544922	1259.575439
3053.736543	5961.720833	1098.403320	1045.197021
3053.736543	5961.720833	1097.261719	1018.757568
3053.736543	5961.720833	1096.120117	1068.966553
3053.736543	5961.720833	1094.977539	958.766052
3053.736543	5961.720833	1093.834961	649.773193
3053.736543	5961.720833	1092.691406	771.109497
3053.736543	5961.720833	1091.548828	758.683533
3053.736543	5961.720833	1090.405273	508.478058
3053.736543	5961.720833	1089.261719	423.983734
3053.736543	5961.720833	1088.118164	420.855377
3053.736543	5961.720833	1086.973633	521.546021
3053.736543	5961.720833	1085.829102	474.216675
3053.736543	5961.720833	1084.684570	290.643188
3053.736543	5961.720833	1083.540039	327.900269
3053.736543	5961.720833	1082.395508	128.826370
3053.736543	5961.720833	1081.250000	327.432709
3053.736543	5961.720833	1080.104492	75.937393
3053.736543	5961.720833	1078.958984	132.669113
3053.736543	5961.720833	1077.812500	282.246277
3053.736543	5961.720833	1076.666016	98.186165
3053.736543	5961.720833	1075.519531	203.272522
3053.736543	5961.720833	1074.373047	116.644592
3053.736543	5961.720833	1073.226563	400.767792
3053.736543	5961.720833	1072.079102	418.361694
3053.736543	5961.720833	1070.931641	377.740936
3053.736543	5961.720833	1069.784180	446.163940
3053.736543	5961.720833	1068.635742	445.418335
3053.736543	5961.720833	1067.487305	441.992950
3053.736543	5961.720833	1066.338867	710.458618
3053.736543	5961.720833	1065.190430	645.482117
3053.736543	5961.720833	1064.041992	808.874451
3053.736543	5961.720833	1062.892578	637.075378
3053.736543	5961.720833	1061.743164	769.956909
3053.736543	5961.720833	1060.593750	420.160278
3053.736543	5961.720833	1059.443359	428.783112
3053.736543	5961.720833	1058.292969	408.225006
3053.736543	5961.720833	1057.142578	612.744507
3053.736543	5961.720833	1055.992188	396.828522
3053.736543	5961.720833	1054.841797	348.848907
3053.736543	5961.720833	1053.690430	91.672333
3053.736543	5961.720833	1052.539063	261.021179
3053.736543	5961.720833	1051.387695	148.683243
3053.736543	5961.720833	1050.235352	440.595337
3053.736543	5961.720833	1049.083984	134.297913
3053.736543	5961.720833	1047.931641	131.351349
3053.736543	5961.720833	1046.778320	338.330322
3053.736543	5961.720833	1045.625977	153.619568
3053.736543	5961.720833	1044.472656	315.732056
3053.736543	5961.720833	1043.319336	482.849854
3053.736543	5961.720833	1042.166016	485.303711
3053.736543	5961.720833	1041.012695	251.250580
3053.736543	5961.720833	1039.858398	538.884460
3053.736543	5961.720833	1038.704102	433.061432
3053.736543	5961.720833	1037.549805	481.778381
3053.736543	5961.720833	1036.394531	443.723145
3053.736543	5961.720833	1035.239258	372.160309
3053.736543	5961.720833	1034.083984	452.449951
3053.736543	5961.720833	1032.928711	224.022522
3053.736543	5961.720833	1031.773438	355.521301
3053.736543	5961.720833	1030.617188	171.340820
3053.736543	5961.720833	1029.460938	219.175735
3053.736543	5961.720833	1028.304688	349.434967
3053.736543	5961.720833	1027.147461	155.319519
3053.736543	5961.720833	1025.991211	-3.945538
3053.736543	5961.720833	1024.833984	-8.324210
3053.736543	5961.720833	1023.675781	76.463310
3053.736543	5961.720833	1022.518555	-9.566464
3053.736543	5961.720833	1021.360352	21.116175
3053.736543	5961.720833	1020.202148	125.612648
3053.736543	5961.720833	1019.043945	195.507645
3053.736543	5961.720833	1017.884766	0.807306
3053.736543	5961.720833	1016.726563	-189.530792
3053.736543	5961.720833	1015.567383	-95.411194
3053.736543	5961.720833	1014.407227	-82.597046
3053.736543	5961.720833	1013.248047	-111.448761
3053.736543	5961.720833	1012.087891	93.906097
3053.736543	5961.720833	1010.927734	-198.424713
3053.736543	5961.720833	1009.767578	51.382744
3053.736543	5961.720833	1008.606445	-12.464729
3053.736543	5961.720833	1007.446289	84.601746
3053.736543	5961.720833	1006.285156	-0.493285
3053.736543	5961.720833	1005.123047	74.474327
3053.736543	5961.720833	1003.961914	-67.669365
3053.736543	5961.720833	1002.799805	-49.094891
3053.736543	5961.720833	1001.637695	-124.413773
3053.736543	5961.720833	1000.475586	134.738922
3053.736543	5961.720833	999.312500	21.711088
3053.736543	5961.720833	998.149414	374.577911
3053.736543	5961.720833	996.986328	327.061676
3053.736543	5961.720833	995.823242	253.509735
3053.736543	5961.720833	994.659180	22.917227
3053.736543	5961.720833	993.496094	-21.387884
3053.736543	5961.720833	992.332031	-44.898430
3053.736543	5961.720833	991.166992	24.515932
3053.736543	5961.720833	990.002930	-181.564575
3053.736543	5961.720833	988.837891	-242.430969
3053.736543	5961.720833	987.672852	-62.012558
3053.736543	5961.720833	986.506836	43.153198
3053.736543	5961.720833	985.341797	-254.945892
3053.736543	5961.720833	984.175781	31.931931
3053.736543	5961.720833	983.009766	-94.287956
3053.736543	5961.720833	981.843750	-174.937988
3053.736543	5961.720833	980.676758	25.168673
3053.736543	5961.720833	979.509766	96.865730
3053.736543	5961.720833	978.342773	53.387131
3053.736543	5961.720833	977.175781	-72.400391
3053.736543	5961.720833	976.007813	-9.426380
3053.736543	5961.720833	974.839844	137.306076
3053.736543	5961.720833	973.671875	-61.800156
3053.736543	5961.720833	972.503906	117.881401
3053.736543	5961.720833	971.334961	133.678802
3053.736543	5961.720833	970.166016	-92.473404
3053.736543	5961.720833	968.997070	137.918457
3053.736543	5961.720833	967.828125	-81.714500
3053.736543	5961.720833	966.658203	-6.279774
3053.736543	5961.720833	965.488281	336.554810
3053.736543	5961.720833	964.318359	183.915649
3053.736543	5961.720833	963.148438	162.269028
3053.736543	5961.720833	961.977539	100.857628
3053.736543	5961.720833	960.806641	51.928772
3053.736543	5961.720833	959.635742	292.795380
3053.736543	5961.720833	958.463867	84.485138
3053.736543	5961.720833	957.292969	-63.090363
3053.736543	5961.720833	956.121094	241.074005
3053.736543	5961.720833	954.948242	226.376923
3053.736543	5961.720833	953.776367	276.634460
3053.736543	5961.720833	952.603516	-3.763703
3053.736543	5961.720833	951.430664	49.542274
3053.736543	5961.720833	950.257813	416.255859
3053.736543	5961.720833	949.084961	243.152756
3053.736543	5961.720833	947.911133	208.855942
3053.736543	5961.720833	946.737305	212.709793
3053.736543	5961.720833	945.563477	485.390350
3053.736543	5961.720833	944.388672	602.580994
3053.736543	5961.720833	943.213867	652.604736
3053.736543	5961.720833	942.039063	664.872925
3053.736543	5961.720833	940.864258	537.944458
3053.736543	5961.720833	939.688477	912.870544
3053.736543	5961.720833	938.513672	913.791504
3053.736543	5961.720833	937.337891	591.486389
3053.736543	5961.720833	936.161133	866.049133
3053.736543	5961.720833	934.985352	666.776306
3053.736543	5961.720833	933.808594	865.049255
3053.736543	5961.720833	932.631836	844.744080
3053.736543	5961.720833	931.454102	835.938049
3053.736543	5961.720833	930.277344	1008.232727
3053.736543	5961.720833	929.099609	1152.583496
3053.736543	5961.720833	927.921875	939.186584
3053.736543	5961.720833	926.743164	881.318542
3053.736543	5961.720833	925.565430	725.999023
3053.736543	5961.720833	924.386719	800.480957
3053.736543	5961.720833	923.208008	661.373779
3053.736543	5961.720833	922.028320	436.430420
3053.736543	5961.720833	920.849609	480.661896
3053.736543	5961.720833	919.669922	488.662689
3053.736543	5961.720833	919.474609	359.152069
3053.736543	5961.720833	918.309570	224.631699
3053.736543	5961.720833	917.143555	189.839554
3053.736543	5961.720833	915.977539	259.346191
3053.736543	5961.720833	914.810547	164.231369
3053.736543	5961.720833	913.644531	245.226227
3053.736543	5961.720833	912.477539	240.434479
3053.736543	5961.720833	911.310547	168.433640
3053.736543	5961.720833	910.143555	-21.685534
3053.736543	5961.720833	908.975586	-130.718521
3053.736543	5961.720833	907.807617	112.126106
3053.736543	5961.720833	906.639648	44.694962
3053.736543	5961.720833	905.471680	-365.218079
3053.736543	5961.720833	904.303711	-242.890457
3053.736543	5961.720833	903.134766	11.199511
3053.736543	5961.720833	901.965820	-243.620499
3053.736543	5961.720833	900.796875	-86.818390
3053.736543	5961.720833	899.626953	-133.537643
3053.736543	5961.720833	898.457031	-80.895836
3053.736543	5961.720833	897.287109	-104.566933
3053.736543	5961.720833	896.117188	56.551445
3053.736543	5961.720833	894.947266	-24.960783
3053.736543	5961.720833	893.776367	288.415741
3053.736543	5961.720833	892.605469	278.390747
3053.736543	5961.720833	891.434570	252.171036
3053.736543	5961.720833	890.262695	306.704590
3053.736543	5961.720833	889.091797	379.628052
3053.736543	5961.720833	887.919922	323.299377
3053.736543	5961.720833	886.748047	474.533875
3053.736543	5961.720833	885.575195	348.952148
3053.736543	5961.720833	884.403320	218.764374
3053.736543	5961.720833	883.230469	51.712940
3053.736543	5961.720833	882.057617	241.897415
3053.736543	5961.720833	880.883789	298.329865
3053.736543	5961.720833	879.710938	375.423798
3053.736543	5961.720833	878.537109	293.529724
3053.736543	5961.720833	877.362305	66.562233
3053.736543	5961.720833	876.188477	56.047379
3053.736543	5961.720833	875.013672	512.754333
3053.736543	5961.720833	873.839844	23.397739
3053.736543	5961.720833	872.664063	295.776245
3053.736543	5961.720833	871.489258	340.259460
3053.736543	5961.720833	870.313477	230.592819
3053.736543	5961.720833	869.138672	249.686539
3053.736543	5961.720833	867.962891	11.252645
3053.736543	5961.720833	866.786133	53.285786
3053.736543	5961.720833	865.610352	283.684692
3053.736543	5961.720833	864.433594	137.154251
3053.736543	5961.720833	863.256836	96.299469
3053.736543	5961.720833	862.079102	218.476349
3053.736543	5961.720833	860.902344	159.156174
3053.736543	5961.720833	859.724609	207.711517
3053.736543	5961.720833	858.546875	180.457397
3053.736543	5961.720833	857.368164	-12.049169
3053.736543	5961.720833	856.190430	196.957367
3053.736543	5961.720833	855.011719	-7.043369
3053.736543	5961.720833	853.833008	392.120239
3053.736543	5961.720833	852.654297	419.634277
3053.736543	5961.720833	851.474609	373.733276
3053.736543	5961.720833	850.294922	577.612366
3053.736543	5961.720833	849.115234	565.962585
3053.736543	5961.720833	847.935547	565.718933
3053.736543	5961.720833	846.754883	256.214386
3053.736543	5961.720833	845.575195	265.084412
3053.736543	5961.720833	844.393555	207.509186
3053.736543	5961.720833	843.212891	330.731384
3053.736543	5961.720833	842.032227	215.834900
3053.736543	5961.720833	840.850586	235.931641
3053.736543	5961.720833	839.668945	123.279724
3053.736543	5961.720833	838.486328	124.977318
3053.736543	5961.720833	837.304688	-108.915657
3053.736543	5961.720833	836.122070	247.075943
3053.736543	5961.720833	834.939453	230.284607
3053.736543	5961.720833	833.756836	151.737152
3053.736543	5961.720833	832.573242	73.166321
3053.736543	5961.720833	831.389648	19.693756
3053.736543	5961.720833	830.206055	174.012329
3053.736543	5961.720833	829.022461	22.231903
3053.736543	5961.720833	827.838867	-257.394135
3053.736543	5961.720833	826.654297	17.672356
3053.736543	5961.720833	825.469727	71.209518
3053.736543	5961.720833	824.284180	49.372543
3053.736543	5961.720833	823.099609	-6.739350
3053.736543	5961.720833	821.914063	-69.731369
3053.736543	5961.720833	820.728516	-59.800701
3053.736543	5961.720833	819.542969	-54.499615
3053.736543	5961.720833	818.356445	258.421539
3053.736543	5961.720833	817.169922	247.571396
3053.736543	5961.720833	815.983398	188.814682
3053.736543	5961.720833	814.796875	18.404829
3053.736543	5961.720833	813.609375	34.734802
3053.736543	5961.720833	812.422852	144.334518
3053.736543	5961.720833	811.235352	158.214981
3053.736543	5961.720833	810.046875	172.021011
3053.736543	5961.720833	808.859375	156.166702
3053.736543	5961.720833	807.670898	235.797455
3053.736543	5961.720833	806.482422	131.090805
3053.736543	5961.720833	805.293945	-116.906845
3053.736543	5961.720833	804.104492	98.924576
3053.736543	5961.720833	802.915039	-85.463776
3053.736543	5961.720833	801.725586	27.856359
3053.736543	5961.720833	800.536133	-174.767807
3053.736543	5961.720833	799.345703	81.488625
3053.736543	5961.720833	798.155273	130.886658
3053.736543	5961.720833	796.964844	-3.738195
3053.736543	5961.720833	795.774414	-65.737930
3053.736543	5961.720833	794.583008	-64.235123
3053.736543	5961.720833	793.392578	-65.081635
3053.736543	5961.720833	792.200195	-136.335938
3053.736543	5961.720833	791.008789	-73.809517
3053.736543	5961.720833	789.816406	11.291670
3053.736543	5961.720833	788.625000	-39.768452
3053.736543	5961.720833	787.432617	17.926941
3053.736543	5961.720833	786.239258	159.378265
3053.736543	5961.720833	785.046875	-55.072994
3053.736543	5961.720833	783.853516	-99.601196
3053.736543	5961.720833	782.660156	-130.603592
3053.736543	5961.720833	781.465820	28.551470
3053.736543	5961.720833	780.272461	-102.249992
3053.736543	5961.720833	779.078125	-133.479706
3053.736543	5961.720833	777.883789	131.695816
3053.736543	5961.720833	776.688477	-121.481598
3053.736543	5961.720833	775.494141	-98.645889
3053.736543	5961.720833	774.298828	-136.971451
3053.736543	5961.720833	773.103516	-84.913490
3053.736543	5961.720833	771.907227	-35.223629
3053.736543	5961.720833	770.711914	-313.392609
3053.736543	5961.720833	769.515625	-135.033813
3053.736543	5961.720833	768.318359	-47.212082
3053.736543	5961.720833	767.122070	-165.076920
3053.736543	5961.720833	765.924805	-215.225449
3053.736543	5961.720833	764.727539	-335.439484
3053.736543	5961.720833	763.530273	-259.283661
3053.736543	5961.720833	762.333008	-377.354767
3053.736543	5961.720833	761.134766	-240.469391
3053.736543	5961.720833	759.936523	-92.448074
3053.736543	5961.720833	758.738281	-253.601471
3053.736543	5961.720833	757.540039	22.730503
3053.736543	5961.720833	756.340820	111.717354
3053.736543	5961.720833	755.141602	146.476410
3053.736543	5961.720833	753.942383	-141.157425
3053.736543	5961.720833	752.742188	96.259613
3053.736543	5961.720833	751.541992	117.217186
3053.736543	5961.720833	750.341797	297.994568
3053.736543	5961.720833	749.141602	226.395523
3053.736543	5961.720833	747.941406	276.314606
3053.736543	5961.720833	746.740234	254.091766
3053.736543	5961.720833	745.539063	173.276703
3053.736543	5961.720833	744.337891	180.156570
3053.736543	5961.720833	743.135742	200.441345
3053.736543	5961.720833	741.933594	164.402588
3053.736543	5961.720833	740.731445	197.995544
3053.736543	5961.720833	739.529297	195.516251
3053.736543	5961.720833	738.326172	15.381477
3053.736543	5961.720833	737.124023	-29.932251
3053.736543	5961.720833	735.919922	-93.292366
3053.736543	5961.720833	734.716797	-132.004807
3053.736543	5961.720833	733.513672	96.462402
3053.736543	5961.720833	732.309570	165.325607
3053.736543	5961.720833	731.105469	11.831780
3053.736543	5961.720833	729.900391	127.639534
3053.736543	5961.720833	728.696289	39.116154
3053.736543	5961.720833	727.491211	55.983757
3053.736543	5961.720833	726.286133	-23.689974
3053.736543	5961.720833	725.080078	33.373474
3053.736543	5961.720833	723.874023	47.729259
3053.736543	5961.720833	722.668945	37.338108
3053.736543	5961.720833	721.461914	-0.030983
3053.736543	5961.720833	720.255859	29.751377
3053.736543	5961.720833	719.048828	169.203384
3053.736543	5961.720833	717.841797	187.569107
3053.736543	5961.720833	716.634766	73.729958
3053.736543	5961.720833	715.427734	96.418915
3053.736543	5961.720833	714.219727	132.444351
3053.736543	5961.720833	713.011719	-64.361389
3053.736543	5961.720833	711.803711	-10.582660
3053.736543	5961.720833	710.594727	-180.598694
3053.736543	5961.720833	709.385742	-44.233158
3053.736543	5961.720833	708.176758	-250.105484
3053.736543	5961.720833	706.967773	11.245984
3053.736543	5961.720833	705.758789	-67.312782
3053.736543	5961.720833	704.548828	46.251873
3053.736543	5961.720833	703.338867	150.755371
3053.736543	5961.720833	702.127930	172.493011
3053.736543	5961.720833	700.917969	55.694927
3053.736543	5961.720833	699.707031	-70.062759
3053.736543	5961.720833	698.496094	-44.051216
3053.736543	5961.720833	697.285156	22.047836
3053.736543	5961.720833	696.073242	-137.314224
3053.736543	5961.720833	694.861328	-53.523540
3053.736543	5961.720833	693.649414	59.155209
3053.736543	5961.720833	692.436523	84.750473
3053.736543	5961.720833	691.224609	58.993462
3053.736543	5961.720833	690.011719	88.900017
3053.736543	5961.720833	688.798828	-52.862900
3053.736543	5961.720833	687.584961	262.100220
3053.736543	5961.720833	686.372070	403.125610
3053.736543	5961.720833	685.158203	267.870361
3053.736543	5961.720833	683.943359	117.020088
3053.736543	5961.720833	682.729492	362.423035
3053.736543	5961.720833	681.514648	358.387512
3053.736543	5961.720833	680.299805	134.003815
3053.736543	5961.720833	679.084961	125.452896
3053.736543	5961.720833	677.869141	-85.560356
3053.736543	5961.720833	676.653320	-120.861443
3053.736543	5961.720833	675.437500	88.360519
3053.736543	5961.720833	674.221680	-27.091393
3053.736543	5961.720833	673.004883	13.015977
3053.736543	5961.720833	671.789063	275.249634
3053.736543	5961.720833	670.571289	119.688126
3053.736543	5961.720833	669.354492	115.173668
3053.736543	5961.720833	668.136719	161.682861
3053.736543	5961.720833	666.919922	328.013550
3053.736543	5961.720833	665.701172	214.559372
3053.736543	5961.720833	664.483398	200.973602
3053.736543	5961.720833	663.264648	162.945541
3053.736543	5961.720833	662.045898	291.255859
3053.736543	5961.720833	660.827148	306.372925
3053.736543	5961.720833	659.608398	135.203552
3053.736543	5961.720833	658.388672	150.273758
3053.736543	5961.720833	657.168945	114.331207
3053.736543	5961.720833	655.949219	401.880463
3053.736543	5961.720833	654.728516	631.675049
3053.736543	5961.720833	653.507813	409.513519
3053.736543	5961.720833	652.287109	424.360474
3053.736543	5961.720833	651.066406	233.281067
3053.736543	5961.720833	649.844727	261.388245
3053.736543	5961.720833	648.623047	167.749252
3053.736543	5961.720833	647.401367	282.107056
3053.736543	5961.720833	646.179688	349.947784
3053.736543	5961.720833	644.957031	90.422485
3053.736543	5961.720833	643.734375	156.030167
3053.736543	5961.720833	642.511719	-8.311334
3053.736543	5961.720833	641.289063	293.758209
3053.736543	5961.720833	640.065430	69.771660
3053.736543	5961.720833	638.841797	119.822891
3053.736543	5961.720833	637.618164	-77.536446
3053.736543	5961.720833	636.393555	239.718796
3053.736543	5961.720833	635.168945	344.884613
3053.736543	5961.720833	633.944336	152.011765
3053.736543	5961.720833	632.719727	5.567977
3053.736543	5961.720833	631.494141	-165.083679
3053.736543	5961.720833	630.269531	-298.149902
3053.736543	5961.720833	629.042969	135.656906
3053.736543	5961.720833	627.817383	-4.016315
3053.736543	5961.720833	626.590820	-66.461815
3053.736543	5961.720833	625.365234	-155.310196
3053.736543	5961.720833	624.137695	-186.818588
3053.736543	5961.720833	622.911133	-26.613607
3053.736543	5961.720833	621.683594	-119.772522
3053.736543	5961.720833	620.456055	-171.026672
3053.736543	5961.720833	619.228516	-103.336937
3053.736543	5961.720833	618.000977	-73.072433
3053.736543	5961.720833	616.772461	-3.180325
3053.736543	5961.720833	615.543945	53.510330
3053.736543	5961.720833	614.314453	-89.985664
3053.736543	5961.720833	613.085938	6.356932
3053.736543	5961.720833	611.856445	63.110691
3053.736543	5961.720833	610.626953	69.313629
3053.736543	5961.720833	609.397461	108.525352
3053.736543	5961.720833	608.166992	312.577240
3053.736543	5961.720833	606.936523	340.819733
3053.736543	5961.720833	605.706055	162.613144
3053.736543	5961.720833	604.474609	-48.416058
3053.736543	5961.720833	603.244141	199.603409
3053.736543	5961.720833	602.012695	197.308167
3053.736543	5961.720833	600.780273	265.298950
3053.736543	5961.720833	599.548828	320.155731
3053.736543	5961.720833	598.316406	13.061293
3053.736543	5961.720833	597.083984	0.070719
3053.736543	5961.720833	595.851563	85.828491
3053.736543	5961.720833	594.618164	140.917404
3053.736543	5961.720833	593.384766	-47.258053
3053.736543	5961.720833	592.151367	-184.879608
3053.736543	5961.720833	590.917969	-35.346775
3053.736543	5961.720833	589.683594	179.908752
3053.736543	5961.720833	588.449219	-58.203949
3053.736543	5961.720833	587.214844	-120.967255
3053.736543	5961.720833	585.979492	-87.305893
3053.736543	5961.720833	584.745117	106.200363
3053.736543	5961.720833	583.509766	65.561638
3053.736543	5961.720833	582.273438	14.080630
3053.736543	5961.720833	581.038086	28.331377
3053.736543	5961.720833	579.801758	-114.793816
3053.736543	5961.720833	578.565430	-23.826033
3053.736543	5961.720833	577.329102	-173.256851
3053.736543	5961.720833	576.091797	127.666130
3053.736543	5961.720833	574.854492	-207.273056
3053.736543	5961.720833	573.617188	200.759094
3053.736543	5961.720833	572.378906	71.437012
3053.736543	5961.720833	571.141602	-40.260483
3053.736543	5961.720833	569.903320	-333.010437
3053.736543	5961.720833	568.664063	33.621330
3053.736543	5961.720833	567.425781	105.608192
3053.736543	5961.720833	566.186523	334.749054
3053.736543	5961.720833	564.947266	127.648262
3053.736543	5961.720833	563.708008	284.932983
3053.736543	5961.720833	562.467773	339.780914
3053.736543	5961.720833	561.227539	224.687607
3053.736543	5961.720833	559.987305	491.144318
3053.736543	5961.720833	558.747070	328.352264
3053.736543	5961.720833	557.505859	244.163986
3053.736543	5961.720833	556.264648	255.956421
3053.736543	5961.720833	555.023438	43.574104
3053.736543	5961.720833	553.781250	103.526993
3053.736543	5961.720833	552.539063	56.917091
3053.736543	5961.720833	551.296875	178.005768
3053.736543	5961.720833	550.054688	20.675442
3053.736543	5961.720833	548.811523	4.915665
3053.736543	5961.720833	547.569336	219.803497
3053.736543	5961.720833	546.325195	-61.015434
3053.736543	5961.720833	545.082031	-93.780830
3053.736543	5961.720833	543.837891	-159.013824
3053.736543	5961.720833	542.593750	-106.765091
3053.736543	5961.720833	541.349609	128.063126
3053.736543	5961.720833	540.105469	189.155380
3053.736543	5961.720833	538.860352	141.769012
3053.736543	5961.720833	537.615234	-100.868042
3053.736543	5961.720833	536.369141	-0.337279
3053.736543	5961.720833	535.124023	76.399559
3053.736543	5961.720833	533.877930	-91.942451
3053.736543	5961.720833	532.631836	-34.503265
3053.736543	5961.720833	531.384766	-87.572380
3053.736543	5961.720833	530.138672	145.702789
3053.736543	5961.720833	528.891602	-22.037510
3053.736543	5961.720833	527.643555	-271.946228
3053.736543	5961.720833	526.396484	-125.105209
3053.736543	5961.720833	525.148438	-97.362236
3053.736543	5961.720833	523.900391	62.601360
3053.736543	5961.720833	522.652344	-19.917858
3053.736543	5961.720833	521.403320	88.225098
3053.736543	5961.720833	520.154297	60.068047
3053.736543	5961.720833	518.905273	36.359344
3053.736543	5961.720833	517.656250	-11.031647
3053.736543	5961.720833	516.406250	30.389555
3053.736543	5961.720833	515.156250	-114.091026
3053.736543	5961.720833	513.906250	18.348738
3053.736543	5961.720833	512.655273	-17.781181
3053.736543	5961.720833	511.404297	91.003845
3053.736543	5961.720833	510.153320	-7.599430
3053.736543	5961.720833	508.902344	-15.334829
3053.736543	5961.720833	507.650391	201.646271
3053.736543	5961.720833	506.398438	-49.965302
3053.736543	5961.720833	505.146484	300.951477
3053.736543	5961.720833	503.893555	233.059448
3053.736543	5961.720833	502.641602	227.853470
3053.736543	5961.720833	501.388672	183.888718
3053.736543	5961.720833	500.134766	213.355164
3053.736543	5961.720833	498.881836	262.282013
3053.736543	5961.720833	497.627930	270.284882
3053.736543	5961.720833	496.374023	-29.917778
3053.736543	5961.720833	495.119141	288.609650
3053.736543	5961.720833	493.865234	639.368042
3053.736543	5961.720833	492.610352	559.167053
3053.736543	5961.720833	491.355469	423.042725
3053.736543	5961.720833	490.099609	698.304138
3053.736543	5961.720833	488.843750	514.913574
3053.736543	5961.720833	487.587891	607.138428
3053.736543	5961.720833	486.332031	705.799438
3053.736543	5961.720833	485.075195	735.586914
3053.736543	5961.720833	483.818359	705.142151
3053.736543	5961.720833	482.561523	689.766785
3053.736543	5961.720833	481.304688	670.095398
3053.736543	5961.720833	480.046875	755.759033
3053.736543	5961.720833	478.789063	781.192932
3053.736543	5961.720833	477.531250	1032.208008
3053.736543	5961.720833	476.272461	971.591614
3053.736543	5961.720833	475.013672	833.644897
3053.736543	5961.720833	473.754883	689.272766
3053.736543	5961.720833	472.496094	937.788086
3053.736543	5961.720833	471.236328	990.816223
3053.736543	5961.720833	469.976563	942.896790
3053.736543	5961.720833	468.716797	1103.033569
3053.736543	5961.720833	467.456055	939.122498
3053.736543	5961.720833	466.196289	807.359009
3053.736543	5961.720833	464.935547	1267.319458
3053.736543	5961.720833	463.673828	1383.995483
3053.736543	5961.720833	462.413086	1260.467285
3053.736543	5961.720833	461.151367	1291.138916
3053.736543	5961.720833	459.889648	1175.987305
3053.736543	5961.720833	458.626953	1399.138672
3053.736543	5961.720833	457.364258	1437.884033
3053.736543	5961.720833	456.101563	1292.330200
3053.736543	5961.720833	454.838867	1191.607422
3053.736543	5961.720833	453.575195	1221.273926
3053.736543	5961.720833	452.312500	1398.348022
3053.736543	5961.720833	451.047852	1365.513794
3053.736543	5961.720833	449.784180	1073.703125
3053.736543	5961.720833	448.519531	1134.564941
3053.736543	5961.720833	447.254883	1222.940308
3053.736543	5961.720833	445.990234	1372.992554
3053.736543	5961.720833	444.725586	1217.160400
3053.736543	5961.720833	443.459961	1146.555054
3053.736543	5961.720833	442.194336	1297.798706
3053.736543	5961.720833	440.927734	1378.196777
3053.736543	5961.720833	439.662109	1338.681152
3053.736543	5961.720833	438.395508	1399.153320
3053.736543	5961.720833	437.127930	1307.732788
3053.736543	5961.720833	435.861328	1262.916748
3053.736543	5961.720833	434.593750	1228.396851
3053.736543	5961.720833	433.326172	1611.460938
3053.736543	5961.720833	432.058594	1345.796509
3053.736543	5961.720833	430.790039	1506.126709
3053.736543	5961.720833	429.521484	1459.217651
3053.736543	5961.720833	428.252930	1541.830444
3053.736543	5961.720833	426.984375	1781.559814
3053.736543	5961.720833	425.714844	1716.124146
3053.736543	5961.720833	424.445313	1641.678345
3053.736543	5961.720833	423.174805	1632.716553
3053.736543	5961.720833	421.905273	1521.045044
3053.736543	5961.720833	420.634766	1736.539673
3053.736543	5961.720833	419.364258	1527.986572
3053.736543	5961.720833	418.092773	1520.966797
3053.736543	5961.720833	416.822266	1766.380371
3053.736543	5961.720833	415.550781	1724.010620
3053.736543	5961.720833	414.278320	1474.793091
3053.736543	5961.720833	413.006836	1586.274414
3053.736543	5961.720833	411.734375	1448.394043
3053.736543	5961.720833	410.461914	1707.067871
3053.736543	5961.720833	409.188477	1436.044800
3053.736543	5961.720833	407.916016	1831.087280
3053.736543	5961.720833	406.642578	1562.818359
3053.736543	5961.720833	405.368164	1450.885742
3053.736543	5961.720833	404.094727	1711.620972
3053.736543	5961.720833	402.820313	1451.605225
3053.736543	5961.720833	401.545898	1585.308838
3053.736543	5961.720833	400.270508	1671.370117
3053.736543	5961.720833	398.996094	1580.497681
3053.736543	5961.720833	397.720703	1435.689453
3053.736543	5961.720833	396.444336	1442.512207
3053.736543	5961.720833	395.168945	1552.142822
3053.736543	5961.720833	393.892578	1474.259155
3053.736543	5961.720833	392.616211	1638.876953
3053.736543	5961.720833	391.339844	1630.821899
3053.736543	5961.720833	390.062500	1611.039551
3053.736543	5961.720833	388.785156	1505.453369
3053.736543	5961.720833	387.507813	1714.002930
3053.736543	5961.720833	386.229492	1864.108643
3053.736543	5961.720833	384.951172	1744.302734
3053.736543	5961.720833	383.672852	1496.404785
3053.736543	5961.720833	382.394531	1765.266846
3053.736543	5961.720833	381.115234	1519.044067
3053.736543	5961.720833	379.835938	1571.636230
3053.736543	5961.720833	378.556641	1481.263794
3053.736543	5961.720833	377.277344	1288.120972
3053.736543	5961.720833	375.997070	1222.394165
3053.736543	5961.720833	374.716797	1393.792603
3053.736543	5961.720833	373.435547	1405.245361
3053.736543	5961.720833	372.155273	1216.796753
3053.736543	5961.720833	370.874023	1461.461548
3053.736543	5961.720833	369.591797	1147.453613
3053.736543	5961.720833	368.310547	1207.375732
3053.736543	5961.720833	367.028320	1398.384766
3053.736543	5961.720833	365.746094	1248.181519
3053.736543	5961.720833	364.463867	1146.868652
3053.736543	5961.720833	363.180664	1254.479492
3053.736543	5961.720833	361.897461	1208.527954
3053.736543	5961.720833	360.614258	1226.023804
3053.736543	5961.720833	359.330078	1412.129517
3053.736543	5961.720833	358.045898	962.494995
3053.736543	5961.720833	356.761719	1212.009521
3053.736543	5961.720833	355.477539	958.540771
3053.736543	5961.720833	354.192383	1283.768921
3053.736543	5961.720833	352.907227	1129.256226
3053.736543	5961.720833	351.622070	1161.951050
3053.736543	5961.720833	350.336914	921.217407
3053.736543	5961.720833	349.050781	884.321411
3053.736543	5961.720833	347.764648	910.335815
3053.736543	5961.720833	346.477539	702.838684
3053.736543	5961.720833	345.191406	766.254333
3053.736543	5961.720833	343.904297	825.092468
3053.736543	5961.720833	342.616211	608.424133
3053.736543	5961.720833	341.329102	557.403748
3053.736543	5961.720833	340.041016	541.599365
3053.736543	5961.720833	338.752930	844.311829
3053.736543	5961.720833	337.463867	600.822388
3053.736543	5961.720833	336.175781	568.822510
3053.736543	5961.720833	334.886719	305.480469
3053.736543	5961.720833	333.596680	446.180389
3053.736543	5961.720833	332.307617	303.230103
3053.736543	5961.720833	331.017578	77.784500
3053.736543	5961.720833	329.727539	126.137993
3053.736543	5961.720833	328.436523	230.107254
3053.736543	5961.720833	327.146484	109.148460
3053.736543	5961.720833	325.855469	362.032501
3053.736543	5961.720833	324.563477	128.048508
3053.736543	5961.720833	323.272461	125.563393
3053.736543	5961.720833	321.980469	149.104813
3053.736543	5961.720833	320.688477	73.183151
3053.736543	5961.720833	319.395508	-75.106873
3053.736543	5961.720833	318.103516	145.689560
3053.736543	5961.720833	316.810547	-149.316986
3053.736543	5961.720833	315.516602	-31.770292
3053.736543	5961.720833	314.223633	-155.865662
3053.736543	5961.720833	312.929688	-137.297806
3053.736543	5961.720833	311.635742	-268.535767
3053.736543	5961.720833	310.340820	-94.384148
3053.736543	5961.720833	309.045898	-101.473495
3053.736543	5961.720833	307.750977	-239.633423
3053.736543	5961.720833	306.456055	-335.605957
3053.736543	5961.720833	305.160156	94.479385
3053.736543	5961.720833	303.865234	19.942713
3053.736543	5961.720833	302.568359	110.142136
3053.736543	5961.720833	301.272461	396.620209
3053.736543	5961.720833	299.975586	578.691956
3053.736543	5961.720833	298.678711	479.348480
