#X		#Y		#Wave		#Intensity
13275.136543	3909.127333	1999.980469	66.972504
13275.136543	3909.127333	1999.016602	-39.188549
13275.136543	3909.127333	1998.052734	-281.830536
13275.136543	3909.127333	1997.087891	-207.698227
13275.136543	3909.127333	1996.123047	-62.251347
13275.136543	3909.127333	1995.158203	102.463570
13275.136543	3909.127333	1994.193359	-102.397202
13275.136543	3909.127333	1993.228516	-92.208946
13275.136543	3909.127333	1992.262695	93.317680
13275.136543	3909.127333	1991.297852	124.859245
13275.136543	3909.127333	1990.332031	52.028183
13275.136543	3909.127333	1989.366211	179.247925
13275.136543	3909.127333	1988.399414	199.649689
13275.136543	3909.127333	1987.433594	-69.744949
13275.136543	3909.127333	1986.466797	-92.095551
13275.136543	3909.127333	1985.500977	6.361603
13275.136543	3909.127333	1984.534180	-56.246014
13275.136543	3909.127333	1983.567383	115.650261
13275.136543	3909.127333	1982.599609	15.331219
13275.136543	3909.127333	1981.632813	70.399139
13275.136543	3909.127333	1980.665039	48.574490
13275.136543	3909.127333	1979.697266	-104.429245
13275.136543	3909.127333	1978.729492	73.250633
13275.136543	3909.127333	1977.761719	3.708020
13275.136543	3909.127333	1976.792969	198.069138
13275.136543	3909.127333	1975.825195	113.227180
13275.136543	3909.127333	1974.856445	151.564865
13275.136543	3909.127333	1973.887695	63.843693
13275.136543	3909.127333	1972.918945	222.607529
13275.136543	3909.127333	1971.949219	3.781083
13275.136543	3909.127333	1970.980469	56.074066
13275.136543	3909.127333	1970.010742	-79.200523
13275.136543	3909.127333	1969.041016	113.220734
13275.136543	3909.127333	1968.071289	81.145210
13275.136543	3909.127333	1967.101563	248.497269
13275.136543	3909.127333	1966.130859	233.339905
13275.136543	3909.127333	1965.161133	67.801575
13275.136543	3909.127333	1964.190430	293.731079
13275.136543	3909.127333	1963.219727	125.513618
13275.136543	3909.127333	1962.249023	156.629196
13275.136543	3909.127333	1961.277344	182.693832
13275.136543	3909.127333	1960.306641	220.945663
13275.136543	3909.127333	1959.334961	158.209793
13275.136543	3909.127333	1958.363281	95.401367
13275.136543	3909.127333	1957.391602	303.055084
13275.136543	3909.127333	1956.419922	119.587227
13275.136543	3909.127333	1955.447266	115.574127
13275.136543	3909.127333	1954.474609	249.136673
13275.136543	3909.127333	1953.501953	50.821484
13275.136543	3909.127333	1952.529297	103.137955
13275.136543	3909.127333	1951.556641	184.859909
13275.136543	3909.127333	1950.583984	62.641907
13275.136543	3909.127333	1949.610352	183.534485
13275.136543	3909.127333	1948.636719	61.276051
13275.136543	3909.127333	1947.663086	110.860519
13275.136543	3909.127333	1946.689453	-143.939072
13275.136543	3909.127333	1945.715820	-23.230698
13275.136543	3909.127333	1944.741211	-5.634646
13275.136543	3909.127333	1943.767578	11.937953
13275.136543	3909.127333	1942.792969	134.944199
13275.136543	3909.127333	1941.818359	39.663662
13275.136543	3909.127333	1940.842773	20.408064
13275.136543	3909.127333	1939.868164	265.877136
13275.136543	3909.127333	1938.892578	-0.934586
13275.136543	3909.127333	1937.916992	212.594772
13275.136543	3909.127333	1936.941406	90.435036
13275.136543	3909.127333	1935.965820	27.113579
13275.136543	3909.127333	1934.990234	-48.418564
13275.136543	3909.127333	1934.013672	-23.526316
13275.136543	3909.127333	1933.037109	128.664429
13275.136543	3909.127333	1932.060547	-189.093903
13275.136543	3909.127333	1931.083984	34.075054
13275.136543	3909.127333	1930.107422	41.888332
13275.136543	3909.127333	1929.129883	152.458084
13275.136543	3909.127333	1928.153320	-162.523636
13275.136543	3909.127333	1927.175781	-32.337761
13275.136543	3909.127333	1926.198242	-97.746864
13275.136543	3909.127333	1925.219727	-65.329529
13275.136543	3909.127333	1924.242188	-89.095566
13275.136543	3909.127333	1923.263672	-71.281105
13275.136543	3909.127333	1922.285156	-138.937378
13275.136543	3909.127333	1921.306641	10.849008
13275.136543	3909.127333	1920.328125	-98.232330
13275.136543	3909.127333	1919.349609	71.103867
13275.136543	3909.127333	1918.370117	235.534485
13275.136543	3909.127333	1917.391602	-36.922234
13275.136543	3909.127333	1916.412109	20.186970
13275.136543	3909.127333	1915.431641	189.544571
13275.136543	3909.127333	1914.452148	-33.833618
13275.136543	3909.127333	1913.472656	-113.193932
13275.136543	3909.127333	1912.492188	22.095367
13275.136543	3909.127333	1911.511719	-154.668762
13275.136543	3909.127333	1910.531250	-58.326828
13275.136543	3909.127333	1909.550781	-13.151051
13275.136543	3909.127333	1908.569336	-184.794968
13275.136543	3909.127333	1907.588867	-120.028183
13275.136543	3909.127333	1906.607422	-125.870918
13275.136543	3909.127333	1905.625977	121.593178
13275.136543	3909.127333	1904.644531	57.369858
13275.136543	3909.127333	1903.662109	63.810364
13275.136543	3909.127333	1902.680664	101.937241
13275.136543	3909.127333	1901.698242	35.460907
13275.136543	3909.127333	1900.715820	-62.570045
13275.136543	3909.127333	1899.733398	-94.842560
13275.136543	3909.127333	1898.750000	-44.370682
13275.136543	3909.127333	1897.767578	-76.542793
13275.136543	3909.127333	1896.784180	-157.280136
13275.136543	3909.127333	1895.800781	102.343292
13275.136543	3909.127333	1894.817383	-85.236656
13275.136543	3909.127333	1893.833984	-37.020733
13275.136543	3909.127333	1892.850586	-5.786092
13275.136543	3909.127333	1891.866211	132.344757
13275.136543	3909.127333	1890.881836	-101.071770
13275.136543	3909.127333	1889.897461	54.100124
13275.136543	3909.127333	1888.913086	-14.070230
13275.136543	3909.127333	1887.927734	-11.795192
13275.136543	3909.127333	1886.943359	-89.560295
13275.136543	3909.127333	1885.958008	70.494873
13275.136543	3909.127333	1884.972656	184.437958
13275.136543	3909.127333	1883.987305	94.658424
13275.136543	3909.127333	1883.001953	-77.496300
13275.136543	3909.127333	1882.015625	94.689125
13275.136543	3909.127333	1881.029297	182.006699
13275.136543	3909.127333	1880.042969	58.489265
13275.136543	3909.127333	1879.056641	-152.178940
13275.136543	3909.127333	1878.070313	133.858154
13275.136543	3909.127333	1877.083984	-18.567842
13275.136543	3909.127333	1876.096680	30.073824
13275.136543	3909.127333	1875.109375	85.982986
13275.136543	3909.127333	1874.122070	190.302719
13275.136543	3909.127333	1873.134766	-12.758515
13275.136543	3909.127333	1872.146484	45.602482
13275.136543	3909.127333	1871.159180	-75.067993
13275.136543	3909.127333	1870.170898	-11.849570
13275.136543	3909.127333	1869.182617	-204.987000
13275.136543	3909.127333	1868.194336	80.702682
13275.136543	3909.127333	1867.205078	97.958206
13275.136543	3909.127333	1866.216797	-95.063057
13275.136543	3909.127333	1865.227539	47.892323
13275.136543	3909.127333	1864.238281	4.761075
13275.136543	3909.127333	1863.249023	-64.923317
13275.136543	3909.127333	1862.259766	34.482002
13275.136543	3909.127333	1861.269531	-8.619287
13275.136543	3909.127333	1860.279297	90.735840
13275.136543	3909.127333	1859.290039	-85.125320
13275.136543	3909.127333	1858.298828	-128.191513
13275.136543	3909.127333	1857.308594	-86.796791
13275.136543	3909.127333	1856.318359	-105.738701
13275.136543	3909.127333	1855.327148	-168.099976
13275.136543	3909.127333	1854.335938	-73.699844
13275.136543	3909.127333	1853.344727	-22.749039
13275.136543	3909.127333	1852.353516	66.736992
13275.136543	3909.127333	1851.362305	-14.952489
13275.136543	3909.127333	1850.370117	108.197327
13275.136543	3909.127333	1849.377930	-38.562428
13275.136543	3909.127333	1848.385742	-7.035277
13275.136543	3909.127333	1847.393555	-11.671242
13275.136543	3909.127333	1846.401367	-33.187916
13275.136543	3909.127333	1845.408203	-54.724903
13275.136543	3909.127333	1844.415039	-102.762405
13275.136543	3909.127333	1843.421875	70.591354
13275.136543	3909.127333	1842.428711	87.447899
13275.136543	3909.127333	1841.435547	-3.993363
13275.136543	3909.127333	1840.441406	178.756714
13275.136543	3909.127333	1839.448242	-16.148754
13275.136543	3909.127333	1838.454102	-172.553955
13275.136543	3909.127333	1837.459961	38.847282
13275.136543	3909.127333	1836.464844	-21.460913
13275.136543	3909.127333	1835.470703	196.950317
13275.136543	3909.127333	1834.475586	35.634903
13275.136543	3909.127333	1833.480469	30.463667
13275.136543	3909.127333	1832.485352	-8.380519
13275.136543	3909.127333	1831.490234	130.421936
13275.136543	3909.127333	1830.495117	-14.164819
13275.136543	3909.127333	1829.499023	-17.141344
13275.136543	3909.127333	1828.502930	430.984589
13275.136543	3909.127333	1827.506836	144.684952
13275.136543	3909.127333	1826.510742	136.702240
13275.136543	3909.127333	1825.513672	226.992767
13275.136543	3909.127333	1824.517578	151.724945
13275.136543	3909.127333	1823.520508	107.584435
13275.136543	3909.127333	1822.523438	-54.064056
13275.136543	3909.127333	1821.526367	148.564041
13275.136543	3909.127333	1820.529297	355.836304
13275.136543	3909.127333	1819.531250	138.913757
13275.136543	3909.127333	1818.533203	104.038437
13275.136543	3909.127333	1817.535156	169.680481
13275.136543	3909.127333	1816.537109	60.432152
13275.136543	3909.127333	1815.539063	195.324188
13275.136543	3909.127333	1814.540039	198.442154
13275.136543	3909.127333	1813.541992	81.827301
13275.136543	3909.127333	1812.542969	357.548615
13275.136543	3909.127333	1811.543945	276.657349
13275.136543	3909.127333	1810.543945	205.274887
13275.136543	3909.127333	1809.544922	380.124878
13275.136543	3909.127333	1808.544922	291.835297
13275.136543	3909.127333	1807.544922	342.123779
13275.136543	3909.127333	1806.544922	138.978271
13275.136543	3909.127333	1805.544922	299.001984
13275.136543	3909.127333	1804.544922	384.811798
13275.136543	3909.127333	1803.543945	179.095062
13275.136543	3909.127333	1802.542969	243.206665
13275.136543	3909.127333	1801.541992	180.651276
13275.136543	3909.127333	1800.541016	275.570251
13275.136543	3909.127333	1799.539063	234.306931
13275.136543	3909.127333	1798.538086	286.022675
13275.136543	3909.127333	1797.536133	287.509674
13275.136543	3909.127333	1796.534180	598.981934
13275.136543	3909.127333	1795.532227	197.153198
13275.136543	3909.127333	1794.529297	346.166199
13275.136543	3909.127333	1793.527344	306.684418
13275.136543	3909.127333	1792.524414	236.117294
13275.136543	3909.127333	1791.521484	163.082779
13275.136543	3909.127333	1790.518555	240.068176
13275.136543	3909.127333	1789.514648	247.824158
13275.136543	3909.127333	1788.511719	76.838661
13275.136543	3909.127333	1787.507813	58.199837
13275.136543	3909.127333	1786.503906	110.875900
13275.136543	3909.127333	1785.500000	322.898224
13275.136543	3909.127333	1784.496094	111.099007
13275.136543	3909.127333	1783.491211	-24.600729
13275.136543	3909.127333	1782.486328	303.536316
13275.136543	3909.127333	1781.481445	110.525055
13275.136543	3909.127333	1780.476563	114.848114
13275.136543	3909.127333	1779.471680	140.446213
13275.136543	3909.127333	1778.465820	70.818047
13275.136543	3909.127333	1777.460938	138.949432
13275.136543	3909.127333	1776.455078	130.884293
13275.136543	3909.127333	1775.449219	-36.485767
13275.136543	3909.127333	1774.442383	38.365910
13275.136543	3909.127333	1773.436523	101.194717
13275.136543	3909.127333	1772.429688	270.717560
13275.136543	3909.127333	1771.422852	176.529755
13275.136543	3909.127333	1770.416016	172.446243
13275.136543	3909.127333	1769.409180	-2.631105
13275.136543	3909.127333	1768.402344	66.615662
13275.136543	3909.127333	1767.394531	90.627556
13275.136543	3909.127333	1766.386719	24.371702
13275.136543	3909.127333	1765.378906	109.774506
13275.136543	3909.127333	1764.371094	-18.364563
13275.136543	3909.127333	1763.362305	107.041611
13275.136543	3909.127333	1762.354492	104.296303
13275.136543	3909.127333	1761.345703	-130.802017
13275.136543	3909.127333	1760.336914	129.195145
13275.136543	3909.127333	1759.328125	17.084467
13275.136543	3909.127333	1758.318359	-78.547455
13275.136543	3909.127333	1757.308594	50.657497
13275.136543	3909.127333	1756.299805	61.323593
13275.136543	3909.127333	1755.290039	-63.065521
13275.136543	3909.127333	1754.279297	-121.291557
13275.136543	3909.127333	1753.269531	-49.496010
13275.136543	3909.127333	1752.258789	59.977901
13275.136543	3909.127333	1751.249023	55.761688
13275.136543	3909.127333	1750.238281	56.133762
13275.136543	3909.127333	1749.226563	32.719761
13275.136543	3909.127333	1748.215820	125.009445
13275.136543	3909.127333	1747.204102	4.429959
13275.136543	3909.127333	1746.193359	-213.103592
13275.136543	3909.127333	1745.181641	60.665577
13275.136543	3909.127333	1744.168945	-57.884838
13275.136543	3909.127333	1743.157227	-193.045914
13275.136543	3909.127333	1742.144531	61.261665
13275.136543	3909.127333	1741.132813	112.343071
13275.136543	3909.127333	1740.120117	-124.669113
13275.136543	3909.127333	1739.106445	-78.580643
13275.136543	3909.127333	1738.093750	-119.921471
13275.136543	3909.127333	1737.080078	-137.804810
13275.136543	3909.127333	1736.067383	-191.177063
13275.136543	3909.127333	1735.053711	-155.075714
13275.136543	3909.127333	1734.040039	-24.825741
13275.136543	3909.127333	1733.025391	48.663792
13275.136543	3909.127333	1732.011719	-113.642288
13275.136543	3909.127333	1730.997070	-205.348755
13275.136543	3909.127333	1729.982422	-78.082756
13275.136543	3909.127333	1728.967773	-139.406250
13275.136543	3909.127333	1727.952148	-144.337204
13275.136543	3909.127333	1726.937500	159.019226
13275.136543	3909.127333	1725.921875	43.147022
13275.136543	3909.127333	1724.906250	-96.343903
13275.136543	3909.127333	1723.890625	-82.972443
13275.136543	3909.127333	1722.875000	29.066727
13275.136543	3909.127333	1721.858398	9.213064
13275.136543	3909.127333	1720.841797	-140.092865
13275.136543	3909.127333	1719.825195	124.320557
13275.136543	3909.127333	1718.808594	-83.967827
13275.136543	3909.127333	1717.791992	-144.241455
13275.136543	3909.127333	1716.774414	-77.742950
13275.136543	3909.127333	1715.756836	183.594894
13275.136543	3909.127333	1714.739258	-76.728088
13275.136543	3909.127333	1713.721680	-71.707153
13275.136543	3909.127333	1712.704102	62.326515
13275.136543	3909.127333	1711.685547	76.453049
13275.136543	3909.127333	1710.667969	41.180714
13275.136543	3909.127333	1709.649414	160.662979
13275.136543	3909.127333	1708.630859	99.330307
13275.136543	3909.127333	1707.611328	-30.135002
13275.136543	3909.127333	1706.592773	-75.224709
13275.136543	3909.127333	1705.573242	-193.115234
13275.136543	3909.127333	1704.553711	64.016968
13275.136543	3909.127333	1703.534180	-105.647408
13275.136543	3909.127333	1702.513672	-219.132523
13275.136543	3909.127333	1701.494141	42.204781
13275.136543	3909.127333	1700.473633	155.737915
13275.136543	3909.127333	1699.453125	27.882826
13275.136543	3909.127333	1698.432617	42.808578
13275.136543	3909.127333	1697.412109	-213.956360
13275.136543	3909.127333	1696.390625	-152.404388
13275.136543	3909.127333	1695.369141	-48.858406
13275.136543	3909.127333	1694.347656	-106.903152
13275.136543	3909.127333	1693.326172	52.531887
13275.136543	3909.127333	1692.304688	66.790688
13275.136543	3909.127333	1691.282227	-50.026775
13275.136543	3909.127333	1690.260742	22.495424
13275.136543	3909.127333	1689.238281	120.590149
13275.136543	3909.127333	1688.214844	33.900002
13275.136543	3909.127333	1687.192383	127.086594
13275.136543	3909.127333	1686.168945	16.874496
13275.136543	3909.127333	1685.146484	-41.986420
13275.136543	3909.127333	1684.123047	50.863857
13275.136543	3909.127333	1683.099609	24.508015
13275.136543	3909.127333	1682.075195	65.754395
13275.136543	3909.127333	1681.051758	174.597702
13275.136543	3909.127333	1680.027344	84.945213
13275.136543	3909.127333	1679.002930	76.898544
13275.136543	3909.127333	1677.978516	89.763786
13275.136543	3909.127333	1676.953125	142.171234
13275.136543	3909.127333	1675.928711	217.810745
13275.136543	3909.127333	1674.903320	111.482475
13275.136543	3909.127333	1673.877930	51.732803
13275.136543	3909.127333	1672.852539	269.244843
13275.136543	3909.127333	1671.826172	269.894653
13275.136543	3909.127333	1670.800781	100.433441
13275.136543	3909.127333	1669.774414	103.295479
13275.136543	3909.127333	1668.748047	185.256058
13275.136543	3909.127333	1667.721680	99.488571
13275.136543	3909.127333	1666.694336	269.712616
13275.136543	3909.127333	1665.667969	314.150726
13275.136543	3909.127333	1664.640625	267.741516
13275.136543	3909.127333	1663.613281	258.507690
13275.136543	3909.127333	1662.585938	367.833618
13275.136543	3909.127333	1661.557617	314.257080
13275.136543	3909.127333	1660.530273	386.209137
13275.136543	3909.127333	1659.501953	460.379913
13275.136543	3909.127333	1658.473633	441.501434
13275.136543	3909.127333	1657.444336	638.656189
13275.136543	3909.127333	1656.416016	508.127228
13275.136543	3909.127333	1655.386719	519.265503
13275.136543	3909.127333	1654.358398	453.730225
13275.136543	3909.127333	1653.328125	671.401184
13275.136543	3909.127333	1652.298828	545.391052
13275.136543	3909.127333	1651.269531	790.734497
13275.136543	3909.127333	1650.239258	827.075317
13275.136543	3909.127333	1649.208984	754.316772
13275.136543	3909.127333	1648.178711	1089.795654
13275.136543	3909.127333	1647.148438	986.783875
13275.136543	3909.127333	1646.117188	950.997620
13275.136543	3909.127333	1645.086914	926.798889
13275.136543	3909.127333	1644.055664	1018.446045
13275.136543	3909.127333	1643.024414	896.828064
13275.136543	3909.127333	1641.992188	891.051514
13275.136543	3909.127333	1640.960938	1174.824219
13275.136543	3909.127333	1639.928711	1233.787354
13275.136543	3909.127333	1638.896484	1204.708862
13275.136543	3909.127333	1637.864258	1272.851074
13275.136543	3909.127333	1636.832031	1151.141602
13275.136543	3909.127333	1635.798828	1244.661377
13275.136543	3909.127333	1634.766602	1398.300293
13275.136543	3909.127333	1633.733398	1181.713013
13275.136543	3909.127333	1632.699219	1277.411743
13275.136543	3909.127333	1631.666016	1250.518921
13275.136543	3909.127333	1630.632813	1209.751465
13275.136543	3909.127333	1629.598633	1270.676392
13275.136543	3909.127333	1628.564453	1289.968384
13275.136543	3909.127333	1627.530273	1422.465942
13275.136543	3909.127333	1626.495117	1513.304688
13275.136543	3909.127333	1625.460938	1507.111938
13275.136543	3909.127333	1624.425781	1595.581299
13275.136543	3909.127333	1623.390625	1575.499512
13275.136543	3909.127333	1622.355469	1726.246948
13275.136543	3909.127333	1621.319336	1906.922363
13275.136543	3909.127333	1620.284180	1935.255493
13275.136543	3909.127333	1619.248047	1795.150879
13275.136543	3909.127333	1618.211914	1671.254639
13275.136543	3909.127333	1617.174805	1688.071533
13275.136543	3909.127333	1616.138672	1801.750244
13275.136543	3909.127333	1615.101563	1936.125122
13275.136543	3909.127333	1614.065430	2045.127808
13275.136543	3909.127333	1613.027344	1898.285522
13275.136543	3909.127333	1611.990234	1931.239502
13275.136543	3909.127333	1610.953125	1936.558228
13275.136543	3909.127333	1609.915039	1826.728271
13275.136543	3909.127333	1608.876953	2136.027100
13275.136543	3909.127333	1607.838867	1858.194946
13275.136543	3909.127333	1606.800781	2112.178467
13275.136543	3909.127333	1605.761719	2262.518311
13275.136543	3909.127333	1604.723633	2088.440430
13275.136543	3909.127333	1603.684570	2008.756470
13275.136543	3909.127333	1602.644531	2094.707275
13275.136543	3909.127333	1601.605469	2258.856689
13275.136543	3909.127333	1600.566406	2135.609131
13275.136543	3909.127333	1599.526367	2212.400146
13275.136543	3909.127333	1598.486328	2158.210938
13275.136543	3909.127333	1597.446289	2370.606445
13275.136543	3909.127333	1596.405273	2206.211426
13275.136543	3909.127333	1595.365234	2191.226807
13275.136543	3909.127333	1594.324219	2160.203125
13275.136543	3909.127333	1593.283203	2347.343018
13275.136543	3909.127333	1592.242188	2252.128906
13275.136543	3909.127333	1591.200195	2512.697021
13275.136543	3909.127333	1590.159180	1986.231201
13275.136543	3909.127333	1589.117188	2191.801025
13275.136543	3909.127333	1588.075195	2195.510498
13275.136543	3909.127333	1587.032227	2258.882324
13275.136543	3909.127333	1585.990234	2132.012207
13275.136543	3909.127333	1584.947266	2090.047852
13275.136543	3909.127333	1583.904297	2300.259766
13275.136543	3909.127333	1582.861328	2095.719482
13275.136543	3909.127333	1581.818359	2278.485596
13275.136543	3909.127333	1580.775391	2236.785889
13275.136543	3909.127333	1579.731445	2247.822510
13275.136543	3909.127333	1578.687500	2078.052490
13275.136543	3909.127333	1577.643555	2141.907471
13275.136543	3909.127333	1576.598633	2116.538574
13275.136543	3909.127333	1575.554688	2075.251465
13275.136543	3909.127333	1574.509766	2095.811768
13275.136543	3909.127333	1573.464844	2070.694580
13275.136543	3909.127333	1572.419922	2111.987061
13275.136543	3909.127333	1571.374023	2073.303711
13275.136543	3909.127333	1570.329102	2130.742432
13275.136543	3909.127333	1569.283203	2195.085205
13275.136543	3909.127333	1568.237305	2062.972412
13275.136543	3909.127333	1567.191406	2063.505371
13275.136543	3909.127333	1566.144531	1988.736206
13275.136543	3909.127333	1565.098633	1952.921875
13275.136543	3909.127333	1564.051758	1903.499878
13275.136543	3909.127333	1563.004883	1806.248535
13275.136543	3909.127333	1561.957031	1537.939331
13275.136543	3909.127333	1560.910156	1840.324707
13275.136543	3909.127333	1559.862305	1841.520386
13275.136543	3909.127333	1558.814453	1897.556274
13275.136543	3909.127333	1557.766602	1748.420288
13275.136543	3909.127333	1556.718750	1745.371338
13275.136543	3909.127333	1555.669922	1735.573975
13275.136543	3909.127333	1554.621094	1445.536377
13275.136543	3909.127333	1553.573242	1559.078735
13275.136543	3909.127333	1552.523438	1654.427124
13275.136543	3909.127333	1551.474609	1462.846313
13275.136543	3909.127333	1550.424805	977.647949
13275.136543	3909.127333	1549.375000	1109.814453
13275.136543	3909.127333	1548.325195	1207.891724
13275.136543	3909.127333	1547.275391	1331.080322
13275.136543	3909.127333	1546.225586	1001.483032
13275.136543	3909.127333	1545.174805	1027.047363
13275.136543	3909.127333	1544.124023	793.396667
13275.136543	3909.127333	1543.073242	739.626648
13275.136543	3909.127333	1542.022461	1015.704346
13275.136543	3909.127333	1540.970703	871.201904
13275.136543	3909.127333	1539.919922	831.447144
13275.136543	3909.127333	1538.868164	848.630249
13275.136543	3909.127333	1537.815430	772.763367
13275.136543	3909.127333	1536.763672	624.372864
13275.136543	3909.127333	1535.710938	710.084045
13275.136543	3909.127333	1534.659180	882.188538
13275.136543	3909.127333	1533.606445	886.341309
13275.136543	3909.127333	1532.552734	547.868103
13275.136543	3909.127333	1531.500000	443.415924
13275.136543	3909.127333	1530.446289	681.732483
13275.136543	3909.127333	1529.393555	593.438904
13275.136543	3909.127333	1528.338867	373.745605
13275.136543	3909.127333	1527.285156	342.493835
13275.136543	3909.127333	1526.231445	465.555756
13275.136543	3909.127333	1525.176758	253.224930
13275.136543	3909.127333	1524.122070	192.954956
13275.136543	3909.127333	1523.067383	119.251549
13275.136543	3909.127333	1522.012695	251.863617
13275.136543	3909.127333	1520.957031	219.216064
13275.136543	3909.127333	1519.901367	48.592926
13275.136543	3909.127333	1518.845703	111.370018
13275.136543	3909.127333	1517.790039	38.454369
13275.136543	3909.127333	1516.734375	13.236399
13275.136543	3909.127333	1515.677734	26.627941
13275.136543	3909.127333	1514.621094	-118.192192
13275.136543	3909.127333	1513.564453	4.077494
13275.136543	3909.127333	1512.507813	33.734592
13275.136543	3909.127333	1511.450195	43.169956
13275.136543	3909.127333	1510.393555	-270.477966
13275.136543	3909.127333	1509.335938	-158.987564
13275.136543	3909.127333	1508.278320	70.105103
13275.136543	3909.127333	1507.219727	5.570336
13275.136543	3909.127333	1506.162109	18.016094
13275.136543	3909.127333	1505.103516	-39.402359
13275.136543	3909.127333	1504.044922	-4.078102
13275.136543	3909.127333	1502.986328	306.775574
13275.136543	3909.127333	1501.926758	105.352417
13275.136543	3909.127333	1500.868164	299.040131
13275.136543	3909.127333	1499.808594	37.100822
13275.136543	3909.127333	1498.749023	264.863251
13275.136543	3909.127333	1497.688477	-50.779026
13275.136543	3909.127333	1496.628906	-176.743332
13275.136543	3909.127333	1495.568359	-151.479294
13275.136543	3909.127333	1494.507813	157.899780
13275.136543	3909.127333	1493.447266	-14.878139
13275.136543	3909.127333	1492.386719	121.205917
13275.136543	3909.127333	1491.325195	-145.779892
13275.136543	3909.127333	1490.263672	-90.475891
13275.136543	3909.127333	1489.202148	-14.768442
13275.136543	3909.127333	1488.140625	-249.567352
13275.136543	3909.127333	1487.079102	-130.771713
13275.136543	3909.127333	1486.016602	-52.368324
13275.136543	3909.127333	1484.954102	-153.805008
13275.136543	3909.127333	1483.891602	-5.373470
13275.136543	3909.127333	1482.829102	127.420692
13275.136543	3909.127333	1481.765625	53.473064
13275.136543	3909.127333	1480.702148	96.598816
13275.136543	3909.127333	1479.638672	-98.319023
13275.136543	3909.127333	1478.575195	118.140656
13275.136543	3909.127333	1477.511719	231.360855
13275.136543	3909.127333	1476.447266	124.656784
13275.136543	3909.127333	1475.382813	451.439453
13275.136543	3909.127333	1474.318359	349.440430
13275.136543	3909.127333	1473.253906	694.290710
13275.136543	3909.127333	1472.189453	595.166199
13275.136543	3909.127333	1471.124023	655.242188
13275.136543	3909.127333	1470.058594	589.914185
13275.136543	3909.127333	1468.993164	453.182190
13275.136543	3909.127333	1467.927734	332.066803
13275.136543	3909.127333	1466.861328	466.773163
13275.136543	3909.127333	1465.794922	700.088684
13275.136543	3909.127333	1464.728516	494.682281
13275.136543	3909.127333	1463.662109	289.727783
13275.136543	3909.127333	1462.594727	464.853760
13275.136543	3909.127333	1461.528320	608.998413
13275.136543	3909.127333	1460.460938	628.298889
13275.136543	3909.127333	1459.393555	502.607056
13275.136543	3909.127333	1458.326172	610.532166
13275.136543	3909.127333	1457.257813	625.584290
13275.136543	3909.127333	1456.189453	643.116760
13275.136543	3909.127333	1455.121094	745.182068
13275.136543	3909.127333	1454.052734	665.389465
13275.136543	3909.127333	1452.984375	636.408691
13275.136543	3909.127333	1451.915039	491.207672
13275.136543	3909.127333	1450.845703	813.648499
13275.136543	3909.127333	1449.776367	790.154724
13275.136543	3909.127333	1448.707031	581.050476
13275.136543	3909.127333	1447.636719	608.952515
13275.136543	3909.127333	1446.567383	678.593323
13275.136543	3909.127333	1445.497070	566.424805
13275.136543	3909.127333	1444.425781	670.209839
13275.136543	3909.127333	1443.355469	601.456177
13275.136543	3909.127333	1442.285156	656.491028
13275.136543	3909.127333	1441.213867	502.757202
13275.136543	3909.127333	1440.142578	449.302643
13275.136543	3909.127333	1439.070313	740.237610
13275.136543	3909.127333	1437.999023	929.096497
13275.136543	3909.127333	1436.926758	482.837616
13275.136543	3909.127333	1435.854492	950.578430
13275.136543	3909.127333	1434.782227	913.086182
13275.136543	3909.127333	1433.709961	656.481384
13275.136543	3909.127333	1432.636719	726.011963
13275.136543	3909.127333	1431.563477	758.058350
13275.136543	3909.127333	1430.490234	871.526306
13275.136543	3909.127333	1429.416992	737.645935
13275.136543	3909.127333	1428.343750	845.354065
13275.136543	3909.127333	1427.269531	489.099487
13275.136543	3909.127333	1426.195313	531.468872
13275.136543	3909.127333	1425.121094	597.495850
13275.136543	3909.127333	1424.046875	595.083191
13275.136543	3909.127333	1422.971680	583.395935
13275.136543	3909.127333	1421.896484	556.873657
13275.136543	3909.127333	1420.821289	180.336060
13275.136543	3909.127333	1419.746094	280.485687
13275.136543	3909.127333	1418.669922	257.716583
13275.136543	3909.127333	1417.594727	243.555344
13275.136543	3909.127333	1416.518555	198.935303
13275.136543	3909.127333	1415.442383	419.753143
13275.136543	3909.127333	1414.365234	129.180771
13275.136543	3909.127333	1413.289063	366.055115
13275.136543	3909.127333	1412.211914	222.115280
13275.136543	3909.127333	1411.134766	272.833527
13275.136543	3909.127333	1410.057617	397.900513
13275.136543	3909.127333	1408.979492	482.556183
13275.136543	3909.127333	1407.902344	522.961182
13275.136543	3909.127333	1406.824219	411.150909
13275.136543	3909.127333	1405.746094	401.586060
13275.136543	3909.127333	1404.666992	433.500275
13275.136543	3909.127333	1403.588867	226.197571
13275.136543	3909.127333	1402.509766	291.636261
13275.136543	3909.127333	1401.430664	232.266708
13275.136543	3909.127333	1400.351563	351.245331
13275.136543	3909.127333	1399.271484	121.266273
13275.136543	3909.127333	1398.192383	332.647797
13275.136543	3909.127333	1397.112305	215.804626
13275.136543	3909.127333	1396.031250	223.680603
13275.136543	3909.127333	1394.951172	238.279648
13275.136543	3909.127333	1393.871094	-33.395214
13275.136543	3909.127333	1392.790039	11.127273
13275.136543	3909.127333	1391.708984	341.942657
13275.136543	3909.127333	1390.626953	219.308563
13275.136543	3909.127333	1389.545898	251.354553
13275.136543	3909.127333	1388.463867	182.542236
13275.136543	3909.127333	1387.381836	61.035938
13275.136543	3909.127333	1386.299805	88.294662
13275.136543	3909.127333	1385.217773	44.436592
13275.136543	3909.127333	1384.134766	182.770844
13275.136543	3909.127333	1383.051758	236.222900
13275.136543	3909.127333	1381.968750	239.556427
13275.136543	3909.127333	1380.885742	363.353424
13275.136543	3909.127333	1379.802734	348.859009
13275.136543	3909.127333	1378.718750	378.333984
13275.136543	3909.127333	1377.634766	288.507904
13275.136543	3909.127333	1376.550781	89.424637
13275.136543	3909.127333	1375.465820	413.489899
13275.136543	3909.127333	1374.381836	317.025024
13275.136543	3909.127333	1373.296875	128.478256
13275.136543	3909.127333	1372.211914	270.135193
13275.136543	3909.127333	1371.126953	252.234940
13275.136543	3909.127333	1370.041016	347.125153
13275.136543	3909.127333	1368.955078	304.501190
13275.136543	3909.127333	1367.869141	183.112900
13275.136543	3909.127333	1366.783203	261.320526
13275.136543	3909.127333	1365.697266	249.081924
13275.136543	3909.127333	1364.610352	355.172974
13275.136543	3909.127333	1363.523438	245.147797
13275.136543	3909.127333	1362.436523	467.293365
13275.136543	3909.127333	1361.349609	199.286255
13275.136543	3909.127333	1360.261719	316.913452
13275.136543	3909.127333	1359.174805	422.240265
13275.136543	3909.127333	1358.086914	95.381874
13275.136543	3909.127333	1356.998047	164.233948
13275.136543	3909.127333	1355.910156	307.444122
13275.136543	3909.127333	1354.821289	103.209274
13275.136543	3909.127333	1353.732422	395.969269
13275.136543	3909.127333	1352.643555	167.732727
13275.136543	3909.127333	1351.554688	357.929077
13275.136543	3909.127333	1350.464844	298.008270
13275.136543	3909.127333	1349.375000	271.103119
13275.136543	3909.127333	1348.285156	-11.293432
13275.136543	3909.127333	1347.195313	274.546875
13275.136543	3909.127333	1346.105469	249.847458
13275.136543	3909.127333	1345.014648	317.363342
13275.136543	3909.127333	1343.923828	243.063782
13275.136543	3909.127333	1342.833008	210.583298
13275.136543	3909.127333	1341.741211	562.071655
13275.136543	3909.127333	1340.650391	165.682755
13275.136543	3909.127333	1339.558594	438.742828
13275.136543	3909.127333	1338.466797	529.128906
13275.136543	3909.127333	1337.374023	593.215698
13275.136543	3909.127333	1336.282227	476.828217
13275.136543	3909.127333	1335.189453	638.853027
13275.136543	3909.127333	1334.096680	564.054443
13275.136543	3909.127333	1333.003906	568.368713
13275.136543	3909.127333	1331.910156	690.850586
13275.136543	3909.127333	1330.817383	942.073364
13275.136543	3909.127333	1329.723633	704.772949
13275.136543	3909.127333	1328.629883	740.770874
13275.136543	3909.127333	1327.535156	495.793121
13275.136543	3909.127333	1326.441406	481.746368
13275.136543	3909.127333	1325.346680	380.936340
13275.136543	3909.127333	1324.251953	605.243958
13275.136543	3909.127333	1323.156250	668.059387
13275.136543	3909.127333	1322.061523	540.921692
13275.136543	3909.127333	1320.965820	418.673279
13275.136543	3909.127333	1319.870117	359.323578
13275.136543	3909.127333	1318.774414	407.943604
13275.136543	3909.127333	1317.678711	315.817230
13275.136543	3909.127333	1316.582031	379.551880
13275.136543	3909.127333	1315.485352	421.693939
13275.136543	3909.127333	1314.388672	496.042847
13275.136543	3909.127333	1313.291016	534.417236
13275.136543	3909.127333	1312.194336	526.418274
13275.136543	3909.127333	1311.096680	532.391479
13275.136543	3909.127333	1309.999023	576.545105
13275.136543	3909.127333	1308.901367	526.801575
13275.136543	3909.127333	1307.802734	503.039246
13275.136543	3909.127333	1306.705078	560.754517
13275.136543	3909.127333	1305.606445	578.691650
13275.136543	3909.127333	1304.506836	687.898438
13275.136543	3909.127333	1303.408203	535.813232
13275.136543	3909.127333	1302.308594	690.863342
13275.136543	3909.127333	1301.208984	548.642212
13275.136543	3909.127333	1300.109375	583.152527
13275.136543	3909.127333	1299.009766	732.707458
13275.136543	3909.127333	1297.909180	758.542236
13275.136543	3909.127333	1296.808594	926.260864
13275.136543	3909.127333	1295.708008	737.084839
13275.136543	3909.127333	1294.607422	637.178833
13275.136543	3909.127333	1293.506836	680.147095
13275.136543	3909.127333	1292.405273	563.638062
13275.136543	3909.127333	1291.303711	546.209717
13275.136543	3909.127333	1290.202148	425.696808
13275.136543	3909.127333	1289.099609	460.042786
13275.136543	3909.127333	1287.998047	376.632324
13275.136543	3909.127333	1286.895508	250.853683
13275.136543	3909.127333	1285.792969	258.669067
13275.136543	3909.127333	1284.689453	227.824799
13275.136543	3909.127333	1283.586914	133.452377
13275.136543	3909.127333	1282.483398	141.290924
13275.136543	3909.127333	1281.379883	94.089622
13275.136543	3909.127333	1280.276367	-38.108829
13275.136543	3909.127333	1279.171875	72.925446
13275.136543	3909.127333	1278.067383	66.033386
13275.136543	3909.127333	1276.962891	53.927624
13275.136543	3909.127333	1275.858398	24.138178
13275.136543	3909.127333	1274.753906	-15.657457
13275.136543	3909.127333	1273.648438	30.155457
13275.136543	3909.127333	1272.542969	120.049614
13275.136543	3909.127333	1271.437500	189.526733
13275.136543	3909.127333	1270.331055	205.963333
13275.136543	3909.127333	1269.225586	348.780518
13275.136543	3909.127333	1268.119141	245.442505
13275.136543	3909.127333	1267.012695	-48.951126
13275.136543	3909.127333	1265.906250	118.868965
13275.136543	3909.127333	1264.798828	99.893608
13275.136543	3909.127333	1263.691406	226.073959
13275.136543	3909.127333	1262.583984	-9.850919
13275.136543	3909.127333	1261.476563	69.016235
13275.136543	3909.127333	1260.368164	-4.504597
13275.136543	3909.127333	1259.260742	-139.206253
13275.136543	3909.127333	1258.152344	-75.700546
13275.136543	3909.127333	1257.043945	-10.258976
13275.136543	3909.127333	1255.934570	-76.719749
13275.136543	3909.127333	1254.825195	-46.708851
13275.136543	3909.127333	1253.716797	-68.461609
13275.136543	3909.127333	1252.606445	-16.293125
13275.136543	3909.127333	1251.497070	-46.563389
13275.136543	3909.127333	1250.387695	-23.841053
13275.136543	3909.127333	1249.277344	-224.291473
13275.136543	3909.127333	1248.166992	-27.088432
13275.136543	3909.127333	1247.055664	17.105650
13275.136543	3909.127333	1245.945313	-143.048767
13275.136543	3909.127333	1244.833984	-47.014118
13275.136543	3909.127333	1243.722656	-177.902603
13275.136543	3909.127333	1242.611328	-53.625435
13275.136543	3909.127333	1241.499023	-174.576523
13275.136543	3909.127333	1240.387695	-88.457542
13275.136543	3909.127333	1239.275391	-56.628502
13275.136543	3909.127333	1238.162109	-56.944981
13275.136543	3909.127333	1237.049805	12.764513
13275.136543	3909.127333	1235.936523	79.200432
13275.136543	3909.127333	1234.823242	18.807417
13275.136543	3909.127333	1233.709961	111.915504
13275.136543	3909.127333	1232.596680	183.239532
13275.136543	3909.127333	1231.482422	87.686264
13275.136543	3909.127333	1230.369141	205.986069
13275.136543	3909.127333	1229.253906	170.430496
13275.136543	3909.127333	1228.139648	143.176270
13275.136543	3909.127333	1227.025391	41.946545
13275.136543	3909.127333	1225.910156	90.330643
13275.136543	3909.127333	1224.794922	254.484390
13275.136543	3909.127333	1223.679688	67.223267
13275.136543	3909.127333	1222.563477	148.157028
13275.136543	3909.127333	1221.447266	58.851742
13275.136543	3909.127333	1220.331055	79.335831
13275.136543	3909.127333	1219.214844	127.896461
13275.136543	3909.127333	1218.098633	-102.534615
13275.136543	3909.127333	1216.981445	41.886597
13275.136543	3909.127333	1215.864258	107.950996
13275.136543	3909.127333	1214.747070	148.595230
13275.136543	3909.127333	1213.629883	170.311600
13275.136543	3909.127333	1212.511719	42.076832
13275.136543	3909.127333	1211.393555	-55.283829
13275.136543	3909.127333	1210.275391	113.319611
13275.136543	3909.127333	1209.157227	131.467392
13275.136543	3909.127333	1208.038086	39.447639
13275.136543	3909.127333	1206.918945	60.595547
13275.136543	3909.127333	1205.799805	152.319504
13275.136543	3909.127333	1204.680664	117.954689
13275.136543	3909.127333	1203.560547	7.497085
13275.136543	3909.127333	1202.441406	178.015839
13275.136543	3909.127333	1201.321289	-13.197491
13275.136543	3909.127333	1200.200195	111.408005
13275.136543	3909.127333	1199.080078	4.294318
13275.136543	3909.127333	1197.958984	90.850449
13275.136543	3909.127333	1196.837891	-107.645561
13275.136543	3909.127333	1195.716797	63.260654
13275.136543	3909.127333	1194.594727	56.428112
13275.136543	3909.127333	1193.473633	90.228485
13275.136543	3909.127333	1192.351563	-91.944756
13275.136543	3909.127333	1191.229492	-84.906067
13275.136543	3909.127333	1190.106445	-36.683311
13275.136543	3909.127333	1188.984375	-135.312592
13275.136543	3909.127333	1187.861328	-116.223053
13275.136543	3909.127333	1186.738281	-49.805092
13275.136543	3909.127333	1185.614258	77.687675
13275.136543	3909.127333	1184.491211	-105.773567
13275.136543	3909.127333	1183.367188	66.582840
13275.136543	3909.127333	1182.243164	-64.978966
13275.136543	3909.127333	1181.119141	-106.177322
13275.136543	3909.127333	1179.994141	60.187057
13275.136543	3909.127333	1178.869141	29.096283
13275.136543	3909.127333	1177.744141	4.957035
13275.136543	3909.127333	1176.619141	0.093978
13275.136543	3909.127333	1175.493164	-54.500805
13275.136543	3909.127333	1174.368164	116.252342
13275.136543	3909.127333	1173.242188	-56.743965
13275.136543	3909.127333	1172.115234	-15.943508
13275.136543	3909.127333	1170.989258	53.977879
13275.136543	3909.127333	1169.862305	-110.889999
13275.136543	3909.127333	1168.735352	-65.761711
13275.136543	3909.127333	1167.608398	66.385727
13275.136543	3909.127333	1166.481445	-55.767460
13275.136543	3909.127333	1165.353516	-130.356567
13275.136543	3909.127333	1164.225586	52.986130
13275.136543	3909.127333	1163.097656	-95.842308
13275.136543	3909.127333	1161.968750	-54.910938
13275.136543	3909.127333	1160.840820	-74.630753
13275.136543	3909.127333	1159.711914	-120.960777
13275.136543	3909.127333	1158.583008	100.623322
13275.136543	3909.127333	1157.453125	-40.123497
13275.136543	3909.127333	1156.324219	5.269165
13275.136543	3909.127333	1155.194336	-170.788055
13275.136543	3909.127333	1154.064453	-128.906281
13275.136543	3909.127333	1152.933594	-71.224304
13275.136543	3909.127333	1151.803711	-39.075882
13275.136543	3909.127333	1150.672852	-24.034241
13275.136543	3909.127333	1149.541992	-49.797119
13275.136543	3909.127333	1148.411133	-196.209518
13275.136543	3909.127333	1147.279297	-113.416374
13275.136543	3909.127333	1146.147461	-150.176727
13275.136543	3909.127333	1145.015625	-177.497635
13275.136543	3909.127333	1143.883789	-198.175262
13275.136543	3909.127333	1142.750977	-119.897720
13275.136543	3909.127333	1141.619141	-390.798279
13275.136543	3909.127333	1140.486328	-155.014725
13275.136543	3909.127333	1139.352539	-182.091400
13275.136543	3909.127333	1138.219727	-125.217796
13275.136543	3909.127333	1137.085938	-197.825012
13275.136543	3909.127333	1135.952148	60.200626
13275.136543	3909.127333	1134.818359	-44.039448
13275.136543	3909.127333	1133.683594	-81.499435
13275.136543	3909.127333	1132.549805	-13.316369
13275.136543	3909.127333	1131.415039	88.979393
13275.136543	3909.127333	1130.279297	55.235195
13275.136543	3909.127333	1129.144531	164.467743
13275.136543	3909.127333	1128.008789	301.405121
13275.136543	3909.127333	1126.873047	181.028809
13275.136543	3909.127333	1125.737305	163.215683
13275.136543	3909.127333	1124.601563	141.786972
13275.136543	3909.127333	1123.464844	163.540878
13275.136543	3909.127333	1122.328125	71.146736
13275.136543	3909.127333	1121.191406	-36.573246
13275.136543	3909.127333	1120.054688	53.020554
13275.136543	3909.127333	1118.916992	107.344284
13275.136543	3909.127333	1117.779297	61.096851
13275.136543	3909.127333	1116.641602	-78.252014
13275.136543	3909.127333	1115.503906	70.182457
13275.136543	3909.127333	1114.365234	-96.297104
13275.136543	3909.127333	1113.226563	20.265354
13275.136543	3909.127333	1112.087891	-85.941650
13275.136543	3909.127333	1110.949219	-4.486440
13275.136543	3909.127333	1109.809570	-116.388885
13275.136543	3909.127333	1108.669922	-153.025635
13275.136543	3909.127333	1107.530273	127.869019
13275.136543	3909.127333	1106.390625	250.757050
13275.136543	3909.127333	1105.250000	47.064640
13275.136543	3909.127333	1104.109375	239.421326
13275.136543	3909.127333	1102.968750	75.330116
13275.136543	3909.127333	1101.828125	148.867310
13275.136543	3909.127333	1100.686523	-91.972794
13275.136543	3909.127333	1099.544922	302.622253
13275.136543	3909.127333	1098.403320	214.770721
13275.136543	3909.127333	1097.261719	179.022598
13275.136543	3909.127333	1096.120117	226.730545
13275.136543	3909.127333	1094.977539	196.125885
13275.136543	3909.127333	1093.834961	227.880798
13275.136543	3909.127333	1092.691406	200.881775
13275.136543	3909.127333	1091.548828	63.661011
13275.136543	3909.127333	1090.405273	110.044937
13275.136543	3909.127333	1089.261719	191.680649
13275.136543	3909.127333	1088.118164	6.537107
13275.136543	3909.127333	1086.973633	163.194824
13275.136543	3909.127333	1085.829102	135.652664
13275.136543	3909.127333	1084.684570	116.924553
13275.136543	3909.127333	1083.540039	2.049770
13275.136543	3909.127333	1082.395508	-31.023207
13275.136543	3909.127333	1081.250000	226.494827
13275.136543	3909.127333	1080.104492	30.814075
13275.136543	3909.127333	1078.958984	5.644737
13275.136543	3909.127333	1077.812500	107.035622
13275.136543	3909.127333	1076.666016	283.512543
13275.136543	3909.127333	1075.519531	142.484985
13275.136543	3909.127333	1074.373047	133.709076
13275.136543	3909.127333	1073.226563	107.921432
13275.136543	3909.127333	1072.079102	156.592453
13275.136543	3909.127333	1070.931641	139.213150
13275.136543	3909.127333	1069.784180	169.722321
13275.136543	3909.127333	1068.635742	125.972984
13275.136543	3909.127333	1067.487305	96.350914
13275.136543	3909.127333	1066.338867	29.154284
13275.136543	3909.127333	1065.190430	137.581665
13275.136543	3909.127333	1064.041992	185.940033
13275.136543	3909.127333	1062.892578	211.895630
13275.136543	3909.127333	1061.743164	103.168526
13275.136543	3909.127333	1060.593750	162.515915
13275.136543	3909.127333	1059.443359	213.824570
13275.136543	3909.127333	1058.292969	63.487625
13275.136543	3909.127333	1057.142578	0.601137
13275.136543	3909.127333	1055.992188	183.822708
13275.136543	3909.127333	1054.841797	255.148834
13275.136543	3909.127333	1053.690430	123.987465
13275.136543	3909.127333	1052.539063	233.372696
13275.136543	3909.127333	1051.387695	137.325424
13275.136543	3909.127333	1050.235352	221.425339
13275.136543	3909.127333	1049.083984	209.263214
13275.136543	3909.127333	1047.931641	184.877884
13275.136543	3909.127333	1046.778320	287.943420
13275.136543	3909.127333	1045.625977	162.513794
13275.136543	3909.127333	1044.472656	231.941025
13275.136543	3909.127333	1043.319336	258.455963
13275.136543	3909.127333	1042.166016	117.288498
13275.136543	3909.127333	1041.012695	204.325806
13275.136543	3909.127333	1039.858398	74.837547
13275.136543	3909.127333	1038.704102	136.066513
13275.136543	3909.127333	1037.549805	204.113739
13275.136543	3909.127333	1036.394531	147.306351
13275.136543	3909.127333	1035.239258	68.273071
13275.136543	3909.127333	1034.083984	296.714539
13275.136543	3909.127333	1032.928711	100.465187
13275.136543	3909.127333	1031.773438	96.552811
13275.136543	3909.127333	1030.617188	130.044525
13275.136543	3909.127333	1029.460938	297.153290
13275.136543	3909.127333	1028.304688	225.326874
13275.136543	3909.127333	1027.147461	-72.736916
13275.136543	3909.127333	1025.991211	-39.648239
13275.136543	3909.127333	1024.833984	-161.360565
13275.136543	3909.127333	1023.675781	-122.664597
13275.136543	3909.127333	1022.518555	239.381577
13275.136543	3909.127333	1021.360352	-34.063511
13275.136543	3909.127333	1020.202148	-93.885086
13275.136543	3909.127333	1019.043945	-56.627609
13275.136543	3909.127333	1017.884766	-125.837753
13275.136543	3909.127333	1016.726563	-77.084854
13275.136543	3909.127333	1015.567383	-67.145409
13275.136543	3909.127333	1014.407227	-70.525917
13275.136543	3909.127333	1013.248047	58.797344
13275.136543	3909.127333	1012.087891	1.145260
13275.136543	3909.127333	1010.927734	183.347824
13275.136543	3909.127333	1009.767578	86.161377
13275.136543	3909.127333	1008.606445	97.054504
13275.136543	3909.127333	1007.446289	31.382429
13275.136543	3909.127333	1006.285156	216.053482
13275.136543	3909.127333	1005.123047	261.794586
13275.136543	3909.127333	1003.961914	63.998314
13275.136543	3909.127333	1002.799805	91.684090
13275.136543	3909.127333	1001.637695	105.684212
13275.136543	3909.127333	1000.475586	117.402473
13275.136543	3909.127333	999.312500	37.522938
13275.136543	3909.127333	998.149414	95.392677
13275.136543	3909.127333	996.986328	-73.917519
13275.136543	3909.127333	995.823242	-85.432564
13275.136543	3909.127333	994.659180	-16.721497
13275.136543	3909.127333	993.496094	-53.561871
13275.136543	3909.127333	992.332031	-88.144997
13275.136543	3909.127333	991.166992	10.168145
13275.136543	3909.127333	990.002930	-131.064804
13275.136543	3909.127333	988.837891	-89.243408
13275.136543	3909.127333	987.672852	-176.456757
13275.136543	3909.127333	986.506836	87.302002
13275.136543	3909.127333	985.341797	-87.916023
13275.136543	3909.127333	984.175781	84.886757
13275.136543	3909.127333	983.009766	40.641899
13275.136543	3909.127333	981.843750	85.720947
13275.136543	3909.127333	980.676758	247.195023
13275.136543	3909.127333	979.509766	137.845398
13275.136543	3909.127333	978.342773	30.777985
13275.136543	3909.127333	977.175781	-43.422798
13275.136543	3909.127333	976.007813	284.955627
13275.136543	3909.127333	974.839844	182.138031
13275.136543	3909.127333	973.671875	159.947098
13275.136543	3909.127333	972.503906	386.735779
13275.136543	3909.127333	971.334961	317.004639
13275.136543	3909.127333	970.166016	300.660156
13275.136543	3909.127333	968.997070	366.225250
13275.136543	3909.127333	967.828125	187.407303
13275.136543	3909.127333	966.658203	312.799530
13275.136543	3909.127333	965.488281	152.520462
13275.136543	3909.127333	964.318359	119.923027
13275.136543	3909.127333	963.148438	34.508606
13275.136543	3909.127333	961.977539	39.603626
13275.136543	3909.127333	960.806641	252.414627
13275.136543	3909.127333	959.635742	12.049415
13275.136543	3909.127333	958.463867	15.500332
13275.136543	3909.127333	957.292969	85.726196
13275.136543	3909.127333	956.121094	-52.122704
13275.136543	3909.127333	954.948242	177.822067
13275.136543	3909.127333	953.776367	149.247040
13275.136543	3909.127333	952.603516	106.263245
13275.136543	3909.127333	951.430664	109.578384
13275.136543	3909.127333	950.257813	26.526791
13275.136543	3909.127333	949.084961	202.711365
13275.136543	3909.127333	947.911133	-12.876838
13275.136543	3909.127333	946.737305	232.995392
13275.136543	3909.127333	945.563477	101.754143
13275.136543	3909.127333	944.388672	-72.034378
13275.136543	3909.127333	943.213867	6.002702
13275.136543	3909.127333	942.039063	-4.924328
13275.136543	3909.127333	940.864258	-79.461647
13275.136543	3909.127333	939.688477	325.334747
13275.136543	3909.127333	938.513672	35.335552
13275.136543	3909.127333	937.337891	169.647171
13275.136543	3909.127333	936.161133	68.012993
13275.136543	3909.127333	934.985352	129.787247
13275.136543	3909.127333	933.808594	139.284164
13275.136543	3909.127333	932.631836	280.285034
13275.136543	3909.127333	931.454102	310.163330
13275.136543	3909.127333	930.277344	228.646469
13275.136543	3909.127333	929.099609	303.862000
13275.136543	3909.127333	927.921875	358.463287
13275.136543	3909.127333	926.743164	317.866699
13275.136543	3909.127333	925.565430	370.160156
13275.136543	3909.127333	924.386719	324.965118
13275.136543	3909.127333	923.208008	198.171387
13275.136543	3909.127333	922.028320	141.643417
13275.136543	3909.127333	920.849609	302.592346
13275.136543	3909.127333	919.669922	304.911896
13275.136543	3909.127333	919.474609	235.067963
13275.136543	3909.127333	918.309570	167.133209
13275.136543	3909.127333	917.143555	275.808289
13275.136543	3909.127333	915.977539	225.955734
13275.136543	3909.127333	914.810547	99.152718
13275.136543	3909.127333	913.644531	105.879135
13275.136543	3909.127333	912.477539	194.025497
13275.136543	3909.127333	911.310547	264.016876
13275.136543	3909.127333	910.143555	-9.774536
13275.136543	3909.127333	908.975586	-3.119308
13275.136543	3909.127333	907.807617	-10.053272
13275.136543	3909.127333	906.639648	89.213730
13275.136543	3909.127333	905.471680	-12.682449
13275.136543	3909.127333	904.303711	165.567871
13275.136543	3909.127333	903.134766	27.516224
13275.136543	3909.127333	901.965820	-180.504974
13275.136543	3909.127333	900.796875	47.274849
13275.136543	3909.127333	899.626953	141.763626
13275.136543	3909.127333	898.457031	-16.568535
13275.136543	3909.127333	897.287109	-150.039902
13275.136543	3909.127333	896.117188	-96.240280
13275.136543	3909.127333	894.947266	106.371407
13275.136543	3909.127333	893.776367	144.269333
13275.136543	3909.127333	892.605469	33.332897
13275.136543	3909.127333	891.434570	26.105076
13275.136543	3909.127333	890.262695	129.285568
13275.136543	3909.127333	889.091797	214.374451
13275.136543	3909.127333	887.919922	202.544479
13275.136543	3909.127333	886.748047	96.105766
13275.136543	3909.127333	885.575195	79.758873
13275.136543	3909.127333	884.403320	13.866282
13275.136543	3909.127333	883.230469	-36.263649
13275.136543	3909.127333	882.057617	-113.398918
13275.136543	3909.127333	880.883789	74.962715
13275.136543	3909.127333	879.710938	-119.179443
13275.136543	3909.127333	878.537109	37.577522
13275.136543	3909.127333	877.362305	-212.732330
13275.136543	3909.127333	876.188477	-26.842009
13275.136543	3909.127333	875.013672	15.106332
13275.136543	3909.127333	873.839844	-102.533348
13275.136543	3909.127333	872.664063	-31.425566
13275.136543	3909.127333	871.489258	-160.282928
13275.136543	3909.127333	870.313477	-199.279007
13275.136543	3909.127333	869.138672	138.925613
13275.136543	3909.127333	867.962891	158.203186
13275.136543	3909.127333	866.786133	-85.140816
13275.136543	3909.127333	865.610352	-43.432869
13275.136543	3909.127333	864.433594	-4.007915
13275.136543	3909.127333	863.256836	-101.446251
13275.136543	3909.127333	862.079102	-221.291962
13275.136543	3909.127333	860.902344	-175.200500
13275.136543	3909.127333	859.724609	-86.560699
13275.136543	3909.127333	858.546875	-105.557304
13275.136543	3909.127333	857.368164	-131.292114
13275.136543	3909.127333	856.190430	-105.516167
13275.136543	3909.127333	855.011719	-294.793274
13275.136543	3909.127333	853.833008	-38.394051
13275.136543	3909.127333	852.654297	-113.476913
13275.136543	3909.127333	851.474609	-116.925041
13275.136543	3909.127333	850.294922	60.875751
13275.136543	3909.127333	849.115234	-72.432175
13275.136543	3909.127333	847.935547	82.862877
13275.136543	3909.127333	846.754883	164.262375
13275.136543	3909.127333	845.575195	136.032227
13275.136543	3909.127333	844.393555	49.660583
13275.136543	3909.127333	843.212891	-34.468151
13275.136543	3909.127333	842.032227	-98.477554
13275.136543	3909.127333	840.850586	2.847578
13275.136543	3909.127333	839.668945	244.832504
13275.136543	3909.127333	838.486328	-38.146523
13275.136543	3909.127333	837.304688	143.402283
13275.136543	3909.127333	836.122070	48.026585
13275.136543	3909.127333	834.939453	93.274391
13275.136543	3909.127333	833.756836	229.965729
13275.136543	3909.127333	832.573242	168.007950
13275.136543	3909.127333	831.389648	61.434486
13275.136543	3909.127333	830.206055	59.689350
13275.136543	3909.127333	829.022461	113.655060
13275.136543	3909.127333	827.838867	-17.456789
13275.136543	3909.127333	826.654297	252.629196
13275.136543	3909.127333	825.469727	-79.066177
13275.136543	3909.127333	824.284180	-45.292973
13275.136543	3909.127333	823.099609	-60.569649
13275.136543	3909.127333	821.914063	-71.418503
13275.136543	3909.127333	820.728516	-39.993446
13275.136543	3909.127333	819.542969	-213.407120
13275.136543	3909.127333	818.356445	-28.471283
13275.136543	3909.127333	817.169922	-12.752851
13275.136543	3909.127333	815.983398	7.372819
13275.136543	3909.127333	814.796875	-3.682517
13275.136543	3909.127333	813.609375	7.467514
13275.136543	3909.127333	812.422852	45.256092
13275.136543	3909.127333	811.235352	22.977772
13275.136543	3909.127333	810.046875	100.675064
13275.136543	3909.127333	808.859375	62.767651
13275.136543	3909.127333	807.670898	-8.484292
13275.136543	3909.127333	806.482422	-53.092773
13275.136543	3909.127333	805.293945	-6.682197
13275.136543	3909.127333	804.104492	68.531006
13275.136543	3909.127333	802.915039	-16.135015
13275.136543	3909.127333	801.725586	-131.874008
13275.136543	3909.127333	800.536133	-41.270348
13275.136543	3909.127333	799.345703	91.399841
13275.136543	3909.127333	798.155273	-106.466087
13275.136543	3909.127333	796.964844	72.642220
13275.136543	3909.127333	795.774414	10.003670
13275.136543	3909.127333	794.583008	-112.493950
13275.136543	3909.127333	793.392578	-130.835449
13275.136543	3909.127333	792.200195	34.666676
13275.136543	3909.127333	791.008789	71.588783
13275.136543	3909.127333	789.816406	-33.277706
13275.136543	3909.127333	788.625000	12.411785
13275.136543	3909.127333	787.432617	35.899704
13275.136543	3909.127333	786.239258	34.987301
13275.136543	3909.127333	785.046875	29.606285
13275.136543	3909.127333	783.853516	192.307480
13275.136543	3909.127333	782.660156	-63.127529
13275.136543	3909.127333	781.465820	196.729660
13275.136543	3909.127333	780.272461	-47.641083
13275.136543	3909.127333	779.078125	28.547087
13275.136543	3909.127333	777.883789	-30.149677
13275.136543	3909.127333	776.688477	-7.122453
13275.136543	3909.127333	775.494141	37.937050
13275.136543	3909.127333	774.298828	186.729446
13275.136543	3909.127333	773.103516	-46.590317
13275.136543	3909.127333	771.907227	-98.839256
13275.136543	3909.127333	770.711914	-84.900169
13275.136543	3909.127333	769.515625	-97.500473
13275.136543	3909.127333	768.318359	-24.104555
13275.136543	3909.127333	767.122070	-125.048065
13275.136543	3909.127333	765.924805	113.618073
13275.136543	3909.127333	764.727539	-51.360073
13275.136543	3909.127333	763.530273	114.339394
13275.136543	3909.127333	762.333008	-17.618845
13275.136543	3909.127333	761.134766	70.772049
13275.136543	3909.127333	759.936523	-78.856895
13275.136543	3909.127333	758.738281	-102.931831
13275.136543	3909.127333	757.540039	141.608429
13275.136543	3909.127333	756.340820	112.981499
13275.136543	3909.127333	755.141602	-16.945084
13275.136543	3909.127333	753.942383	106.212143
13275.136543	3909.127333	752.742188	152.248795
13275.136543	3909.127333	751.541992	77.218109
13275.136543	3909.127333	750.341797	46.148079
13275.136543	3909.127333	749.141602	-6.955754
13275.136543	3909.127333	747.941406	30.040091
13275.136543	3909.127333	746.740234	124.107796
13275.136543	3909.127333	745.539063	171.929749
13275.136543	3909.127333	744.337891	-98.906448
13275.136543	3909.127333	743.135742	-202.747101
13275.136543	3909.127333	741.933594	-117.734840
13275.136543	3909.127333	740.731445	230.666168
13275.136543	3909.127333	739.529297	19.072863
13275.136543	3909.127333	738.326172	-34.470600
13275.136543	3909.127333	737.124023	293.763031
13275.136543	3909.127333	735.919922	218.119537
13275.136543	3909.127333	734.716797	-43.992455
13275.136543	3909.127333	733.513672	213.674316
13275.136543	3909.127333	732.309570	140.100342
13275.136543	3909.127333	731.105469	-122.020592
13275.136543	3909.127333	729.900391	113.390541
13275.136543	3909.127333	728.696289	33.121315
13275.136543	3909.127333	727.491211	-40.609489
13275.136543	3909.127333	726.286133	-22.383242
13275.136543	3909.127333	725.080078	-26.130836
13275.136543	3909.127333	723.874023	-56.211849
13275.136543	3909.127333	722.668945	-51.319630
13275.136543	3909.127333	721.461914	51.975864
13275.136543	3909.127333	720.255859	30.455252
13275.136543	3909.127333	719.048828	100.748802
13275.136543	3909.127333	717.841797	-19.322092
13275.136543	3909.127333	716.634766	-3.841520
13275.136543	3909.127333	715.427734	79.334961
13275.136543	3909.127333	714.219727	15.971406
13275.136543	3909.127333	713.011719	-21.210159
13275.136543	3909.127333	711.803711	-121.798660
13275.136543	3909.127333	710.594727	-169.992065
13275.136543	3909.127333	709.385742	59.111504
13275.136543	3909.127333	708.176758	-91.849281
13275.136543	3909.127333	706.967773	19.133373
13275.136543	3909.127333	705.758789	-164.624115
13275.136543	3909.127333	704.548828	31.288462
13275.136543	3909.127333	703.338867	-4.188578
13275.136543	3909.127333	702.127930	23.529711
13275.136543	3909.127333	700.917969	72.980545
13275.136543	3909.127333	699.707031	28.594494
13275.136543	3909.127333	698.496094	80.066032
13275.136543	3909.127333	697.285156	-21.095959
13275.136543	3909.127333	696.073242	-76.531326
13275.136543	3909.127333	694.861328	159.883286
13275.136543	3909.127333	693.649414	17.187105
13275.136543	3909.127333	692.436523	142.299713
13275.136543	3909.127333	691.224609	-20.056156
13275.136543	3909.127333	690.011719	13.467322
13275.136543	3909.127333	688.798828	62.144241
13275.136543	3909.127333	687.584961	-17.627419
13275.136543	3909.127333	686.372070	30.904816
13275.136543	3909.127333	685.158203	-59.830509
13275.136543	3909.127333	683.943359	236.407928
13275.136543	3909.127333	682.729492	271.614136
13275.136543	3909.127333	681.514648	98.103157
13275.136543	3909.127333	680.299805	-10.214746
13275.136543	3909.127333	679.084961	133.441025
13275.136543	3909.127333	677.869141	109.732826
13275.136543	3909.127333	676.653320	246.657074
13275.136543	3909.127333	675.437500	33.932892
13275.136543	3909.127333	674.221680	62.164154
13275.136543	3909.127333	673.004883	-113.671471
13275.136543	3909.127333	671.789063	22.934732
13275.136543	3909.127333	670.571289	76.984192
13275.136543	3909.127333	669.354492	61.555443
13275.136543	3909.127333	668.136719	56.908916
13275.136543	3909.127333	666.919922	115.074265
13275.136543	3909.127333	665.701172	19.264355
13275.136543	3909.127333	664.483398	172.631577
13275.136543	3909.127333	663.264648	113.560097
13275.136543	3909.127333	662.045898	136.761932
13275.136543	3909.127333	660.827148	224.860687
13275.136543	3909.127333	659.608398	202.447769
13275.136543	3909.127333	658.388672	192.968262
13275.136543	3909.127333	657.168945	174.780930
13275.136543	3909.127333	655.949219	314.492828
13275.136543	3909.127333	654.728516	306.986511
13275.136543	3909.127333	653.507813	383.776184
13275.136543	3909.127333	652.287109	332.903503
13275.136543	3909.127333	651.066406	128.507889
13275.136543	3909.127333	649.844727	157.570374
13275.136543	3909.127333	648.623047	43.947197
13275.136543	3909.127333	647.401367	16.739710
13275.136543	3909.127333	646.179688	211.974060
13275.136543	3909.127333	644.957031	87.455467
13275.136543	3909.127333	643.734375	-41.376617
13275.136543	3909.127333	642.511719	62.929810
13275.136543	3909.127333	641.289063	74.343346
13275.136543	3909.127333	640.065430	245.371292
13275.136543	3909.127333	638.841797	161.721878
13275.136543	3909.127333	637.618164	131.984863
13275.136543	3909.127333	636.393555	238.059082
13275.136543	3909.127333	635.168945	277.213501
13275.136543	3909.127333	633.944336	94.297638
13275.136543	3909.127333	632.719727	-32.552750
13275.136543	3909.127333	631.494141	221.955673
13275.136543	3909.127333	630.269531	-23.422001
13275.136543	3909.127333	629.042969	155.516464
13275.136543	3909.127333	627.817383	142.716385
13275.136543	3909.127333	626.590820	168.626648
13275.136543	3909.127333	625.365234	15.861067
13275.136543	3909.127333	624.137695	209.551300
13275.136543	3909.127333	622.911133	76.129364
13275.136543	3909.127333	621.683594	114.795013
13275.136543	3909.127333	620.456055	131.909500
13275.136543	3909.127333	619.228516	-74.610001
13275.136543	3909.127333	618.000977	-89.764320
13275.136543	3909.127333	616.772461	73.424385
13275.136543	3909.127333	615.543945	64.630013
13275.136543	3909.127333	614.314453	122.398743
13275.136543	3909.127333	613.085938	188.716995
13275.136543	3909.127333	611.856445	-37.046692
13275.136543	3909.127333	610.626953	42.105919
13275.136543	3909.127333	609.397461	-228.646179
13275.136543	3909.127333	608.166992	-40.093712
13275.136543	3909.127333	606.936523	-31.854559
13275.136543	3909.127333	605.706055	-57.953789
13275.136543	3909.127333	604.474609	27.448738
13275.136543	3909.127333	603.244141	20.614172
13275.136543	3909.127333	602.012695	157.382645
13275.136543	3909.127333	600.780273	193.347260
13275.136543	3909.127333	599.548828	160.728256
13275.136543	3909.127333	598.316406	170.951660
13275.136543	3909.127333	597.083984	-50.146088
13275.136543	3909.127333	595.851563	-46.319489
13275.136543	3909.127333	594.618164	-29.660940
13275.136543	3909.127333	593.384766	81.164040
13275.136543	3909.127333	592.151367	127.742798
13275.136543	3909.127333	590.917969	120.814087
13275.136543	3909.127333	589.683594	96.769905
13275.136543	3909.127333	588.449219	-34.189011
13275.136543	3909.127333	587.214844	-115.912781
13275.136543	3909.127333	585.979492	-124.922417
13275.136543	3909.127333	584.745117	-101.856049
13275.136543	3909.127333	583.509766	-204.865555
13275.136543	3909.127333	582.273438	-154.015839
13275.136543	3909.127333	581.038086	-190.738998
13275.136543	3909.127333	579.801758	-103.587227
13275.136543	3909.127333	578.565430	-12.188926
13275.136543	3909.127333	577.329102	-91.571884
13275.136543	3909.127333	576.091797	-96.218895
13275.136543	3909.127333	574.854492	86.907631
13275.136543	3909.127333	573.617188	101.461540
13275.136543	3909.127333	572.378906	-26.863119
13275.136543	3909.127333	571.141602	43.191719
13275.136543	3909.127333	569.903320	-48.777390
13275.136543	3909.127333	568.664063	100.148117
13275.136543	3909.127333	567.425781	35.961536
13275.136543	3909.127333	566.186523	-45.217007
13275.136543	3909.127333	564.947266	-24.094234
13275.136543	3909.127333	563.708008	5.570610
13275.136543	3909.127333	562.467773	148.087967
13275.136543	3909.127333	561.227539	73.467834
13275.136543	3909.127333	559.987305	226.622818
13275.136543	3909.127333	558.747070	73.370796
13275.136543	3909.127333	557.505859	-118.071411
13275.136543	3909.127333	556.264648	101.070663
13275.136543	3909.127333	555.023438	43.744755
13275.136543	3909.127333	553.781250	-39.027546
13275.136543	3909.127333	552.539063	167.332794
13275.136543	3909.127333	551.296875	74.039085
13275.136543	3909.127333	550.054688	46.692360
13275.136543	3909.127333	548.811523	6.659047
13275.136543	3909.127333	547.569336	-5.693808
13275.136543	3909.127333	546.325195	62.677670
13275.136543	3909.127333	545.082031	-28.117292
13275.136543	3909.127333	543.837891	343.814056
13275.136543	3909.127333	542.593750	172.479019
13275.136543	3909.127333	541.349609	266.437469
13275.136543	3909.127333	540.105469	220.440643
13275.136543	3909.127333	538.860352	526.501709
13275.136543	3909.127333	537.615234	489.067169
13275.136543	3909.127333	536.369141	477.140411
13275.136543	3909.127333	535.124023	134.724030
13275.136543	3909.127333	533.877930	296.732910
13275.136543	3909.127333	532.631836	414.258728
13275.136543	3909.127333	531.384766	154.856735
13275.136543	3909.127333	530.138672	166.641327
13275.136543	3909.127333	528.891602	131.919281
13275.136543	3909.127333	527.643555	122.674210
13275.136543	3909.127333	526.396484	312.398895
13275.136543	3909.127333	525.148438	146.728516
13275.136543	3909.127333	523.900391	89.065613
13275.136543	3909.127333	522.652344	73.791901
13275.136543	3909.127333	521.403320	113.561531
13275.136543	3909.127333	520.154297	-155.188110
13275.136543	3909.127333	518.905273	-189.188736
13275.136543	3909.127333	517.656250	-176.617386
13275.136543	3909.127333	516.406250	-301.270020
13275.136543	3909.127333	515.156250	108.484657
13275.136543	3909.127333	513.906250	57.882511
13275.136543	3909.127333	512.655273	-150.933868
13275.136543	3909.127333	511.404297	3.407651
13275.136543	3909.127333	510.153320	22.730700
13275.136543	3909.127333	508.902344	-295.388245
13275.136543	3909.127333	507.650391	-164.069214
13275.136543	3909.127333	506.398438	-30.614429
13275.136543	3909.127333	505.146484	-162.755173
13275.136543	3909.127333	503.893555	8.743967
13275.136543	3909.127333	502.641602	-83.143265
13275.136543	3909.127333	501.388672	-214.939331
13275.136543	3909.127333	500.134766	9.366582
13275.136543	3909.127333	498.881836	-40.096142
13275.136543	3909.127333	497.627930	38.971516
13275.136543	3909.127333	496.374023	-191.338211
13275.136543	3909.127333	495.119141	-99.481316
13275.136543	3909.127333	493.865234	-112.780441
13275.136543	3909.127333	492.610352	-43.953926
13275.136543	3909.127333	491.355469	-6.622999
13275.136543	3909.127333	490.099609	106.466225
13275.136543	3909.127333	488.843750	-11.658370
13275.136543	3909.127333	487.587891	97.340179
13275.136543	3909.127333	486.332031	210.572205
13275.136543	3909.127333	485.075195	-71.134300
13275.136543	3909.127333	483.818359	-20.775534
13275.136543	3909.127333	482.561523	-66.963135
13275.136543	3909.127333	481.304688	2.416739
13275.136543	3909.127333	480.046875	155.799347
13275.136543	3909.127333	478.789063	6.986655
13275.136543	3909.127333	477.531250	-206.735916
13275.136543	3909.127333	476.272461	104.125313
13275.136543	3909.127333	475.013672	-31.797110
13275.136543	3909.127333	473.754883	92.405884
13275.136543	3909.127333	472.496094	101.317093
13275.136543	3909.127333	471.236328	72.555908
13275.136543	3909.127333	469.976563	-71.385460
13275.136543	3909.127333	468.716797	99.037323
13275.136543	3909.127333	467.456055	204.505890
13275.136543	3909.127333	466.196289	96.384216
13275.136543	3909.127333	464.935547	323.332947
13275.136543	3909.127333	463.673828	-2.374505
13275.136543	3909.127333	462.413086	-57.936352
13275.136543	3909.127333	461.151367	-121.810303
13275.136543	3909.127333	459.889648	119.783478
13275.136543	3909.127333	458.626953	60.143059
13275.136543	3909.127333	457.364258	-97.719650
13275.136543	3909.127333	456.101563	-65.259796
13275.136543	3909.127333	454.838867	44.534134
13275.136543	3909.127333	453.575195	-12.873364
13275.136543	3909.127333	452.312500	107.330605
13275.136543	3909.127333	451.047852	112.605392
13275.136543	3909.127333	449.784180	-22.030447
13275.136543	3909.127333	448.519531	91.828346
13275.136543	3909.127333	447.254883	69.952972
13275.136543	3909.127333	445.990234	56.417194
13275.136543	3909.127333	444.725586	-55.194630
13275.136543	3909.127333	443.459961	106.473099
13275.136543	3909.127333	442.194336	130.394958
13275.136543	3909.127333	440.927734	41.671219
13275.136543	3909.127333	439.662109	13.397314
13275.136543	3909.127333	438.395508	-67.023300
13275.136543	3909.127333	437.127930	44.230686
13275.136543	3909.127333	435.861328	117.874420
13275.136543	3909.127333	434.593750	168.500900
13275.136543	3909.127333	433.326172	341.883270
13275.136543	3909.127333	432.058594	211.146805
13275.136543	3909.127333	430.790039	271.861298
13275.136543	3909.127333	429.521484	61.915596
13275.136543	3909.127333	428.252930	-39.861618
13275.136543	3909.127333	426.984375	251.420578
13275.136543	3909.127333	425.714844	215.941071
13275.136543	3909.127333	424.445313	425.682770
13275.136543	3909.127333	423.174805	373.261292
13275.136543	3909.127333	421.905273	260.437866
13275.136543	3909.127333	420.634766	334.498230
13275.136543	3909.127333	419.364258	314.866089
13275.136543	3909.127333	418.092773	305.435822
13275.136543	3909.127333	416.822266	407.944153
13275.136543	3909.127333	415.550781	292.210815
13275.136543	3909.127333	414.278320	203.285690
13275.136543	3909.127333	413.006836	309.233795
13275.136543	3909.127333	411.734375	431.483337
13275.136543	3909.127333	410.461914	211.175827
13275.136543	3909.127333	409.188477	262.354645
13275.136543	3909.127333	407.916016	323.601746
13275.136543	3909.127333	406.642578	303.678436
13275.136543	3909.127333	405.368164	283.450684
13275.136543	3909.127333	404.094727	376.873871
13275.136543	3909.127333	402.820313	436.769470
13275.136543	3909.127333	401.545898	330.600494
13275.136543	3909.127333	400.270508	381.474731
13275.136543	3909.127333	398.996094	349.144165
13275.136543	3909.127333	397.720703	376.447296
13275.136543	3909.127333	396.444336	188.111725
13275.136543	3909.127333	395.168945	295.281830
13275.136543	3909.127333	393.892578	224.070465
13275.136543	3909.127333	392.616211	365.424561
13275.136543	3909.127333	391.339844	446.281189
13275.136543	3909.127333	390.062500	437.713287
13275.136543	3909.127333	388.785156	467.898132
13275.136543	3909.127333	387.507813	311.582184
13275.136543	3909.127333	386.229492	284.909241
13275.136543	3909.127333	384.951172	278.326996
13275.136543	3909.127333	383.672852	461.116913
13275.136543	3909.127333	382.394531	89.968117
13275.136543	3909.127333	381.115234	399.422272
13275.136543	3909.127333	379.835938	303.649872
13275.136543	3909.127333	378.556641	231.998947
13275.136543	3909.127333	377.277344	283.433380
13275.136543	3909.127333	375.997070	222.756592
13275.136543	3909.127333	374.716797	29.416595
13275.136543	3909.127333	373.435547	301.208862
13275.136543	3909.127333	372.155273	85.768768
13275.136543	3909.127333	370.874023	193.058136
13275.136543	3909.127333	369.591797	245.885803
13275.136543	3909.127333	368.310547	-4.891885
13275.136543	3909.127333	367.028320	77.080093
13275.136543	3909.127333	365.746094	118.984947
13275.136543	3909.127333	364.463867	-115.854935
13275.136543	3909.127333	363.180664	27.014616
13275.136543	3909.127333	361.897461	135.905243
13275.136543	3909.127333	360.614258	38.045967
13275.136543	3909.127333	359.330078	126.265945
13275.136543	3909.127333	358.045898	192.800278
13275.136543	3909.127333	356.761719	315.735748
13275.136543	3909.127333	355.477539	297.730896
13275.136543	3909.127333	354.192383	276.471497
13275.136543	3909.127333	352.907227	264.276703
13275.136543	3909.127333	351.622070	248.785812
13275.136543	3909.127333	350.336914	-10.248314
13275.136543	3909.127333	349.050781	330.924316
13275.136543	3909.127333	347.764648	407.911285
13275.136543	3909.127333	346.477539	270.061768
13275.136543	3909.127333	345.191406	204.733795
13275.136543	3909.127333	343.904297	142.045135
13275.136543	3909.127333	342.616211	315.706573
13275.136543	3909.127333	341.329102	59.345387
13275.136543	3909.127333	340.041016	-26.349186
13275.136543	3909.127333	338.752930	224.487305
13275.136543	3909.127333	337.463867	182.614304
13275.136543	3909.127333	336.175781	112.484344
13275.136543	3909.127333	334.886719	20.133646
13275.136543	3909.127333	333.596680	-22.812346
13275.136543	3909.127333	332.307617	-57.276279
13275.136543	3909.127333	331.017578	-110.002487
13275.136543	3909.127333	329.727539	11.344186
13275.136543	3909.127333	328.436523	259.507751
13275.136543	3909.127333	327.146484	-271.514954
13275.136543	3909.127333	325.855469	-199.184784
13275.136543	3909.127333	324.563477	-233.283417
13275.136543	3909.127333	323.272461	-16.024900
13275.136543	3909.127333	321.980469	-19.737196
13275.136543	3909.127333	320.688477	-5.254899
13275.136543	3909.127333	319.395508	-240.258789
13275.136543	3909.127333	318.103516	-350.834717
13275.136543	3909.127333	316.810547	-55.510803
13275.136543	3909.127333	315.516602	-83.274254
13275.136543	3909.127333	314.223633	141.620560
13275.136543	3909.127333	312.929688	74.092056
13275.136543	3909.127333	311.635742	116.168427
13275.136543	3909.127333	310.340820	-76.990654
13275.136543	3909.127333	309.045898	14.687043
13275.136543	3909.127333	307.750977	-30.992424
13275.136543	3909.127333	306.456055	77.430466
13275.136543	3909.127333	305.160156	213.385696
13275.136543	3909.127333	303.865234	299.551239
13275.136543	3909.127333	302.568359	62.732582
13275.136543	3909.127333	301.272461	431.832825
13275.136543	3909.127333	299.975586	406.666962
13275.136543	3909.127333	298.678711	431.213318
