#X		#Y		#Wave		#Intensity
-13822.092128	17616.961333	2000.043945	-120.862144
-13822.092128	17616.961333	1999.080078	136.145020
-13822.092128	17616.961333	1998.116211	110.016434
-13822.092128	17616.961333	1997.151367	274.728973
-13822.092128	17616.961333	1996.186523	87.561714
-13822.092128	17616.961333	1995.222656	-7.868377
-13822.092128	17616.961333	1994.256836	15.637806
-13822.092128	17616.961333	1993.291992	-59.908817
-13822.092128	17616.961333	1992.327148	154.259644
-13822.092128	17616.961333	1991.361328	239.640625
-13822.092128	17616.961333	1990.395508	-14.067909
-13822.092128	17616.961333	1989.429688	86.179504
-13822.092128	17616.961333	1988.463867	-63.478928
-13822.092128	17616.961333	1987.497070	279.168152
-13822.092128	17616.961333	1986.531250	280.406647
-13822.092128	17616.961333	1985.564453	214.892151
-13822.092128	17616.961333	1984.597656	188.965164
-13822.092128	17616.961333	1983.630859	177.884979
-13822.092128	17616.961333	1982.664063	231.067169
-13822.092128	17616.961333	1981.696289	-113.562027
-13822.092128	17616.961333	1980.728516	26.130827
-13822.092128	17616.961333	1979.761719	269.511566
-13822.092128	17616.961333	1978.792969	-0.833571
-13822.092128	17616.961333	1977.825195	79.520012
-13822.092128	17616.961333	1976.857422	-198.088364
-13822.092128	17616.961333	1975.888672	-36.273460
-13822.092128	17616.961333	1974.919922	246.396973
-13822.092128	17616.961333	1973.951172	-21.208374
-13822.092128	17616.961333	1972.982422	-46.977631
-13822.092128	17616.961333	1972.013672	112.232315
-13822.092128	17616.961333	1971.043945	175.220795
-13822.092128	17616.961333	1970.075195	-116.820168
-13822.092128	17616.961333	1969.105469	99.009300
-13822.092128	17616.961333	1968.135742	-138.690598
-13822.092128	17616.961333	1967.165039	59.815971
-13822.092128	17616.961333	1966.195313	-2.882446
-13822.092128	17616.961333	1965.224609	153.652084
-13822.092128	17616.961333	1964.253906	-19.857172
-13822.092128	17616.961333	1963.283203	3.663566
-13822.092128	17616.961333	1962.312500	-34.367180
-13822.092128	17616.961333	1961.341797	-67.465454
-13822.092128	17616.961333	1960.370117	-56.259689
-13822.092128	17616.961333	1959.399414	196.042801
-13822.092128	17616.961333	1958.427734	3.021541
-13822.092128	17616.961333	1957.455078	60.925110
-13822.092128	17616.961333	1956.483398	72.079430
-13822.092128	17616.961333	1955.511719	-96.241585
-13822.092128	17616.961333	1954.539063	47.659798
-13822.092128	17616.961333	1953.566406	309.462952
-13822.092128	17616.961333	1952.593750	185.400833
-13822.092128	17616.961333	1951.621094	105.596115
-13822.092128	17616.961333	1950.647461	394.240631
-13822.092128	17616.961333	1949.674805	277.574463
-13822.092128	17616.961333	1948.701172	156.036377
-13822.092128	17616.961333	1947.727539	321.743317
-13822.092128	17616.961333	1946.753906	200.223175
-13822.092128	17616.961333	1945.780273	110.638657
-13822.092128	17616.961333	1944.805664	-167.834061
-13822.092128	17616.961333	1943.831055	-31.662981
-13822.092128	17616.961333	1942.856445	87.278458
-13822.092128	17616.961333	1941.881836	-134.671265
-13822.092128	17616.961333	1940.907227	79.834129
-13822.092128	17616.961333	1939.932617	-2.340491
-13822.092128	17616.961333	1938.957031	241.445831
-13822.092128	17616.961333	1937.981445	29.386305
-13822.092128	17616.961333	1937.005859	263.250092
-13822.092128	17616.961333	1936.030273	-32.038406
-13822.092128	17616.961333	1935.054688	434.362274
-13822.092128	17616.961333	1934.078125	263.993378
-13822.092128	17616.961333	1933.101563	76.537506
-13822.092128	17616.961333	1932.125000	43.327263
-13822.092128	17616.961333	1931.148438	-33.932625
-13822.092128	17616.961333	1930.171875	294.951813
-13822.092128	17616.961333	1929.194336	12.168304
-13822.092128	17616.961333	1928.217773	128.115707
-13822.092128	17616.961333	1927.240234	-98.324341
-13822.092128	17616.961333	1926.262695	88.464424
-13822.092128	17616.961333	1925.284180	6.294663
-13822.092128	17616.961333	1924.306641	-34.318398
-13822.092128	17616.961333	1923.328125	-1.631925
-13822.092128	17616.961333	1922.350586	133.625244
-13822.092128	17616.961333	1921.372070	85.627533
-13822.092128	17616.961333	1920.392578	-89.353973
-13822.092128	17616.961333	1919.414063	221.577988
-13822.092128	17616.961333	1918.434570	-119.400337
-13822.092128	17616.961333	1917.456055	108.398453
-13822.092128	17616.961333	1916.476563	-44.577984
-13822.092128	17616.961333	1915.497070	-68.212173
-13822.092128	17616.961333	1914.516602	205.734146
-13822.092128	17616.961333	1913.537109	101.536407
-13822.092128	17616.961333	1912.556641	-70.917427
-13822.092128	17616.961333	1911.576172	144.298798
-13822.092128	17616.961333	1910.595703	-1.332818
-13822.092128	17616.961333	1909.615234	247.862244
-13822.092128	17616.961333	1908.633789	146.078186
-13822.092128	17616.961333	1907.653320	214.833893
-13822.092128	17616.961333	1906.671875	81.382294
-13822.092128	17616.961333	1905.690430	59.973919
-13822.092128	17616.961333	1904.708984	138.373138
-13822.092128	17616.961333	1903.727539	-104.606865
-13822.092128	17616.961333	1902.745117	51.626427
-13822.092128	17616.961333	1901.762695	-13.660733
-13822.092128	17616.961333	1900.780273	54.860493
-13822.092128	17616.961333	1899.797852	67.383194
-13822.092128	17616.961333	1898.815430	-61.181770
-13822.092128	17616.961333	1897.832031	-187.292786
-13822.092128	17616.961333	1896.849609	-89.724304
-13822.092128	17616.961333	1895.866211	29.656933
-13822.092128	17616.961333	1894.882813	119.803917
-13822.092128	17616.961333	1893.898438	-76.818977
-13822.092128	17616.961333	1892.915039	-91.201805
-13822.092128	17616.961333	1891.930664	278.146881
-13822.092128	17616.961333	1890.947266	110.659065
-13822.092128	17616.961333	1889.962891	-73.791122
-13822.092128	17616.961333	1888.977539	-49.438362
-13822.092128	17616.961333	1887.993164	-85.799744
-13822.092128	17616.961333	1887.007813	79.226273
-13822.092128	17616.961333	1886.023438	-88.215164
-13822.092128	17616.961333	1885.038086	130.052567
-13822.092128	17616.961333	1884.051758	-115.001099
-13822.092128	17616.961333	1883.066406	-95.699593
-13822.092128	17616.961333	1882.081055	270.236664
-13822.092128	17616.961333	1881.094727	107.611565
-13822.092128	17616.961333	1880.108398	24.985994
-13822.092128	17616.961333	1879.122070	366.370514
-13822.092128	17616.961333	1878.135742	104.401619
-13822.092128	17616.961333	1877.148438	-24.289734
-13822.092128	17616.961333	1876.162109	18.964680
-13822.092128	17616.961333	1875.174805	-29.831928
-13822.092128	17616.961333	1874.187500	-146.420212
-13822.092128	17616.961333	1873.199219	-4.036549
-13822.092128	17616.961333	1872.211914	39.050068
-13822.092128	17616.961333	1871.223633	-9.844893
-13822.092128	17616.961333	1870.236328	-61.173874
-13822.092128	17616.961333	1869.248047	-102.844185
-13822.092128	17616.961333	1868.258789	181.888077
-13822.092128	17616.961333	1867.270508	-65.365875
-13822.092128	17616.961333	1866.282227	76.580338
-13822.092128	17616.961333	1865.292969	-49.800896
-13822.092128	17616.961333	1864.303711	147.590942
-13822.092128	17616.961333	1863.314453	115.385590
-13822.092128	17616.961333	1862.324219	-27.942696
-13822.092128	17616.961333	1861.334961	94.372032
-13822.092128	17616.961333	1860.344727	107.960976
-13822.092128	17616.961333	1859.354492	-25.734343
-13822.092128	17616.961333	1858.364258	159.153168
-13822.092128	17616.961333	1857.374023	148.486664
-13822.092128	17616.961333	1856.383789	104.014107
-13822.092128	17616.961333	1855.392578	264.545441
-13822.092128	17616.961333	1854.401367	17.422827
-13822.092128	17616.961333	1853.410156	226.060181
-13822.092128	17616.961333	1852.418945	39.231869
-13822.092128	17616.961333	1851.426758	-89.717125
-13822.092128	17616.961333	1850.435547	116.304169
-13822.092128	17616.961333	1849.443359	168.015106
-13822.092128	17616.961333	1848.451172	7.689680
-13822.092128	17616.961333	1847.458984	47.286804
-13822.092128	17616.961333	1846.466797	-16.711164
-13822.092128	17616.961333	1845.473633	-3.682060
-13822.092128	17616.961333	1844.480469	-12.357602
-13822.092128	17616.961333	1843.487305	99.262161
-13822.092128	17616.961333	1842.494141	-27.404852
-13822.092128	17616.961333	1841.500977	-334.489532
-13822.092128	17616.961333	1840.506836	29.566635
-13822.092128	17616.961333	1839.513672	234.733368
-13822.092128	17616.961333	1838.519531	242.628723
-13822.092128	17616.961333	1837.525391	118.269302
-13822.092128	17616.961333	1836.530273	78.039673
-13822.092128	17616.961333	1835.536133	-48.719063
-13822.092128	17616.961333	1834.541016	-132.224075
-13822.092128	17616.961333	1833.545898	-13.959586
-13822.092128	17616.961333	1832.550781	-30.268368
-13822.092128	17616.961333	1831.555664	-123.446320
-13822.092128	17616.961333	1830.560547	-120.598907
-13822.092128	17616.961333	1829.564453	57.428730
-13822.092128	17616.961333	1828.568359	84.163330
-13822.092128	17616.961333	1827.572266	91.655678
-13822.092128	17616.961333	1826.576172	72.719284
-13822.092128	17616.961333	1825.580078	-27.795254
-13822.092128	17616.961333	1824.583008	-27.595520
-13822.092128	17616.961333	1823.585938	94.842476
-13822.092128	17616.961333	1822.588867	61.384003
-13822.092128	17616.961333	1821.591797	39.884575
-13822.092128	17616.961333	1820.594727	166.919434
-13822.092128	17616.961333	1819.596680	-75.076599
-13822.092128	17616.961333	1818.599609	217.131439
-13822.092128	17616.961333	1817.601563	-34.437454
-13822.092128	17616.961333	1816.603516	-60.877190
-13822.092128	17616.961333	1815.604492	137.683472
-13822.092128	17616.961333	1814.606445	96.785446
-13822.092128	17616.961333	1813.607422	-264.802551
-13822.092128	17616.961333	1812.608398	22.098238
-13822.092128	17616.961333	1811.609375	12.229071
-13822.092128	17616.961333	1810.610352	-165.091599
-13822.092128	17616.961333	1809.610352	68.906708
-13822.092128	17616.961333	1808.611328	-22.363581
-13822.092128	17616.961333	1807.611328	29.780920
-13822.092128	17616.961333	1806.611328	258.718384
-13822.092128	17616.961333	1805.610352	-28.582605
-13822.092128	17616.961333	1804.610352	193.038742
-13822.092128	17616.961333	1803.609375	84.922760
-13822.092128	17616.961333	1802.608398	-11.248507
-13822.092128	17616.961333	1801.607422	23.899094
-13822.092128	17616.961333	1800.606445	-29.328651
-13822.092128	17616.961333	1799.605469	220.539093
-13822.092128	17616.961333	1798.603516	24.044916
-13822.092128	17616.961333	1797.601563	-34.035206
-13822.092128	17616.961333	1796.599609	222.737350
-13822.092128	17616.961333	1795.597656	35.785583
-13822.092128	17616.961333	1794.595703	-29.525127
-13822.092128	17616.961333	1793.592773	-13.792957
-13822.092128	17616.961333	1792.589844	216.417435
-13822.092128	17616.961333	1791.587891	69.978050
-13822.092128	17616.961333	1790.583984	61.748150
-13822.092128	17616.961333	1789.581055	22.519203
-13822.092128	17616.961333	1788.577148	-57.220947
-13822.092128	17616.961333	1787.574219	51.157455
-13822.092128	17616.961333	1786.570313	109.461472
-13822.092128	17616.961333	1785.566406	20.123779
-13822.092128	17616.961333	1784.561523	21.220737
-13822.092128	17616.961333	1783.557617	10.388234
-13822.092128	17616.961333	1782.552734	44.725090
-13822.092128	17616.961333	1781.547852	40.958054
-13822.092128	17616.961333	1780.542969	-195.898987
-13822.092128	17616.961333	1779.538086	73.746925
-13822.092128	17616.961333	1778.532227	79.382179
-13822.092128	17616.961333	1777.527344	-19.593287
-13822.092128	17616.961333	1776.521484	50.151424
-13822.092128	17616.961333	1775.515625	-67.855949
-13822.092128	17616.961333	1774.508789	-40.954342
-13822.092128	17616.961333	1773.502930	-78.216209
-13822.092128	17616.961333	1772.496094	19.849281
-13822.092128	17616.961333	1771.489258	18.134258
-13822.092128	17616.961333	1770.482422	33.004196
-13822.092128	17616.961333	1769.475586	73.940781
-13822.092128	17616.961333	1768.467773	-25.161667
-13822.092128	17616.961333	1767.460938	-15.131105
-13822.092128	17616.961333	1766.453125	-147.446747
-13822.092128	17616.961333	1765.445313	123.390175
-13822.092128	17616.961333	1764.437500	38.456093
-13822.092128	17616.961333	1763.428711	-93.888977
-13822.092128	17616.961333	1762.420898	-138.518600
-13822.092128	17616.961333	1761.412109	13.508667
-13822.092128	17616.961333	1760.403320	75.423172
-13822.092128	17616.961333	1759.393555	234.395401
-13822.092128	17616.961333	1758.384766	137.516846
-13822.092128	17616.961333	1757.375000	125.882065
-13822.092128	17616.961333	1756.366211	24.269199
-13822.092128	17616.961333	1755.356445	97.810799
-13822.092128	17616.961333	1754.345703	-115.042732
-13822.092128	17616.961333	1753.335938	-77.046295
-13822.092128	17616.961333	1752.325195	161.971573
-13822.092128	17616.961333	1751.315430	67.403542
-13822.092128	17616.961333	1750.304688	17.767664
-13822.092128	17616.961333	1749.292969	10.676483
-13822.092128	17616.961333	1748.282227	50.839207
-13822.092128	17616.961333	1747.270508	-117.009430
-13822.092128	17616.961333	1746.259766	-112.330048
-13822.092128	17616.961333	1745.248047	38.783875
-13822.092128	17616.961333	1744.235352	-112.512123
-13822.092128	17616.961333	1743.223633	-44.156063
-13822.092128	17616.961333	1742.211914	-131.675995
-13822.092128	17616.961333	1741.199219	45.191944
-13822.092128	17616.961333	1740.186523	14.279247
-13822.092128	17616.961333	1739.173828	146.170227
-13822.092128	17616.961333	1738.160156	-47.584179
-13822.092128	17616.961333	1737.147461	-187.032104
-13822.092128	17616.961333	1736.133789	6.066646
-13822.092128	17616.961333	1735.120117	-17.851858
-13822.092128	17616.961333	1734.106445	-13.495269
-13822.092128	17616.961333	1733.091797	106.326912
-13822.092128	17616.961333	1732.078125	9.286489
-13822.092128	17616.961333	1731.063477	-78.315987
-13822.092128	17616.961333	1730.048828	100.275993
-13822.092128	17616.961333	1729.034180	104.500290
-13822.092128	17616.961333	1728.019531	26.288912
-13822.092128	17616.961333	1727.003906	-268.507568
-13822.092128	17616.961333	1725.988281	-0.652128
-13822.092128	17616.961333	1724.972656	31.748217
-13822.092128	17616.961333	1723.957031	-65.291527
-13822.092128	17616.961333	1722.941406	-98.796364
-13822.092128	17616.961333	1721.924805	272.234589
-13822.092128	17616.961333	1720.909180	125.768456
-13822.092128	17616.961333	1719.892578	-37.118176
-13822.092128	17616.961333	1718.875977	65.663429
-13822.092128	17616.961333	1717.858398	-10.228647
-13822.092128	17616.961333	1716.841797	-3.862344
-13822.092128	17616.961333	1715.824219	47.118145
-13822.092128	17616.961333	1714.806641	-17.028465
-13822.092128	17616.961333	1713.789063	-142.222672
-13822.092128	17616.961333	1712.770508	134.111511
-13822.092128	17616.961333	1711.752930	-59.169880
-13822.092128	17616.961333	1710.734375	85.580833
-13822.092128	17616.961333	1709.715820	-6.743764
-13822.092128	17616.961333	1708.697266	25.301060
-13822.092128	17616.961333	1707.678711	50.284073
-13822.092128	17616.961333	1706.659180	-72.507828
-13822.092128	17616.961333	1705.640625	135.356689
-13822.092128	17616.961333	1704.621094	-78.857590
-13822.092128	17616.961333	1703.600586	23.421991
-13822.092128	17616.961333	1702.581055	17.859238
-13822.092128	17616.961333	1701.561523	-81.431816
-13822.092128	17616.961333	1700.541016	-33.118397
-13822.092128	17616.961333	1699.520508	80.748795
-13822.092128	17616.961333	1698.500000	-44.285866
-13822.092128	17616.961333	1697.478516	50.787128
-13822.092128	17616.961333	1696.458008	316.696106
-13822.092128	17616.961333	1695.436523	212.723358
-13822.092128	17616.961333	1694.415039	160.262558
-13822.092128	17616.961333	1693.393555	278.589508
-13822.092128	17616.961333	1692.372070	125.548401
-13822.092128	17616.961333	1691.349609	412.193665
-13822.092128	17616.961333	1690.327148	249.819366
-13822.092128	17616.961333	1689.304688	61.787296
-13822.092128	17616.961333	1688.282227	191.677948
-13822.092128	17616.961333	1687.259766	235.054260
-13822.092128	17616.961333	1686.236328	184.958939
-13822.092128	17616.961333	1685.213867	538.977783
-13822.092128	17616.961333	1684.190430	276.318878
-13822.092128	17616.961333	1683.166016	233.236526
-13822.092128	17616.961333	1682.142578	437.625122
-13822.092128	17616.961333	1681.119141	543.908264
-13822.092128	17616.961333	1680.094727	556.800537
-13822.092128	17616.961333	1679.070313	427.369507
-13822.092128	17616.961333	1678.045898	484.599945
-13822.092128	17616.961333	1677.020508	226.956512
-13822.092128	17616.961333	1675.996094	524.376526
-13822.092128	17616.961333	1674.970703	509.284851
-13822.092128	17616.961333	1673.945313	655.030273
-13822.092128	17616.961333	1672.919922	656.236328
-13822.092128	17616.961333	1671.893555	736.658630
-13822.092128	17616.961333	1670.868164	656.320435
-13822.092128	17616.961333	1669.841797	580.672058
-13822.092128	17616.961333	1668.815430	838.048584
-13822.092128	17616.961333	1667.789063	827.591064
-13822.092128	17616.961333	1666.761719	945.162659
-13822.092128	17616.961333	1665.735352	890.481812
-13822.092128	17616.961333	1664.708008	926.569214
-13822.092128	17616.961333	1663.680664	1097.580322
-13822.092128	17616.961333	1662.653320	959.183472
-13822.092128	17616.961333	1661.625000	1062.691040
-13822.092128	17616.961333	1660.597656	1426.575439
-13822.092128	17616.961333	1659.569336	816.326050
-13822.092128	17616.961333	1658.541016	987.227234
-13822.092128	17616.961333	1657.512695	958.234436
-13822.092128	17616.961333	1656.483398	1073.298828
-13822.092128	17616.961333	1655.455078	1076.839844
-13822.092128	17616.961333	1654.425781	1180.247559
-13822.092128	17616.961333	1653.396484	946.952576
-13822.092128	17616.961333	1652.366211	1133.933350
-13822.092128	17616.961333	1651.336914	1060.908325
-13822.092128	17616.961333	1650.306641	885.818115
-13822.092128	17616.961333	1649.276367	734.007568
-13822.092128	17616.961333	1648.246094	1048.516113
-13822.092128	17616.961333	1647.215820	1003.442017
-13822.092128	17616.961333	1646.185547	851.740601
-13822.092128	17616.961333	1645.154297	1131.306641
-13822.092128	17616.961333	1644.123047	1264.758057
-13822.092128	17616.961333	1643.091797	1076.056274
-13822.092128	17616.961333	1642.060547	1068.164551
-13822.092128	17616.961333	1641.028320	1206.225830
-13822.092128	17616.961333	1639.997070	1330.359985
-13822.092128	17616.961333	1638.964844	1391.938354
-13822.092128	17616.961333	1637.931641	1414.148682
-13822.092128	17616.961333	1636.899414	1459.519287
-13822.092128	17616.961333	1635.867188	1361.409790
-13822.092128	17616.961333	1634.833984	1615.048828
-13822.092128	17616.961333	1633.800781	1586.382568
-13822.092128	17616.961333	1632.767578	1513.802002
-13822.092128	17616.961333	1631.734375	1762.700195
-13822.092128	17616.961333	1630.700195	1438.143677
-13822.092128	17616.961333	1629.666016	1472.023926
-13822.092128	17616.961333	1628.631836	1404.226074
-13822.092128	17616.961333	1627.597656	1482.047241
-13822.092128	17616.961333	1626.563477	1689.232178
-13822.092128	17616.961333	1625.528320	1644.593872
-13822.092128	17616.961333	1624.493164	1348.281128
-13822.092128	17616.961333	1623.458008	1615.470093
-13822.092128	17616.961333	1622.422852	1746.384033
-13822.092128	17616.961333	1621.387695	1685.710693
-13822.092128	17616.961333	1620.351563	1542.013306
-13822.092128	17616.961333	1619.315430	1737.534302
-13822.092128	17616.961333	1618.279297	1589.322998
-13822.092128	17616.961333	1617.243164	1489.623901
-13822.092128	17616.961333	1616.207031	1491.443237
-13822.092128	17616.961333	1615.169922	1297.336426
-13822.092128	17616.961333	1614.132813	1674.930786
-13822.092128	17616.961333	1613.095703	1434.835815
-13822.092128	17616.961333	1612.058594	1298.538452
-13822.092128	17616.961333	1611.020508	1289.012207
-13822.092128	17616.961333	1609.983398	1489.098389
-13822.092128	17616.961333	1608.945313	1021.386108
-13822.092128	17616.961333	1607.907227	1203.088379
-13822.092128	17616.961333	1606.868164	1018.780334
-13822.092128	17616.961333	1605.830078	1269.510132
-13822.092128	17616.961333	1604.791016	1103.730469
-13822.092128	17616.961333	1603.751953	954.152039
-13822.092128	17616.961333	1602.712891	1358.935547
-13822.092128	17616.961333	1601.673828	1131.249390
-13822.092128	17616.961333	1600.633789	977.250793
-13822.092128	17616.961333	1599.594727	832.544250
-13822.092128	17616.961333	1598.554688	894.754761
-13822.092128	17616.961333	1597.513672	913.316406
-13822.092128	17616.961333	1596.473633	899.749268
-13822.092128	17616.961333	1595.433594	844.882751
-13822.092128	17616.961333	1594.392578	1033.478027
-13822.092128	17616.961333	1593.351563	799.600952
-13822.092128	17616.961333	1592.310547	1020.339783
-13822.092128	17616.961333	1591.268555	864.656860
-13822.092128	17616.961333	1590.227539	752.671631
-13822.092128	17616.961333	1589.185547	886.228394
-13822.092128	17616.961333	1588.143555	1102.342041
-13822.092128	17616.961333	1587.100586	1091.383423
-13822.092128	17616.961333	1586.058594	1073.596436
-13822.092128	17616.961333	1585.015625	1191.095459
-13822.092128	17616.961333	1583.972656	1122.951660
-13822.092128	17616.961333	1582.929688	800.536682
-13822.092128	17616.961333	1581.886719	837.960083
-13822.092128	17616.961333	1580.843750	811.277039
-13822.092128	17616.961333	1579.799805	901.436646
-13822.092128	17616.961333	1578.755859	900.019836
-13822.092128	17616.961333	1577.711914	1035.993652
-13822.092128	17616.961333	1576.666992	778.303711
-13822.092128	17616.961333	1575.623047	985.269104
-13822.092128	17616.961333	1574.578125	1167.030273
-13822.092128	17616.961333	1573.533203	946.193481
-13822.092128	17616.961333	1572.488281	1233.176880
-13822.092128	17616.961333	1571.443359	1044.514038
-13822.092128	17616.961333	1570.397461	1043.420044
-13822.092128	17616.961333	1569.351563	1188.645386
-13822.092128	17616.961333	1568.305664	1025.372070
-13822.092128	17616.961333	1567.259766	901.049561
-13822.092128	17616.961333	1566.213867	790.527832
-13822.092128	17616.961333	1565.166992	1075.182373
-13822.092128	17616.961333	1564.120117	841.464539
-13822.092128	17616.961333	1563.073242	811.058228
-13822.092128	17616.961333	1562.026367	992.975525
-13822.092128	17616.961333	1560.978516	1136.076416
-13822.092128	17616.961333	1559.930664	647.194946
-13822.092128	17616.961333	1558.883789	781.280090
-13822.092128	17616.961333	1557.834961	913.079712
-13822.092128	17616.961333	1556.787109	718.819214
-13822.092128	17616.961333	1555.739258	647.786438
-13822.092128	17616.961333	1554.690430	654.326111
-13822.092128	17616.961333	1553.641602	822.709473
-13822.092128	17616.961333	1552.592773	950.067566
-13822.092128	17616.961333	1551.542969	1125.260986
-13822.092128	17616.961333	1550.494141	594.424927
-13822.092128	17616.961333	1549.444336	910.899414
-13822.092128	17616.961333	1548.394531	737.838135
-13822.092128	17616.961333	1547.344727	642.286194
-13822.092128	17616.961333	1546.293945	719.776245
-13822.092128	17616.961333	1545.244141	863.269348
-13822.092128	17616.961333	1544.193359	672.367554
-13822.092128	17616.961333	1543.142578	886.425415
-13822.092128	17616.961333	1542.090820	766.190613
-13822.092128	17616.961333	1541.040039	759.731201
-13822.092128	17616.961333	1539.988281	680.591064
-13822.092128	17616.961333	1538.936523	708.349121
-13822.092128	17616.961333	1537.884766	697.523315
-13822.092128	17616.961333	1536.833008	473.225098
-13822.092128	17616.961333	1535.780273	857.747314
-13822.092128	17616.961333	1534.727539	581.389526
-13822.092128	17616.961333	1533.674805	568.550354
-13822.092128	17616.961333	1532.622070	626.138184
-13822.092128	17616.961333	1531.569336	504.477448
-13822.092128	17616.961333	1530.515625	655.195251
-13822.092128	17616.961333	1529.461914	644.848572
-13822.092128	17616.961333	1528.408203	840.955261
-13822.092128	17616.961333	1527.354492	724.113098
-13822.092128	17616.961333	1526.299805	600.572388
-13822.092128	17616.961333	1525.246094	805.811707
-13822.092128	17616.961333	1524.191406	351.548279
-13822.092128	17616.961333	1523.136719	556.873962
-13822.092128	17616.961333	1522.081055	515.252197
-13822.092128	17616.961333	1521.026367	480.498901
-13822.092128	17616.961333	1519.970703	629.243835
-13822.092128	17616.961333	1518.915039	347.822876
-13822.092128	17616.961333	1517.859375	433.273163
-13822.092128	17616.961333	1516.802734	317.331909
-13822.092128	17616.961333	1515.747070	316.892517
-13822.092128	17616.961333	1514.690430	418.313904
-13822.092128	17616.961333	1513.633789	384.048676
-13822.092128	17616.961333	1512.577148	343.075531
-13822.092128	17616.961333	1511.519531	539.571289
-13822.092128	17616.961333	1510.461914	415.068481
-13822.092128	17616.961333	1509.405273	222.876724
-13822.092128	17616.961333	1508.346680	376.532471
-13822.092128	17616.961333	1507.289063	353.979980
-13822.092128	17616.961333	1506.231445	71.753624
-13822.092128	17616.961333	1505.172852	4.229763
-13822.092128	17616.961333	1504.114258	24.848766
-13822.092128	17616.961333	1503.055664	52.292374
-13822.092128	17616.961333	1501.996094	16.597288
-13822.092128	17616.961333	1500.937500	-0.971651
-13822.092128	17616.961333	1499.877930	-47.796173
-13822.092128	17616.961333	1498.818359	-132.883499
-13822.092128	17616.961333	1497.757813	86.561111
-13822.092128	17616.961333	1496.698242	-54.758533
-13822.092128	17616.961333	1495.637695	33.967690
-13822.092128	17616.961333	1494.577148	-7.994247
-13822.092128	17616.961333	1493.516602	-63.394272
-13822.092128	17616.961333	1492.456055	-253.878815
-13822.092128	17616.961333	1491.394531	-149.160629
-13822.092128	17616.961333	1490.333008	108.709610
-13822.092128	17616.961333	1489.271484	105.370613
-13822.092128	17616.961333	1488.209961	-156.773285
-13822.092128	17616.961333	1487.148438	31.369780
-13822.092128	17616.961333	1486.085938	-320.529877
-13822.092128	17616.961333	1485.023438	-132.300613
-13822.092128	17616.961333	1483.960938	274.096680
-13822.092128	17616.961333	1482.898438	46.236252
-13822.092128	17616.961333	1481.834961	7.390203
-13822.092128	17616.961333	1480.772461	173.188263
-13822.092128	17616.961333	1479.708984	165.920776
-13822.092128	17616.961333	1478.644531	89.097687
-13822.092128	17616.961333	1477.581055	-46.022724
-13822.092128	17616.961333	1476.517578	-10.355763
-13822.092128	17616.961333	1475.453125	137.652267
-13822.092128	17616.961333	1474.388672	146.498566
-13822.092128	17616.961333	1473.323242	83.553352
-13822.092128	17616.961333	1472.258789	-46.509727
-13822.092128	17616.961333	1471.193359	38.708019
-13822.092128	17616.961333	1470.127930	-34.999592
-13822.092128	17616.961333	1469.062500	166.974838
-13822.092128	17616.961333	1467.997070	207.498459
-13822.092128	17616.961333	1466.930664	349.017975
-13822.092128	17616.961333	1465.865234	300.100861
-13822.092128	17616.961333	1464.798828	181.939453
-13822.092128	17616.961333	1463.731445	343.690155
-13822.092128	17616.961333	1462.665039	258.986389
-13822.092128	17616.961333	1461.597656	315.374451
-13822.092128	17616.961333	1460.530273	412.020569
-13822.092128	17616.961333	1459.462891	252.071167
-13822.092128	17616.961333	1458.395508	24.953934
-13822.092128	17616.961333	1457.327148	298.223480
-13822.092128	17616.961333	1456.259766	335.030182
-13822.092128	17616.961333	1455.191406	325.463837
-13822.092128	17616.961333	1454.123047	416.002930
-13822.092128	17616.961333	1453.053711	131.944427
-13822.092128	17616.961333	1451.985352	288.322968
-13822.092128	17616.961333	1450.916016	473.371490
-13822.092128	17616.961333	1449.846680	455.948944
-13822.092128	17616.961333	1448.776367	435.311615
-13822.092128	17616.961333	1447.707031	440.751404
-13822.092128	17616.961333	1446.636719	591.257568
-13822.092128	17616.961333	1445.566406	452.848969
-13822.092128	17616.961333	1444.496094	276.890778
-13822.092128	17616.961333	1443.425781	408.666046
-13822.092128	17616.961333	1442.354492	385.314178
-13822.092128	17616.961333	1441.283203	567.090149
-13822.092128	17616.961333	1440.211914	160.976212
-13822.092128	17616.961333	1439.140625	451.230103
-13822.092128	17616.961333	1438.069336	328.728607
-13822.092128	17616.961333	1436.997070	165.791046
-13822.092128	17616.961333	1435.924805	240.308838
-13822.092128	17616.961333	1434.852539	482.068939
-13822.092128	17616.961333	1433.780273	648.122009
-13822.092128	17616.961333	1432.707031	116.281639
-13822.092128	17616.961333	1431.633789	487.851196
-13822.092128	17616.961333	1430.560547	476.178131
-13822.092128	17616.961333	1429.487305	653.238831
-13822.092128	17616.961333	1428.413086	367.198761
-13822.092128	17616.961333	1427.339844	169.062439
-13822.092128	17616.961333	1426.265625	83.491104
-13822.092128	17616.961333	1425.191406	114.854080
-13822.092128	17616.961333	1424.116211	354.799438
-13822.092128	17616.961333	1423.041992	80.909393
-13822.092128	17616.961333	1421.966797	342.247925
-13822.092128	17616.961333	1420.891602	325.889221
-13822.092128	17616.961333	1419.816406	249.434631
-13822.092128	17616.961333	1418.740234	-127.028076
-13822.092128	17616.961333	1417.665039	113.537827
-13822.092128	17616.961333	1416.588867	352.700775
-13822.092128	17616.961333	1415.512695	5.884226
-13822.092128	17616.961333	1414.435547	168.230896
-13822.092128	17616.961333	1413.359375	192.015305
-13822.092128	17616.961333	1412.282227	421.964508
-13822.092128	17616.961333	1411.205078	362.296692
-13822.092128	17616.961333	1410.127930	246.009659
-13822.092128	17616.961333	1409.049805	243.931870
-13822.092128	17616.961333	1407.972656	185.349045
-13822.092128	17616.961333	1406.894531	351.467255
-13822.092128	17616.961333	1405.816406	329.436035
-13822.092128	17616.961333	1404.737305	315.488373
-13822.092128	17616.961333	1403.659180	370.239624
-13822.092128	17616.961333	1402.580078	79.640373
-13822.092128	17616.961333	1401.500977	226.277451
-13822.092128	17616.961333	1400.421875	316.347870
-13822.092128	17616.961333	1399.341797	253.811371
-13822.092128	17616.961333	1398.262695	209.398026
-13822.092128	17616.961333	1397.182617	74.629265
-13822.092128	17616.961333	1396.102539	-76.355644
-13822.092128	17616.961333	1395.021484	175.788025
-13822.092128	17616.961333	1393.941406	-18.837032
-13822.092128	17616.961333	1392.860352	161.410126
-13822.092128	17616.961333	1391.779297	214.352173
-13822.092128	17616.961333	1390.698242	54.168468
-13822.092128	17616.961333	1389.616211	-28.700315
-13822.092128	17616.961333	1388.535156	-49.952785
-13822.092128	17616.961333	1387.453125	58.263435
-13822.092128	17616.961333	1386.371094	263.489471
-13822.092128	17616.961333	1385.288086	193.724777
-13822.092128	17616.961333	1384.206055	209.090652
-13822.092128	17616.961333	1383.123047	95.855843
-13822.092128	17616.961333	1382.040039	243.821060
-13822.092128	17616.961333	1380.957031	42.964497
-13822.092128	17616.961333	1379.873047	390.065094
-13822.092128	17616.961333	1378.789063	144.577682
-13822.092128	17616.961333	1377.705078	150.880844
-13822.092128	17616.961333	1376.621094	359.341400
-13822.092128	17616.961333	1375.537109	254.543030
-13822.092128	17616.961333	1374.452148	410.132050
-13822.092128	17616.961333	1373.367188	474.967377
-13822.092128	17616.961333	1372.282227	163.370895
-13822.092128	17616.961333	1371.197266	269.641083
-13822.092128	17616.961333	1370.112305	394.566681
-13822.092128	17616.961333	1369.026367	442.052002
-13822.092128	17616.961333	1367.940430	46.390289
-13822.092128	17616.961333	1366.854492	285.763824
-13822.092128	17616.961333	1365.767578	308.074127
-13822.092128	17616.961333	1364.681641	167.082458
-13822.092128	17616.961333	1363.594727	225.439987
-13822.092128	17616.961333	1362.507813	23.109652
-13822.092128	17616.961333	1361.419922	314.743134
-13822.092128	17616.961333	1360.333008	212.238113
-13822.092128	17616.961333	1359.245117	211.510696
-13822.092128	17616.961333	1358.157227	273.042175
-13822.092128	17616.961333	1357.069336	371.293121
-13822.092128	17616.961333	1355.981445	389.323669
-13822.092128	17616.961333	1354.892578	345.753540
-13822.092128	17616.961333	1353.803711	562.587341
-13822.092128	17616.961333	1352.714844	407.357788
-13822.092128	17616.961333	1351.625000	294.780487
-13822.092128	17616.961333	1350.536133	492.263031
-13822.092128	17616.961333	1349.446289	257.759369
-13822.092128	17616.961333	1348.356445	382.022888
-13822.092128	17616.961333	1347.266602	740.784607
-13822.092128	17616.961333	1346.175781	542.198730
-13822.092128	17616.961333	1345.085938	431.748657
-13822.092128	17616.961333	1343.995117	533.678772
-13822.092128	17616.961333	1342.903320	619.932007
-13822.092128	17616.961333	1341.812500	400.634216
-13822.092128	17616.961333	1340.720703	228.746750
-13822.092128	17616.961333	1339.629883	225.654037
-13822.092128	17616.961333	1338.538086	462.597778
-13822.092128	17616.961333	1337.445313	529.072754
-13822.092128	17616.961333	1336.353516	494.314850
-13822.092128	17616.961333	1335.260742	510.125458
-13822.092128	17616.961333	1334.167969	494.412811
-13822.092128	17616.961333	1333.075195	484.455750
-13822.092128	17616.961333	1331.981445	407.779968
-13822.092128	17616.961333	1330.888672	590.806458
-13822.092128	17616.961333	1329.794922	540.947449
-13822.092128	17616.961333	1328.701172	670.590332
-13822.092128	17616.961333	1327.606445	492.340057
-13822.092128	17616.961333	1326.512695	580.112488
-13822.092128	17616.961333	1325.417969	717.875732
-13822.092128	17616.961333	1324.323242	537.785645
-13822.092128	17616.961333	1323.227539	685.209045
-13822.092128	17616.961333	1322.132813	649.200134
-13822.092128	17616.961333	1321.037109	739.387451
-13822.092128	17616.961333	1319.941406	594.735291
-13822.092128	17616.961333	1318.845703	631.294128
-13822.092128	17616.961333	1317.750000	623.963806
-13822.092128	17616.961333	1316.653320	633.230347
-13822.092128	17616.961333	1315.556641	473.305084
-13822.092128	17616.961333	1314.459961	673.419067
-13822.092128	17616.961333	1313.363281	713.975159
-13822.092128	17616.961333	1312.265625	537.929138
-13822.092128	17616.961333	1311.167969	462.389740
-13822.092128	17616.961333	1310.070313	603.192505
-13822.092128	17616.961333	1308.972656	506.828125
-13822.092128	17616.961333	1307.874023	481.363831
-13822.092128	17616.961333	1306.776367	395.784943
-13822.092128	17616.961333	1305.677734	383.446045
-13822.092128	17616.961333	1304.579102	432.331787
-13822.092128	17616.961333	1303.479492	213.071915
-13822.092128	17616.961333	1302.380859	247.833221
-13822.092128	17616.961333	1301.281250	342.109161
-13822.092128	17616.961333	1300.181641	232.752441
-13822.092128	17616.961333	1299.081055	25.821611
-13822.092128	17616.961333	1297.981445	212.640503
-13822.092128	17616.961333	1296.880859	217.996704
-13822.092128	17616.961333	1295.780273	18.405863
-13822.092128	17616.961333	1294.679688	61.360695
-13822.092128	17616.961333	1293.578125	30.843683
-13822.092128	17616.961333	1292.476563	-118.152985
-13822.092128	17616.961333	1291.375000	-27.082909
-13822.092128	17616.961333	1290.273438	-53.413353
-13822.092128	17616.961333	1289.171875	-109.298111
-13822.092128	17616.961333	1288.069336	-98.320053
-13822.092128	17616.961333	1286.966797	-72.548592
-13822.092128	17616.961333	1285.864258	-29.615061
-13822.092128	17616.961333	1284.761719	36.750576
-13822.092128	17616.961333	1283.658203	39.881519
-13822.092128	17616.961333	1282.554688	-20.334671
-13822.092128	17616.961333	1281.451172	243.333954
-13822.092128	17616.961333	1280.347656	54.077347
-13822.092128	17616.961333	1279.244141	-32.382305
-13822.092128	17616.961333	1278.139648	190.298019
-13822.092128	17616.961333	1277.035156	58.949192
-13822.092128	17616.961333	1275.930664	229.645920
-13822.092128	17616.961333	1274.825195	80.083801
-13822.092128	17616.961333	1273.720703	75.417122
-13822.092128	17616.961333	1272.615234	22.458439
-13822.092128	17616.961333	1271.508789	24.304001
-13822.092128	17616.961333	1270.403320	0.404901
-13822.092128	17616.961333	1269.297852	210.900116
-13822.092128	17616.961333	1268.191406	-122.625061
-13822.092128	17616.961333	1267.084961	234.665039
-13822.092128	17616.961333	1265.977539	-123.889420
-13822.092128	17616.961333	1264.871094	153.215347
-13822.092128	17616.961333	1263.763672	51.876026
-13822.092128	17616.961333	1262.656250	-6.738760
-13822.092128	17616.961333	1261.548828	11.049238
-13822.092128	17616.961333	1260.440430	-26.483236
-13822.092128	17616.961333	1259.333008	18.223200
-13822.092128	17616.961333	1258.224609	78.849449
-13822.092128	17616.961333	1257.115234	-13.085398
-13822.092128	17616.961333	1256.006836	56.067856
-13822.092128	17616.961333	1254.897461	90.471588
-13822.092128	17616.961333	1253.788086	-71.128448
-13822.092128	17616.961333	1252.678711	6.707730
-13822.092128	17616.961333	1251.569336	48.885906
-13822.092128	17616.961333	1250.458984	-64.762466
-13822.092128	17616.961333	1249.349609	71.052444
-13822.092128	17616.961333	1248.239258	17.356304
-13822.092128	17616.961333	1247.127930	275.162323
-13822.092128	17616.961333	1246.017578	-97.322655
-13822.092128	17616.961333	1244.906250	-5.293680
-13822.092128	17616.961333	1243.794922	29.805561
-13822.092128	17616.961333	1242.683594	-4.143544
-13822.092128	17616.961333	1241.571289	-43.025360
-13822.092128	17616.961333	1240.459961	-19.177967
-13822.092128	17616.961333	1239.347656	40.338356
-13822.092128	17616.961333	1238.234375	25.090544
-13822.092128	17616.961333	1237.122070	142.917282
-13822.092128	17616.961333	1236.008789	-84.761230
-13822.092128	17616.961333	1234.896484	29.383942
-13822.092128	17616.961333	1233.782227	121.991554
-13822.092128	17616.961333	1232.668945	238.376083
-13822.092128	17616.961333	1231.555664	20.941242
-13822.092128	17616.961333	1230.441406	-89.979591
-13822.092128	17616.961333	1229.327148	43.604515
-13822.092128	17616.961333	1228.211914	120.282799
-13822.092128	17616.961333	1227.097656	-34.559059
-13822.092128	17616.961333	1225.982422	9.433597
-13822.092128	17616.961333	1224.867188	6.169715
-13822.092128	17616.961333	1223.751953	-190.475159
-13822.092128	17616.961333	1222.635742	168.843079
-13822.092128	17616.961333	1221.520508	-10.878507
-13822.092128	17616.961333	1220.404297	91.593597
-13822.092128	17616.961333	1219.287109	-59.990086
-13822.092128	17616.961333	1218.170898	100.720154
-13822.092128	17616.961333	1217.053711	-145.319595
-13822.092128	17616.961333	1215.936523	-132.340912
-13822.092128	17616.961333	1214.819336	-170.093246
-13822.092128	17616.961333	1213.702148	-99.315277
-13822.092128	17616.961333	1212.583984	-48.816326
-13822.092128	17616.961333	1211.465820	-1.387504
-13822.092128	17616.961333	1210.347656	-122.226479
-13822.092128	17616.961333	1209.229492	-54.419575
-13822.092128	17616.961333	1208.110352	-137.096481
-13822.092128	17616.961333	1206.992188	-35.416008
-13822.092128	17616.961333	1205.873047	129.946838
-13822.092128	17616.961333	1204.752930	132.426208
-13822.092128	17616.961333	1203.633789	34.543053
-13822.092128	17616.961333	1202.513672	-131.646255
-13822.092128	17616.961333	1201.393555	-80.953178
-13822.092128	17616.961333	1200.273438	-139.535339
-13822.092128	17616.961333	1199.152344	26.497023
-13822.092128	17616.961333	1198.032227	-125.182625
-13822.092128	17616.961333	1196.911133	-148.466309
-13822.092128	17616.961333	1195.790039	97.407852
-13822.092128	17616.961333	1194.667969	-92.736893
-13822.092128	17616.961333	1193.545898	-9.044879
-13822.092128	17616.961333	1192.424805	25.678486
-13822.092128	17616.961333	1191.301758	9.554045
-13822.092128	17616.961333	1190.179688	91.643837
-13822.092128	17616.961333	1189.056641	96.427673
-13822.092128	17616.961333	1187.933594	32.506428
-13822.092128	17616.961333	1186.810547	124.983269
-13822.092128	17616.961333	1185.687500	201.136169
-13822.092128	17616.961333	1184.563477	23.396666
-13822.092128	17616.961333	1183.440430	1.659453
-13822.092128	17616.961333	1182.316406	19.661934
-13822.092128	17616.961333	1181.191406	31.815821
-13822.092128	17616.961333	1180.067383	-71.476234
-13822.092128	17616.961333	1178.942383	55.142193
-13822.092128	17616.961333	1177.817383	-166.948532
-13822.092128	17616.961333	1176.692383	-49.085629
-13822.092128	17616.961333	1175.566406	82.145668
-13822.092128	17616.961333	1174.440430	8.920732
-13822.092128	17616.961333	1173.314453	8.221677
-13822.092128	17616.961333	1172.188477	17.021828
-13822.092128	17616.961333	1171.062500	31.158773
-13822.092128	17616.961333	1169.935547	-9.488952
-13822.092128	17616.961333	1168.808594	-67.850334
-13822.092128	17616.961333	1167.681641	68.253044
-13822.092128	17616.961333	1166.553711	76.657661
-13822.092128	17616.961333	1165.426758	-48.501740
-13822.092128	17616.961333	1164.298828	162.906067
-13822.092128	17616.961333	1163.170898	37.927841
-13822.092128	17616.961333	1162.041992	6.052299
-13822.092128	17616.961333	1160.914063	139.559906
-13822.092128	17616.961333	1159.785156	222.596359
-13822.092128	17616.961333	1158.656250	197.262238
-13822.092128	17616.961333	1157.526367	187.066650
-13822.092128	17616.961333	1156.397461	172.220016
-13822.092128	17616.961333	1155.267578	230.235962
-13822.092128	17616.961333	1154.137695	75.116554
-13822.092128	17616.961333	1153.006836	57.840561
-13822.092128	17616.961333	1151.876953	-44.013237
-13822.092128	17616.961333	1150.746094	-17.868891
-13822.092128	17616.961333	1149.615234	109.474014
-13822.092128	17616.961333	1148.484375	-0.699608
-13822.092128	17616.961333	1147.352539	154.227570
-13822.092128	17616.961333	1146.220703	118.742188
-13822.092128	17616.961333	1145.088867	95.101837
-13822.092128	17616.961333	1143.957031	39.938122
-13822.092128	17616.961333	1142.825195	83.977386
-13822.092128	17616.961333	1141.692383	121.724510
-13822.092128	17616.961333	1140.559570	69.152641
-13822.092128	17616.961333	1139.426758	-93.875153
-13822.092128	17616.961333	1138.292969	92.770927
-13822.092128	17616.961333	1137.159180	39.222324
-13822.092128	17616.961333	1136.025391	-158.092453
-13822.092128	17616.961333	1134.891602	-67.974373
-13822.092128	17616.961333	1133.757813	163.275574
-13822.092128	17616.961333	1132.623047	-80.770554
-13822.092128	17616.961333	1131.488281	60.427055
-13822.092128	17616.961333	1130.353516	-106.197212
-13822.092128	17616.961333	1129.217773	90.650299
-13822.092128	17616.961333	1128.083008	-49.944454
-13822.092128	17616.961333	1126.947266	-241.873505
-13822.092128	17616.961333	1125.811523	-72.724808
-13822.092128	17616.961333	1124.674805	-15.222403
-13822.092128	17616.961333	1123.539063	-128.248795
-13822.092128	17616.961333	1122.402344	-200.515625
-13822.092128	17616.961333	1121.265625	-248.020828
-13822.092128	17616.961333	1120.127930	-5.229784
-13822.092128	17616.961333	1118.990234	55.452393
-13822.092128	17616.961333	1117.853516	-137.605835
-13822.092128	17616.961333	1116.714844	106.635094
-13822.092128	17616.961333	1115.577148	-42.400799
-13822.092128	17616.961333	1114.439453	72.182411
-13822.092128	17616.961333	1113.300781	-94.057404
-13822.092128	17616.961333	1112.162109	-118.099342
-13822.092128	17616.961333	1111.022461	135.624191
-13822.092128	17616.961333	1109.883789	23.365295
-13822.092128	17616.961333	1108.744141	-34.833511
-13822.092128	17616.961333	1107.604492	164.299774
-13822.092128	17616.961333	1106.463867	126.549438
-13822.092128	17616.961333	1105.324219	21.634668
-13822.092128	17616.961333	1104.183594	1.275441
-13822.092128	17616.961333	1103.042969	-154.682831
-13822.092128	17616.961333	1101.902344	-273.069336
-13822.092128	17616.961333	1100.760742	-35.548225
-13822.092128	17616.961333	1099.619141	-75.808136
-13822.092128	17616.961333	1098.477539	-26.167515
-13822.092128	17616.961333	1097.335938	137.388199
-13822.092128	17616.961333	1096.193359	76.983826
-13822.092128	17616.961333	1095.051758	9.825541
-13822.092128	17616.961333	1093.909180	46.040928
-13822.092128	17616.961333	1092.765625	90.817314
-13822.092128	17616.961333	1091.623047	97.833771
-13822.092128	17616.961333	1090.479492	320.201080
-13822.092128	17616.961333	1089.335938	106.476036
-13822.092128	17616.961333	1088.192383	8.245517
-13822.092128	17616.961333	1087.047852	262.392853
-13822.092128	17616.961333	1085.903320	157.509171
-13822.092128	17616.961333	1084.758789	220.701828
-13822.092128	17616.961333	1083.614258	-20.081951
-13822.092128	17616.961333	1082.469727	-21.511131
-13822.092128	17616.961333	1081.324219	58.556244
-13822.092128	17616.961333	1080.178711	144.972229
-13822.092128	17616.961333	1079.033203	181.991669
-13822.092128	17616.961333	1077.886719	264.255463
-13822.092128	17616.961333	1076.740234	156.782745
-13822.092128	17616.961333	1075.593750	91.014946
-13822.092128	17616.961333	1074.447266	98.018433
-13822.092128	17616.961333	1073.300781	610.593994
-13822.092128	17616.961333	1072.153320	494.247559
-13822.092128	17616.961333	1071.005859	483.301239
-13822.092128	17616.961333	1069.858398	397.816589
-13822.092128	17616.961333	1068.709961	454.798431
-13822.092128	17616.961333	1067.561523	535.457703
-13822.092128	17616.961333	1066.413086	323.101959
-13822.092128	17616.961333	1065.264648	145.263519
-13822.092128	17616.961333	1064.116211	328.104462
-13822.092128	17616.961333	1062.966797	311.078766
-13822.092128	17616.961333	1061.817383	430.106445
-13822.092128	17616.961333	1060.667969	218.881897
-13822.092128	17616.961333	1059.517578	327.679260
-13822.092128	17616.961333	1058.368164	134.591873
-13822.092128	17616.961333	1057.217773	358.818390
-13822.092128	17616.961333	1056.067383	40.956802
-13822.092128	17616.961333	1054.916016	294.334839
-13822.092128	17616.961333	1053.764648	95.418732
-13822.092128	17616.961333	1052.613281	178.982941
-13822.092128	17616.961333	1051.461914	303.207214
-13822.092128	17616.961333	1050.310547	213.192154
-13822.092128	17616.961333	1049.158203	59.608158
-13822.092128	17616.961333	1048.005859	80.359116
-13822.092128	17616.961333	1046.853516	43.449986
-13822.092128	17616.961333	1045.700195	186.535385
-13822.092128	17616.961333	1044.547852	29.358969
-13822.092128	17616.961333	1043.394531	182.381256
-13822.092128	17616.961333	1042.240234	206.078781
-13822.092128	17616.961333	1041.086914	341.763763
-13822.092128	17616.961333	1039.932617	112.946350
-13822.092128	17616.961333	1038.778320	360.290497
-13822.092128	17616.961333	1037.624023	242.960403
-13822.092128	17616.961333	1036.469727	106.310593
-13822.092128	17616.961333	1035.314453	263.588196
-13822.092128	17616.961333	1034.159180	312.747406
-13822.092128	17616.961333	1033.003906	254.914276
-13822.092128	17616.961333	1031.847656	533.308472
-13822.092128	17616.961333	1030.692383	475.230225
-13822.092128	17616.961333	1029.536133	355.387238
-13822.092128	17616.961333	1028.378906	540.519775
-13822.092128	17616.961333	1027.222656	615.110840
-13822.092128	17616.961333	1026.065430	610.995972
-13822.092128	17616.961333	1024.908203	591.773132
-13822.092128	17616.961333	1023.750977	398.105560
-13822.092128	17616.961333	1022.593750	389.380096
-13822.092128	17616.961333	1021.435547	259.281952
-13822.092128	17616.961333	1020.277344	209.757889
-13822.092128	17616.961333	1019.119141	184.846176
-13822.092128	17616.961333	1017.959961	31.563915
-13822.092128	17616.961333	1016.800781	95.525032
-13822.092128	17616.961333	1015.641602	42.018719
-13822.092128	17616.961333	1014.482422	28.241394
-13822.092128	17616.961333	1013.323242	147.791840
-13822.092128	17616.961333	1012.163086	-222.471191
-13822.092128	17616.961333	1011.002930	-85.982422
-13822.092128	17616.961333	1009.842773	-64.895996
-13822.092128	17616.961333	1008.681641	-28.637430
-13822.092128	17616.961333	1007.520508	23.248304
-13822.092128	17616.961333	1006.359375	199.418579
-13822.092128	17616.961333	1005.198242	116.248543
-13822.092128	17616.961333	1004.037109	153.328201
-13822.092128	17616.961333	1002.875000	238.535599
-13822.092128	17616.961333	1001.712891	370.287842
-13822.092128	17616.961333	1000.550781	397.518677
-13822.092128	17616.961333	999.387695	463.212555
-13822.092128	17616.961333	998.224609	461.171417
-13822.092128	17616.961333	997.061523	263.969635
-13822.092128	17616.961333	995.898438	329.647430
-13822.092128	17616.961333	994.734375	399.076782
-13822.092128	17616.961333	993.571289	209.752457
-13822.092128	17616.961333	992.407227	-14.554404
-13822.092128	17616.961333	991.242188	3.614277
-13822.092128	17616.961333	990.078125	76.866730
-13822.092128	17616.961333	988.913086	53.652630
-13822.092128	17616.961333	987.748047	180.826965
-13822.092128	17616.961333	986.583008	-20.223362
-13822.092128	17616.961333	985.416992	100.420280
-13822.092128	17616.961333	984.250977	301.309265
-13822.092128	17616.961333	983.084961	71.009224
-13822.092128	17616.961333	981.918945	188.199997
-13822.092128	17616.961333	980.751953	154.798172
-13822.092128	17616.961333	979.584961	4.477323
-13822.092128	17616.961333	978.417969	28.996412
-13822.092128	17616.961333	977.250977	51.762856
-13822.092128	17616.961333	976.083008	-170.521744
-13822.092128	17616.961333	974.915039	91.140556
-13822.092128	17616.961333	973.747070	18.747961
-13822.092128	17616.961333	972.579102	31.167860
-13822.092128	17616.961333	971.410156	-38.052551
-13822.092128	17616.961333	970.242188	127.825874
-13822.092128	17616.961333	969.072266	374.869080
-13822.092128	17616.961333	967.903320	65.300552
-13822.092128	17616.961333	966.733398	79.423363
-13822.092128	17616.961333	965.563477	238.829422
-13822.092128	17616.961333	964.393555	131.256210
-13822.092128	17616.961333	963.223633	116.351379
-13822.092128	17616.961333	962.052734	-0.200370
-13822.092128	17616.961333	960.881836	73.483978
-13822.092128	17616.961333	959.710938	241.097992
-13822.092128	17616.961333	958.540039	375.686768
-13822.092128	17616.961333	957.368164	243.549133
-13822.092128	17616.961333	956.196289	266.387604
-13822.092128	17616.961333	955.024414	48.599800
-13822.092128	17616.961333	953.851563	79.965935
-13822.092128	17616.961333	952.679688	11.766991
-13822.092128	17616.961333	951.506836	103.613922
-13822.092128	17616.961333	950.333984	58.057972
-13822.092128	17616.961333	949.160156	109.357758
-13822.092128	17616.961333	947.986328	100.776489
-13822.092128	17616.961333	946.812500	-27.947355
-13822.092128	17616.961333	945.638672	-158.836044
-13822.092128	17616.961333	944.464844	-125.071030
-13822.092128	17616.961333	943.290039	107.110092
-13822.092128	17616.961333	942.115234	-153.901413
-13822.092128	17616.961333	940.940430	119.826286
-13822.092128	17616.961333	939.764648	-239.018707
-13822.092128	17616.961333	938.588867	172.427612
-13822.092128	17616.961333	937.413086	138.738647
-13822.092128	17616.961333	936.237305	-174.723068
-13822.092128	17616.961333	935.060547	-16.039066
-13822.092128	17616.961333	933.883789	40.328556
-13822.092128	17616.961333	932.707031	6.646604
-13822.092128	17616.961333	931.530273	82.872292
-13822.092128	17616.961333	930.352539	186.486511
-13822.092128	17616.961333	929.175781	255.017303
-13822.092128	17616.961333	927.998047	6.444757
-13822.092128	17616.961333	926.819336	-17.374546
-13822.092128	17616.961333	925.641602	38.672531
-13822.092128	17616.961333	924.462891	-132.491669
-13822.092128	17616.961333	923.284180	115.703201
-13822.092128	17616.961333	922.104492	338.834534
-13822.092128	17616.961333	920.924805	137.699310
-13822.092128	17616.961333	919.746094	141.274216
-13822.092128	17616.961333	919.551758	-247.389847
-13822.092128	17616.961333	918.386719	-149.139023
-13822.092128	17616.961333	917.220703	-90.846954
-13822.092128	17616.961333	916.054688	-47.560349
-13822.092128	17616.961333	914.887695	-24.252731
-13822.092128	17616.961333	913.721680	-53.314449
-13822.092128	17616.961333	912.554688	67.104134
-13822.092128	17616.961333	911.387695	-79.085625
-13822.092128	17616.961333	910.220703	73.618408
-13822.092128	17616.961333	909.052734	32.020924
-13822.092128	17616.961333	907.885742	-94.228195
-13822.092128	17616.961333	906.717773	-168.176987
-13822.092128	17616.961333	905.548828	-164.975723
-13822.092128	17616.961333	904.380859	-82.186310
-13822.092128	17616.961333	903.211914	-61.637192
-13822.092128	17616.961333	902.042969	11.106592
-13822.092128	17616.961333	900.874023	198.173141
-13822.092128	17616.961333	899.704102	14.741955
-13822.092128	17616.961333	898.535156	-208.405884
-13822.092128	17616.961333	897.365234	-51.291409
-13822.092128	17616.961333	896.194336	-48.293419
-13822.092128	17616.961333	895.024414	-47.805553
-13822.092128	17616.961333	893.853516	-20.019852
-13822.092128	17616.961333	892.682617	-126.343002
-13822.092128	17616.961333	891.511719	20.558144
-13822.092128	17616.961333	890.340820	-63.435406
-13822.092128	17616.961333	889.168945	147.868393
-13822.092128	17616.961333	887.997070	113.459389
-13822.092128	17616.961333	886.825195	21.995928
-13822.092128	17616.961333	885.653320	37.182251
-13822.092128	17616.961333	884.480469	-91.457649
-13822.092128	17616.961333	883.307617	-128.348892
-13822.092128	17616.961333	882.134766	33.019409
-13822.092128	17616.961333	880.961914	149.701080
-13822.092128	17616.961333	879.788086	90.428062
-13822.092128	17616.961333	878.614258	88.125877
-13822.092128	17616.961333	877.440430	-92.488556
-13822.092128	17616.961333	876.266602	128.028259
-13822.092128	17616.961333	875.091797	29.125935
-13822.092128	17616.961333	873.916992	190.095306
-13822.092128	17616.961333	872.742188	61.489223
-13822.092128	17616.961333	871.567383	222.346863
-13822.092128	17616.961333	870.391602	177.841415
-13822.092128	17616.961333	869.215820	78.934662
-13822.092128	17616.961333	868.040039	249.523193
-13822.092128	17616.961333	866.864258	125.885445
-13822.092128	17616.961333	865.687500	56.649609
-13822.092128	17616.961333	864.510742	4.716971
-13822.092128	17616.961333	863.333984	2.192131
-13822.092128	17616.961333	862.157227	-27.518560
-13822.092128	17616.961333	860.979492	-136.246933
-13822.092128	17616.961333	859.802734	-10.426702
-13822.092128	17616.961333	858.625000	125.199249
-13822.092128	17616.961333	857.446289	-79.786995
-13822.092128	17616.961333	856.268555	1.481728
-13822.092128	17616.961333	855.089844	159.168671
-13822.092128	17616.961333	853.911133	-90.145058
-13822.092128	17616.961333	852.731445	-65.684006
-13822.092128	17616.961333	851.552734	163.353683
-13822.092128	17616.961333	850.373047	-9.455771
-13822.092128	17616.961333	849.193359	-36.828106
-13822.092128	17616.961333	848.013672	-71.597221
-13822.092128	17616.961333	846.833008	-17.696726
-13822.092128	17616.961333	845.652344	-57.414574
-13822.092128	17616.961333	844.471680	-138.990921
-13822.092128	17616.961333	843.291016	82.227615
-13822.092128	17616.961333	842.110352	74.453995
-13822.092128	17616.961333	840.928711	162.631485
-13822.092128	17616.961333	839.747070	-37.075668
-13822.092128	17616.961333	838.564453	144.519913
-13822.092128	17616.961333	837.382813	85.030968
-13822.092128	17616.961333	836.200195	94.391716
-13822.092128	17616.961333	835.017578	81.608269
-13822.092128	17616.961333	833.834961	-9.829085
-13822.092128	17616.961333	832.651367	1.951504
-13822.092128	17616.961333	831.467773	121.797981
-13822.092128	17616.961333	830.284180	-21.218323
-13822.092128	17616.961333	829.100586	162.393845
-13822.092128	17616.961333	827.916992	36.578880
-13822.092128	17616.961333	826.732422	124.344284
-13822.092128	17616.961333	825.547852	-79.972679
-13822.092128	17616.961333	824.363281	20.013763
-13822.092128	17616.961333	823.177734	-91.015083
-13822.092128	17616.961333	821.992188	57.949947
-13822.092128	17616.961333	820.806641	-53.075493
-13822.092128	17616.961333	819.621094	-115.041565
-13822.092128	17616.961333	818.434570	33.786667
-13822.092128	17616.961333	817.249023	-297.758850
-13822.092128	17616.961333	816.062500	-188.188766
-13822.092128	17616.961333	814.875000	43.795742
-13822.092128	17616.961333	813.688477	38.115551
-13822.092128	17616.961333	812.500977	-158.557434
-13822.092128	17616.961333	811.313477	105.048744
-13822.092128	17616.961333	810.125977	-76.905731
-13822.092128	17616.961333	808.937500	213.459473
-13822.092128	17616.961333	807.749023	129.382172
-13822.092128	17616.961333	806.560547	250.780334
-13822.092128	17616.961333	805.372070	51.762379
-13822.092128	17616.961333	804.182617	-49.392998
-13822.092128	17616.961333	802.994141	96.360306
-13822.092128	17616.961333	801.803711	-139.210007
-13822.092128	17616.961333	800.614258	-49.729057
-13822.092128	17616.961333	799.424805	-89.776573
-13822.092128	17616.961333	798.234375	-181.112000
-13822.092128	17616.961333	797.043945	-118.589211
-13822.092128	17616.961333	795.852539	83.050865
-13822.092128	17616.961333	794.662109	89.319351
-13822.092128	17616.961333	793.470703	-99.659187
-13822.092128	17616.961333	792.279297	50.562218
-13822.092128	17616.961333	791.087891	29.950350
-13822.092128	17616.961333	789.895508	-83.345177
-13822.092128	17616.961333	788.703125	25.277918
-13822.092128	17616.961333	787.510742	63.141876
-13822.092128	17616.961333	786.318359	-86.702545
-13822.092128	17616.961333	785.125000	-302.295227
-13822.092128	17616.961333	783.931641	-59.787781
-13822.092128	17616.961333	782.738281	-58.543488
-13822.092128	17616.961333	781.544922	203.260864
-13822.092128	17616.961333	780.350586	-22.021128
-13822.092128	17616.961333	779.156250	-35.443344
-13822.092128	17616.961333	777.961914	-17.238230
-13822.092128	17616.961333	776.767578	-45.290581
-13822.092128	17616.961333	775.572266	126.139854
-13822.092128	17616.961333	774.376953	-43.037857
-13822.092128	17616.961333	773.181641	-197.571793
-13822.092128	17616.961333	771.986328	27.218689
-13822.092128	17616.961333	770.790039	30.698765
-13822.092128	17616.961333	769.593750	109.497292
-13822.092128	17616.961333	768.397461	139.650360
-13822.092128	17616.961333	767.201172	36.163815
-13822.092128	17616.961333	766.003906	-84.297432
-13822.092128	17616.961333	764.806641	239.640640
-13822.092128	17616.961333	763.609375	73.022942
-13822.092128	17616.961333	762.412109	-23.153519
-13822.092128	17616.961333	761.213867	65.123795
-13822.092128	17616.961333	760.015625	121.804161
-13822.092128	17616.961333	758.817383	-81.107574
-13822.092128	17616.961333	757.618164	104.079781
-13822.092128	17616.961333	756.419922	-9.067090
-13822.092128	17616.961333	755.220703	103.264908
-13822.092128	17616.961333	754.021484	101.618866
-13822.092128	17616.961333	752.821289	126.609749
-13822.092128	17616.961333	751.621094	8.633226
-13822.092128	17616.961333	750.420898	157.127731
-13822.092128	17616.961333	749.220703	191.721146
-13822.092128	17616.961333	748.020508	-15.834596
-13822.092128	17616.961333	746.819336	13.902527
-13822.092128	17616.961333	745.618164	-28.995958
-13822.092128	17616.961333	744.416992	107.158386
-13822.092128	17616.961333	743.214844	-165.598694
-13822.092128	17616.961333	742.012695	120.444992
-13822.092128	17616.961333	740.810547	46.048199
-13822.092128	17616.961333	739.608398	-13.831106
-13822.092128	17616.961333	738.406250	93.076576
-13822.092128	17616.961333	737.203125	-5.491918
-13822.092128	17616.961333	736.000000	74.753815
-13822.092128	17616.961333	734.795898	210.505676
-13822.092128	17616.961333	733.592773	307.539886
-13822.092128	17616.961333	732.388672	392.441467
-13822.092128	17616.961333	731.184570	390.379761
-13822.092128	17616.961333	729.979492	407.608154
-13822.092128	17616.961333	728.775391	253.480133
-13822.092128	17616.961333	727.570313	280.341309
-13822.092128	17616.961333	726.365234	299.934387
-13822.092128	17616.961333	725.160156	51.815002
-13822.092128	17616.961333	723.954102	254.649506
-13822.092128	17616.961333	722.748047	298.283173
-13822.092128	17616.961333	721.541992	385.258972
-13822.092128	17616.961333	720.334961	450.492218
-13822.092128	17616.961333	719.128906	479.541809
-13822.092128	17616.961333	717.921875	563.957214
-13822.092128	17616.961333	716.714844	549.585693
-13822.092128	17616.961333	715.506836	491.866058
-13822.092128	17616.961333	714.298828	337.868286
-13822.092128	17616.961333	713.090820	532.861877
-13822.092128	17616.961333	711.882813	304.292114
-13822.092128	17616.961333	710.674805	63.771324
-13822.092128	17616.961333	709.465820	44.591717
-13822.092128	17616.961333	708.256836	-58.756718
-13822.092128	17616.961333	707.047852	68.701607
-13822.092128	17616.961333	705.837891	78.315483
-13822.092128	17616.961333	704.627930	-97.126205
-13822.092128	17616.961333	703.417969	299.279877
-13822.092128	17616.961333	702.208008	231.913635
-13822.092128	17616.961333	700.998047	80.503578
-13822.092128	17616.961333	699.787109	-32.446281
-13822.092128	17616.961333	698.576172	-145.370590
-13822.092128	17616.961333	697.364258	-6.269295
-13822.092128	17616.961333	696.153320	41.573360
-13822.092128	17616.961333	694.941406	305.282471
-13822.092128	17616.961333	693.729492	278.647095
-13822.092128	17616.961333	692.516602	263.991486
-13822.092128	17616.961333	691.304688	146.231689
-13822.092128	17616.961333	690.091797	78.836456
-13822.092128	17616.961333	688.878906	124.083206
-13822.092128	17616.961333	687.665039	301.067596
-13822.092128	17616.961333	686.451172	18.032923
-13822.092128	17616.961333	685.237305	285.932343
-13822.092128	17616.961333	684.023438	137.067688
-13822.092128	17616.961333	682.809570	378.456573
-13822.092128	17616.961333	681.594727	294.218109
-13822.092128	17616.961333	680.379883	353.570221
-13822.092128	17616.961333	679.165039	374.597961
-13822.092128	17616.961333	677.949219	553.464294
-13822.092128	17616.961333	676.733398	397.437988
-13822.092128	17616.961333	675.517578	284.494781
-13822.092128	17616.961333	674.301758	422.571289
-13822.092128	17616.961333	673.084961	364.597961
-13822.092128	17616.961333	671.869141	435.657471
-13822.092128	17616.961333	670.651367	461.278381
-13822.092128	17616.961333	669.434570	470.151093
-13822.092128	17616.961333	668.216797	340.502625
-13822.092128	17616.961333	667.000000	201.341583
-13822.092128	17616.961333	665.781250	393.995209
-13822.092128	17616.961333	664.563477	572.231201
-13822.092128	17616.961333	663.344727	437.823395
-13822.092128	17616.961333	662.125977	532.449036
-13822.092128	17616.961333	660.907227	486.309479
-13822.092128	17616.961333	659.688477	630.920471
-13822.092128	17616.961333	658.468750	858.887146
-13822.092128	17616.961333	657.249023	624.368347
-13822.092128	17616.961333	656.029297	511.455963
-13822.092128	17616.961333	654.808594	608.220032
-13822.092128	17616.961333	653.587891	564.396545
-13822.092128	17616.961333	652.367188	463.422119
-13822.092128	17616.961333	651.146484	291.046997
-13822.092128	17616.961333	649.924805	592.415344
-13822.092128	17616.961333	648.704102	277.262817
-13822.092128	17616.961333	647.482422	492.816956
-13822.092128	17616.961333	646.259766	410.909058
-13822.092128	17616.961333	645.037109	298.102325
-13822.092128	17616.961333	643.815430	106.858521
-13822.092128	17616.961333	642.591797	486.235626
-13822.092128	17616.961333	641.369141	333.030579
-13822.092128	17616.961333	640.145508	398.494324
-13822.092128	17616.961333	638.921875	437.781006
-13822.092128	17616.961333	637.698242	569.674072
-13822.092128	17616.961333	636.474609	653.998901
-13822.092128	17616.961333	635.250000	519.838135
-13822.092128	17616.961333	634.025391	328.748352
-13822.092128	17616.961333	632.800781	545.931885
-13822.092128	17616.961333	631.575195	561.321960
-13822.092128	17616.961333	630.349609	455.705566
-13822.092128	17616.961333	629.124023	575.439453
-13822.092128	17616.961333	627.898438	619.227966
-13822.092128	17616.961333	626.671875	470.951569
-13822.092128	17616.961333	625.445313	488.645355
-13822.092128	17616.961333	624.218750	522.907349
-13822.092128	17616.961333	622.992188	568.988708
-13822.092128	17616.961333	621.764648	541.606873
-13822.092128	17616.961333	620.537109	665.794006
-13822.092128	17616.961333	619.309570	309.260437
-13822.092128	17616.961333	618.081055	577.824036
-13822.092128	17616.961333	616.852539	396.578644
-13822.092128	17616.961333	615.624023	338.445465
-13822.092128	17616.961333	614.395508	249.572327
-13822.092128	17616.961333	613.166992	328.660675
-13822.092128	17616.961333	611.937500	473.917084
-13822.092128	17616.961333	610.708008	347.215698
-13822.092128	17616.961333	609.477539	338.744507
-13822.092128	17616.961333	608.248047	524.056335
-13822.092128	17616.961333	607.017578	139.859741
-13822.092128	17616.961333	605.787109	336.929382
-13822.092128	17616.961333	604.555664	276.477631
-13822.092128	17616.961333	603.325195	128.679382
-13822.092128	17616.961333	602.093750	306.718842
-13822.092128	17616.961333	600.861328	232.129562
-13822.092128	17616.961333	599.629883	443.095245
-13822.092128	17616.961333	598.397461	403.886017
-13822.092128	17616.961333	597.165039	279.773621
-13822.092128	17616.961333	595.932617	186.366806
-13822.092128	17616.961333	594.699219	456.084015
-13822.092128	17616.961333	593.465820	126.947983
-13822.092128	17616.961333	592.232422	309.355560
-13822.092128	17616.961333	590.999023	463.407684
-13822.092128	17616.961333	589.764648	275.812866
-13822.092128	17616.961333	588.530273	100.070389
-13822.092128	17616.961333	587.295898	275.251923
-13822.092128	17616.961333	586.061523	181.977951
-13822.092128	17616.961333	584.826172	368.832947
-13822.092128	17616.961333	583.590820	148.501755
-13822.092128	17616.961333	582.355469	180.003311
-13822.092128	17616.961333	581.119141	256.181824
-13822.092128	17616.961333	579.882813	-22.778811
-13822.092128	17616.961333	578.646484	203.888382
-13822.092128	17616.961333	577.410156	289.417175
-13822.092128	17616.961333	576.172852	250.350006
-13822.092128	17616.961333	574.935547	143.158875
-13822.092128	17616.961333	573.698242	198.110733
-13822.092128	17616.961333	572.460938	222.507706
-13822.092128	17616.961333	571.222656	256.288757
-13822.092128	17616.961333	569.984375	90.504898
-13822.092128	17616.961333	568.746094	46.849869
-13822.092128	17616.961333	567.506836	268.391541
-13822.092128	17616.961333	566.267578	65.181870
-13822.092128	17616.961333	565.028320	82.559128
-13822.092128	17616.961333	563.789063	36.613491
-13822.092128	17616.961333	562.548828	412.735077
-13822.092128	17616.961333	561.309570	298.767731
-13822.092128	17616.961333	560.068359	88.761963
-13822.092128	17616.961333	558.828125	185.809479
-13822.092128	17616.961333	557.586914	62.610130
-13822.092128	17616.961333	556.345703	54.236320
-13822.092128	17616.961333	555.104492	52.898315
-13822.092128	17616.961333	553.863281	60.933311
-13822.092128	17616.961333	552.621094	129.829102
-13822.092128	17616.961333	551.378906	-42.335140
-13822.092128	17616.961333	550.136719	35.928169
-13822.092128	17616.961333	548.893555	132.879257
-13822.092128	17616.961333	547.650391	-46.166397
-13822.092128	17616.961333	546.407227	-213.436111
-13822.092128	17616.961333	545.164063	-62.700184
-13822.092128	17616.961333	543.919922	-84.971809
-13822.092128	17616.961333	542.675781	-104.887764
-13822.092128	17616.961333	541.431641	-33.673447
-13822.092128	17616.961333	540.186523	-20.873335
-13822.092128	17616.961333	538.941406	36.299568
-13822.092128	17616.961333	537.696289	30.423525
-13822.092128	17616.961333	536.451172	-120.159554
-13822.092128	17616.961333	535.205078	-34.966816
-13822.092128	17616.961333	533.959961	171.525604
-13822.092128	17616.961333	532.712891	-102.592377
-13822.092128	17616.961333	531.466797	-271.632233
-13822.092128	17616.961333	530.219727	-135.141129
-13822.092128	17616.961333	528.972656	-31.334196
-13822.092128	17616.961333	527.725586	102.737747
-13822.092128	17616.961333	526.478516	13.065876
-13822.092128	17616.961333	525.230469	56.234516
-13822.092128	17616.961333	523.982422	29.520559
-13822.092128	17616.961333	522.734375	-85.661064
-13822.092128	17616.961333	521.485352	59.971188
-13822.092128	17616.961333	520.236328	-83.079338
-13822.092128	17616.961333	518.987305	-16.613598
-13822.092128	17616.961333	517.737305	-441.094269
-13822.092128	17616.961333	516.488281	-121.006805
-13822.092128	17616.961333	515.238281	-110.362335
-13822.092128	17616.961333	513.988281	-171.794403
-13822.092128	17616.961333	512.737305	-202.970825
-13822.092128	17616.961333	511.486328	-24.949074
-13822.092128	17616.961333	510.235352	-46.832085
-13822.092128	17616.961333	508.984375	84.630692
-13822.092128	17616.961333	507.732422	67.393387
-13822.092128	17616.961333	506.480469	-72.905334
-13822.092128	17616.961333	505.228516	0.456630
-13822.092128	17616.961333	503.976563	78.435738
-13822.092128	17616.961333	502.723633	10.182280
-13822.092128	17616.961333	501.470703	51.011490
-13822.092128	17616.961333	500.217773	-109.986526
-13822.092128	17616.961333	498.963867	-4.205521
-13822.092128	17616.961333	497.709961	-97.875343
-13822.092128	17616.961333	496.456055	-82.549568
-13822.092128	17616.961333	495.202148	-44.052322
-13822.092128	17616.961333	493.947266	-70.453331
-13822.092128	17616.961333	492.692383	-38.927959
-13822.092128	17616.961333	491.437500	-79.221375
-13822.092128	17616.961333	490.181641	61.122894
-13822.092128	17616.961333	488.926758	-67.159088
-13822.092128	17616.961333	487.670898	174.957932
-13822.092128	17616.961333	486.414063	55.948288
-13822.092128	17616.961333	485.158203	50.353542
-13822.092128	17616.961333	483.901367	-137.991684
-13822.092128	17616.961333	482.644531	-106.561989
-13822.092128	17616.961333	481.386719	84.383797
-13822.092128	17616.961333	480.128906	194.322098
-13822.092128	17616.961333	478.871094	-116.441078
-13822.092128	17616.961333	477.613281	118.238060
-13822.092128	17616.961333	476.355469	31.677080
-13822.092128	17616.961333	475.096680	125.288635
-13822.092128	17616.961333	473.837891	158.797897
-13822.092128	17616.961333	472.578125	-43.222527
-13822.092128	17616.961333	471.319336	-81.299904
-13822.092128	17616.961333	470.059570	2.917889
-13822.092128	17616.961333	468.799805	112.446793
-13822.092128	17616.961333	467.539063	127.317993
-13822.092128	17616.961333	466.278320	-56.189014
-13822.092128	17616.961333	465.017578	-22.917534
-13822.092128	17616.961333	463.756836	33.349598
-13822.092128	17616.961333	462.495117	250.878448
-13822.092128	17616.961333	461.233398	18.940435
-13822.092128	17616.961333	459.971680	160.258316
-13822.092128	17616.961333	458.709961	-20.992138
-13822.092128	17616.961333	457.447266	-6.487790
-13822.092128	17616.961333	456.184570	63.203678
-13822.092128	17616.961333	454.921875	-136.501053
-13822.092128	17616.961333	453.658203	32.012688
-13822.092128	17616.961333	452.394531	241.797165
-13822.092128	17616.961333	451.130859	271.998199
-13822.092128	17616.961333	449.867188	104.329910
-13822.092128	17616.961333	448.602539	95.301796
-13822.092128	17616.961333	447.337891	299.976624
-13822.092128	17616.961333	446.073242	334.402069
-13822.092128	17616.961333	444.807617	331.954315
-13822.092128	17616.961333	443.542969	451.167297
-13822.092128	17616.961333	442.276367	246.378326
-13822.092128	17616.961333	441.010742	349.273376
-13822.092128	17616.961333	439.744141	114.531723
-13822.092128	17616.961333	438.478516	315.880798
-13822.092128	17616.961333	437.210938	498.659332
-13822.092128	17616.961333	435.944336	222.375977
-13822.092128	17616.961333	434.676758	414.012512
-13822.092128	17616.961333	433.409180	217.861481
-13822.092128	17616.961333	432.141602	427.476959
-13822.092128	17616.961333	430.873047	384.698334
-13822.092128	17616.961333	429.604492	344.074890
-13822.092128	17616.961333	428.335938	642.421936
-13822.092128	17616.961333	427.067383	404.422699
-13822.092128	17616.961333	425.797852	301.477966
-13822.092128	17616.961333	424.528320	390.743317
-13822.092128	17616.961333	423.258789	438.574310
-13822.092128	17616.961333	421.988281	412.945038
-13822.092128	17616.961333	420.717773	654.859436
-13822.092128	17616.961333	419.447266	512.105347
-13822.092128	17616.961333	418.175781	346.319763
-13822.092128	17616.961333	416.905273	287.867218
-13822.092128	17616.961333	415.633789	236.062836
-13822.092128	17616.961333	414.362305	330.335266
-13822.092128	17616.961333	413.089844	298.619873
-13822.092128	17616.961333	411.817383	252.951721
-13822.092128	17616.961333	410.544922	159.066360
-13822.092128	17616.961333	409.272461	277.346619
-13822.092128	17616.961333	407.999023	319.935181
-13822.092128	17616.961333	406.725586	307.421692
-13822.092128	17616.961333	405.452148	358.518402
-13822.092128	17616.961333	404.177734	290.614685
-13822.092128	17616.961333	402.903320	220.136063
-13822.092128	17616.961333	401.628906	128.826340
-13822.092128	17616.961333	400.354492	135.269882
-13822.092128	17616.961333	399.079102	337.419464
-13822.092128	17616.961333	397.803711	231.394012
-13822.092128	17616.961333	396.528320	309.629700
-13822.092128	17616.961333	395.251953	61.619633
-13822.092128	17616.961333	393.976563	93.508919
-13822.092128	17616.961333	392.700195	131.794342
-13822.092128	17616.961333	391.422852	283.474487
-13822.092128	17616.961333	390.145508	125.053223
-13822.092128	17616.961333	388.869141	98.263924
-13822.092128	17616.961333	387.590820	127.886368
-13822.092128	17616.961333	386.313477	134.277557
-13822.092128	17616.961333	385.035156	83.300591
-13822.092128	17616.961333	383.756836	161.454681
-13822.092128	17616.961333	382.478516	168.574234
-13822.092128	17616.961333	381.199219	113.771294
-13822.092128	17616.961333	379.919922	287.959290
-13822.092128	17616.961333	378.640625	238.849655
-13822.092128	17616.961333	377.360352	386.783569
-13822.092128	17616.961333	376.080078	336.474518
-13822.092128	17616.961333	374.799805	22.192465
-13822.092128	17616.961333	373.519531	59.263683
-13822.092128	17616.961333	372.238281	61.610092
-13822.092128	17616.961333	370.957031	-61.511429
-13822.092128	17616.961333	369.675781	216.263367
-13822.092128	17616.961333	368.394531	275.479065
-13822.092128	17616.961333	367.112305	-60.623756
-13822.092128	17616.961333	365.830078	-18.729071
-13822.092128	17616.961333	364.546875	135.691833
-13822.092128	17616.961333	363.264648	-18.903458
-13822.092128	17616.961333	361.981445	-4.338272
-13822.092128	17616.961333	360.698242	77.347618
-13822.092128	17616.961333	359.414063	133.218903
-13822.092128	17616.961333	358.129883	77.255661
-13822.092128	17616.961333	356.845703	90.596519
-13822.092128	17616.961333	355.561523	50.966557
-13822.092128	17616.961333	354.276367	-77.849380
-13822.092128	17616.961333	352.991211	-58.269741
-13822.092128	17616.961333	351.706055	188.738800
-13822.092128	17616.961333	350.420898	118.072395
-13822.092128	17616.961333	349.134766	-109.608109
-13822.092128	17616.961333	347.848633	64.055275
-13822.092128	17616.961333	346.561523	-102.419846
-13822.092128	17616.961333	345.275391	41.856335
-13822.092128	17616.961333	343.988281	-95.173798
-13822.092128	17616.961333	342.700195	-68.497551
-13822.092128	17616.961333	341.413086	6.671045
-13822.092128	17616.961333	340.125000	-95.511711
-13822.092128	17616.961333	338.836914	-187.621170
-13822.092128	17616.961333	337.548828	-172.676346
-13822.092128	17616.961333	336.259766	224.381622
-13822.092128	17616.961333	334.970703	-25.071260
-13822.092128	17616.961333	333.681641	-11.990284
-13822.092128	17616.961333	332.391602	-237.057693
-13822.092128	17616.961333	331.101563	-271.903107
-13822.092128	17616.961333	329.811523	-35.566532
-13822.092128	17616.961333	328.521484	-127.491936
-13822.092128	17616.961333	327.230469	62.820057
-13822.092128	17616.961333	325.939453	-194.383270
-13822.092128	17616.961333	324.648438	-115.398277
-13822.092128	17616.961333	323.356445	-33.645210
-13822.092128	17616.961333	322.064453	-106.639854
-13822.092128	17616.961333	320.772461	-19.345572
-13822.092128	17616.961333	319.480469	-125.047661
-13822.092128	17616.961333	318.187500	-113.374413
-13822.092128	17616.961333	316.894531	76.313087
-13822.092128	17616.961333	315.601563	97.689400
-13822.092128	17616.961333	314.307617	67.630623
-13822.092128	17616.961333	313.013672	242.321564
-13822.092128	17616.961333	311.719727	174.560623
-13822.092128	17616.961333	310.425781	223.801712
-13822.092128	17616.961333	309.130859	237.175583
-13822.092128	17616.961333	307.835938	360.638519
-13822.092128	17616.961333	306.541016	-5.184008
-13822.092128	17616.961333	305.245117	398.751434
-13822.092128	17616.961333	303.949219	169.815598
-13822.092128	17616.961333	302.653320	290.781006
-13822.092128	17616.961333	301.356445	321.777161
-13822.092128	17616.961333	300.060547	626.153442
-13822.092128	17616.961333	298.763672	602.819519
