#X		#Y		#Wave		#Intensity
2930.207287	5615.541500	1999.980469	-52.265884
2930.207287	5615.541500	1999.016602	4.708393
2930.207287	5615.541500	1998.052734	-33.879883
2930.207287	5615.541500	1997.087891	-137.049866
2930.207287	5615.541500	1996.123047	-180.878479
2930.207287	5615.541500	1995.158203	-110.894493
2930.207287	5615.541500	1994.193359	60.460579
2930.207287	5615.541500	1993.228516	48.362762
2930.207287	5615.541500	1992.262695	130.213364
2930.207287	5615.541500	1991.297852	80.704483
2930.207287	5615.541500	1990.332031	-20.886171
2930.207287	5615.541500	1989.366211	132.306549
2930.207287	5615.541500	1988.399414	131.936874
2930.207287	5615.541500	1987.433594	49.826313
2930.207287	5615.541500	1986.466797	-10.104333
2930.207287	5615.541500	1985.500977	51.040882
2930.207287	5615.541500	1984.534180	57.676704
2930.207287	5615.541500	1983.567383	32.081863
2930.207287	5615.541500	1982.599609	70.658302
2930.207287	5615.541500	1981.632813	49.833561
2930.207287	5615.541500	1980.665039	-104.463676
2930.207287	5615.541500	1979.697266	32.661491
2930.207287	5615.541500	1978.729492	-52.586891
2930.207287	5615.541500	1977.761719	22.606459
2930.207287	5615.541500	1976.792969	-35.594921
2930.207287	5615.541500	1975.825195	59.178711
2930.207287	5615.541500	1974.856445	52.684597
2930.207287	5615.541500	1973.887695	1.727635
2930.207287	5615.541500	1972.918945	-17.199177
2930.207287	5615.541500	1971.949219	-9.042938
2930.207287	5615.541500	1970.980469	77.966095
2930.207287	5615.541500	1970.010742	105.729645
2930.207287	5615.541500	1969.041016	64.424988
2930.207287	5615.541500	1968.071289	-33.585236
2930.207287	5615.541500	1967.101563	87.691925
2930.207287	5615.541500	1966.130859	1.957995
2930.207287	5615.541500	1965.161133	51.689713
2930.207287	5615.541500	1964.190430	199.873260
2930.207287	5615.541500	1963.219727	3.283287
2930.207287	5615.541500	1962.249023	45.518261
2930.207287	5615.541500	1961.277344	85.252319
2930.207287	5615.541500	1960.306641	220.919098
2930.207287	5615.541500	1959.334961	7.160369
2930.207287	5615.541500	1958.363281	2.546423
2930.207287	5615.541500	1957.391602	174.990768
2930.207287	5615.541500	1956.419922	-1.802608
2930.207287	5615.541500	1955.447266	-48.246559
2930.207287	5615.541500	1954.474609	52.794407
2930.207287	5615.541500	1953.501953	104.639275
2930.207287	5615.541500	1952.529297	114.688515
2930.207287	5615.541500	1951.556641	218.079346
2930.207287	5615.541500	1950.583984	61.077324
2930.207287	5615.541500	1949.610352	157.065079
2930.207287	5615.541500	1948.636719	71.329117
2930.207287	5615.541500	1947.663086	-58.560516
2930.207287	5615.541500	1946.689453	86.481812
2930.207287	5615.541500	1945.715820	-13.912930
2930.207287	5615.541500	1944.741211	-16.132421
2930.207287	5615.541500	1943.767578	-30.610165
2930.207287	5615.541500	1942.792969	104.522346
2930.207287	5615.541500	1941.818359	43.448635
2930.207287	5615.541500	1940.842773	129.498108
2930.207287	5615.541500	1939.868164	-88.414383
2930.207287	5615.541500	1938.892578	-230.267654
2930.207287	5615.541500	1937.916992	-14.330570
2930.207287	5615.541500	1936.941406	-82.634270
2930.207287	5615.541500	1935.965820	84.228531
2930.207287	5615.541500	1934.990234	45.338406
2930.207287	5615.541500	1934.013672	-44.942814
2930.207287	5615.541500	1933.037109	-93.564941
2930.207287	5615.541500	1932.060547	9.586142
2930.207287	5615.541500	1931.083984	34.406261
2930.207287	5615.541500	1930.107422	46.996761
2930.207287	5615.541500	1929.129883	-60.264088
2930.207287	5615.541500	1928.153320	-86.764992
2930.207287	5615.541500	1927.175781	13.905079
2930.207287	5615.541500	1926.198242	-51.690407
2930.207287	5615.541500	1925.219727	-146.580017
2930.207287	5615.541500	1924.242188	-60.578526
2930.207287	5615.541500	1923.263672	8.299780
2930.207287	5615.541500	1922.285156	45.408188
2930.207287	5615.541500	1921.306641	70.303749
2930.207287	5615.541500	1920.328125	-114.808586
2930.207287	5615.541500	1919.349609	12.677483
2930.207287	5615.541500	1918.370117	-96.656425
2930.207287	5615.541500	1917.391602	-113.193367
2930.207287	5615.541500	1916.412109	-68.707962
2930.207287	5615.541500	1915.431641	61.162354
2930.207287	5615.541500	1914.452148	-28.536943
2930.207287	5615.541500	1913.472656	-10.884517
2930.207287	5615.541500	1912.492188	60.415504
2930.207287	5615.541500	1911.511719	-12.136126
2930.207287	5615.541500	1910.531250	-33.464149
2930.207287	5615.541500	1909.550781	-105.951332
2930.207287	5615.541500	1908.569336	74.995972
2930.207287	5615.541500	1907.588867	9.841858
2930.207287	5615.541500	1906.607422	73.807266
2930.207287	5615.541500	1905.625977	57.396164
2930.207287	5615.541500	1904.644531	-5.261168
2930.207287	5615.541500	1903.662109	27.046532
2930.207287	5615.541500	1902.680664	-81.811081
2930.207287	5615.541500	1901.698242	57.577328
2930.207287	5615.541500	1900.715820	-77.997795
2930.207287	5615.541500	1899.733398	-118.653336
2930.207287	5615.541500	1898.750000	-222.522842
2930.207287	5615.541500	1897.767578	-46.724594
2930.207287	5615.541500	1896.784180	-14.423959
2930.207287	5615.541500	1895.800781	-84.220261
2930.207287	5615.541500	1894.817383	-0.889650
2930.207287	5615.541500	1893.833984	65.401093
2930.207287	5615.541500	1892.850586	-4.372259
2930.207287	5615.541500	1891.866211	149.327545
2930.207287	5615.541500	1890.881836	-17.573997
2930.207287	5615.541500	1889.897461	-21.748125
2930.207287	5615.541500	1888.913086	22.623171
2930.207287	5615.541500	1887.927734	-59.230541
2930.207287	5615.541500	1886.943359	16.664591
2930.207287	5615.541500	1885.958008	-57.892616
2930.207287	5615.541500	1884.972656	-59.661285
2930.207287	5615.541500	1883.987305	-8.084691
2930.207287	5615.541500	1883.001953	77.409019
2930.207287	5615.541500	1882.015625	44.071281
2930.207287	5615.541500	1881.029297	64.057510
2930.207287	5615.541500	1880.042969	86.447342
2930.207287	5615.541500	1879.056641	62.780384
2930.207287	5615.541500	1878.070313	5.193881
2930.207287	5615.541500	1877.083984	247.939331
2930.207287	5615.541500	1876.096680	144.298309
2930.207287	5615.541500	1875.109375	93.942398
2930.207287	5615.541500	1874.122070	94.419945
2930.207287	5615.541500	1873.134766	31.954105
2930.207287	5615.541500	1872.146484	-30.509073
2930.207287	5615.541500	1871.159180	47.347324
2930.207287	5615.541500	1870.170898	-32.070499
2930.207287	5615.541500	1869.182617	-22.002520
2930.207287	5615.541500	1868.194336	181.469238
2930.207287	5615.541500	1867.205078	-18.874846
2930.207287	5615.541500	1866.216797	53.951309
2930.207287	5615.541500	1865.227539	-59.351414
2930.207287	5615.541500	1864.238281	-37.339287
2930.207287	5615.541500	1863.249023	-73.339462
2930.207287	5615.541500	1862.259766	132.161743
2930.207287	5615.541500	1861.269531	-10.166808
2930.207287	5615.541500	1860.279297	108.267189
2930.207287	5615.541500	1859.290039	2.139619
2930.207287	5615.541500	1858.298828	-19.517147
2930.207287	5615.541500	1857.308594	-2.592400
2930.207287	5615.541500	1856.318359	-46.022285
2930.207287	5615.541500	1855.327148	158.962967
2930.207287	5615.541500	1854.335938	-63.012402
2930.207287	5615.541500	1853.344727	11.622408
2930.207287	5615.541500	1852.353516	-63.271248
2930.207287	5615.541500	1851.362305	-39.359848
2930.207287	5615.541500	1850.370117	73.659897
2930.207287	5615.541500	1849.377930	160.091614
2930.207287	5615.541500	1848.385742	126.004684
2930.207287	5615.541500	1847.393555	176.179428
2930.207287	5615.541500	1846.401367	91.445480
2930.207287	5615.541500	1845.408203	237.812485
2930.207287	5615.541500	1844.415039	-32.338543
2930.207287	5615.541500	1843.421875	104.274208
2930.207287	5615.541500	1842.428711	41.077560
2930.207287	5615.541500	1841.435547	153.467606
2930.207287	5615.541500	1840.441406	-1.216635
2930.207287	5615.541500	1839.448242	86.988136
2930.207287	5615.541500	1838.454102	112.591873
2930.207287	5615.541500	1837.459961	191.016495
2930.207287	5615.541500	1836.464844	-16.650133
2930.207287	5615.541500	1835.470703	83.284752
2930.207287	5615.541500	1834.475586	82.217903
2930.207287	5615.541500	1833.480469	-55.823029
2930.207287	5615.541500	1832.485352	142.353027
2930.207287	5615.541500	1831.490234	198.727188
2930.207287	5615.541500	1830.495117	161.392883
2930.207287	5615.541500	1829.499023	284.824890
2930.207287	5615.541500	1828.502930	156.170776
2930.207287	5615.541500	1827.506836	89.884842
2930.207287	5615.541500	1826.510742	160.296906
2930.207287	5615.541500	1825.513672	-2.032552
2930.207287	5615.541500	1824.517578	-42.066635
2930.207287	5615.541500	1823.520508	32.927155
2930.207287	5615.541500	1822.523438	45.501621
2930.207287	5615.541500	1821.526367	232.956833
2930.207287	5615.541500	1820.529297	53.659794
2930.207287	5615.541500	1819.531250	46.849831
2930.207287	5615.541500	1818.533203	198.060043
2930.207287	5615.541500	1817.535156	-29.237593
2930.207287	5615.541500	1816.537109	-45.817142
2930.207287	5615.541500	1815.539063	-50.492733
2930.207287	5615.541500	1814.540039	47.676373
2930.207287	5615.541500	1813.541992	219.921524
2930.207287	5615.541500	1812.542969	73.815201
2930.207287	5615.541500	1811.543945	-62.742271
2930.207287	5615.541500	1810.543945	-15.170255
2930.207287	5615.541500	1809.544922	72.962440
2930.207287	5615.541500	1808.544922	19.927469
2930.207287	5615.541500	1807.544922	-42.725567
2930.207287	5615.541500	1806.544922	90.534546
2930.207287	5615.541500	1805.544922	249.948990
2930.207287	5615.541500	1804.544922	136.886414
2930.207287	5615.541500	1803.543945	9.451918
2930.207287	5615.541500	1802.542969	154.221909
2930.207287	5615.541500	1801.541992	136.501099
2930.207287	5615.541500	1800.541016	75.737785
2930.207287	5615.541500	1799.539063	12.525084
2930.207287	5615.541500	1798.538086	44.708096
2930.207287	5615.541500	1797.536133	-1.938650
2930.207287	5615.541500	1796.534180	-29.567211
2930.207287	5615.541500	1795.532227	-2.416734
2930.207287	5615.541500	1794.529297	86.630005
2930.207287	5615.541500	1793.527344	-36.609383
2930.207287	5615.541500	1792.524414	18.872330
2930.207287	5615.541500	1791.521484	-37.755661
2930.207287	5615.541500	1790.518555	27.065908
2930.207287	5615.541500	1789.514648	196.587708
2930.207287	5615.541500	1788.511719	3.944169
2930.207287	5615.541500	1787.507813	-143.473969
2930.207287	5615.541500	1786.503906	123.338417
2930.207287	5615.541500	1785.500000	194.773682
2930.207287	5615.541500	1784.496094	92.360878
2930.207287	5615.541500	1783.491211	49.380558
2930.207287	5615.541500	1782.486328	32.498390
2930.207287	5615.541500	1781.481445	101.161934
2930.207287	5615.541500	1780.476563	-56.208069
2930.207287	5615.541500	1779.471680	19.403357
2930.207287	5615.541500	1778.465820	71.119186
2930.207287	5615.541500	1777.460938	-0.857796
2930.207287	5615.541500	1776.455078	64.922546
2930.207287	5615.541500	1775.449219	-102.244064
2930.207287	5615.541500	1774.442383	-136.420944
2930.207287	5615.541500	1773.436523	40.702805
2930.207287	5615.541500	1772.429688	132.181213
2930.207287	5615.541500	1771.422852	47.855827
2930.207287	5615.541500	1770.416016	-62.636192
2930.207287	5615.541500	1769.409180	57.018135
2930.207287	5615.541500	1768.402344	-20.395540
2930.207287	5615.541500	1767.394531	-12.476206
2930.207287	5615.541500	1766.386719	35.670406
2930.207287	5615.541500	1765.378906	-15.887296
2930.207287	5615.541500	1764.371094	-17.726408
2930.207287	5615.541500	1763.362305	-24.403227
2930.207287	5615.541500	1762.354492	23.349768
2930.207287	5615.541500	1761.345703	78.095642
2930.207287	5615.541500	1760.336914	-47.319584
2930.207287	5615.541500	1759.328125	68.823952
2930.207287	5615.541500	1758.318359	78.257195
2930.207287	5615.541500	1757.308594	-68.673042
2930.207287	5615.541500	1756.299805	37.670433
2930.207287	5615.541500	1755.290039	-95.174156
2930.207287	5615.541500	1754.279297	-140.509125
2930.207287	5615.541500	1753.269531	116.930779
2930.207287	5615.541500	1752.258789	182.571487
2930.207287	5615.541500	1751.249023	4.509172
2930.207287	5615.541500	1750.238281	8.489772
2930.207287	5615.541500	1749.226563	-96.377808
2930.207287	5615.541500	1748.215820	91.810738
2930.207287	5615.541500	1747.204102	116.768204
2930.207287	5615.541500	1746.193359	11.684397
2930.207287	5615.541500	1745.181641	-76.919113
2930.207287	5615.541500	1744.168945	-21.510984
2930.207287	5615.541500	1743.157227	-79.550308
2930.207287	5615.541500	1742.144531	60.658375
2930.207287	5615.541500	1741.132813	-35.316338
2930.207287	5615.541500	1740.120117	-77.067863
2930.207287	5615.541500	1739.106445	-41.031120
2930.207287	5615.541500	1738.093750	-120.683357
2930.207287	5615.541500	1737.080078	162.842972
2930.207287	5615.541500	1736.067383	-148.098465
2930.207287	5615.541500	1735.053711	14.906945
2930.207287	5615.541500	1734.040039	5.677913
2930.207287	5615.541500	1733.025391	118.919289
2930.207287	5615.541500	1732.011719	19.960958
2930.207287	5615.541500	1730.997070	-48.423622
2930.207287	5615.541500	1729.982422	-57.975468
2930.207287	5615.541500	1728.967773	125.514435
2930.207287	5615.541500	1727.952148	61.602169
2930.207287	5615.541500	1726.937500	47.082310
2930.207287	5615.541500	1725.921875	58.368729
2930.207287	5615.541500	1724.906250	-43.389015
2930.207287	5615.541500	1723.890625	50.101143
2930.207287	5615.541500	1722.875000	-18.840397
2930.207287	5615.541500	1721.858398	29.753717
2930.207287	5615.541500	1720.841797	-119.276680
2930.207287	5615.541500	1719.825195	67.875648
2930.207287	5615.541500	1718.808594	-41.298435
2930.207287	5615.541500	1717.791992	-75.301735
2930.207287	5615.541500	1716.774414	-67.083687
2930.207287	5615.541500	1715.756836	67.916641
2930.207287	5615.541500	1714.739258	5.489956
2930.207287	5615.541500	1713.721680	-87.515923
2930.207287	5615.541500	1712.704102	77.712189
2930.207287	5615.541500	1711.685547	-13.081582
2930.207287	5615.541500	1710.667969	-155.535355
2930.207287	5615.541500	1709.649414	96.206566
2930.207287	5615.541500	1708.630859	75.630943
2930.207287	5615.541500	1707.611328	73.747307
2930.207287	5615.541500	1706.592773	-228.382187
2930.207287	5615.541500	1705.573242	-7.591787
2930.207287	5615.541500	1704.553711	-7.320210
2930.207287	5615.541500	1703.534180	-0.084767
2930.207287	5615.541500	1702.513672	-164.000198
2930.207287	5615.541500	1701.494141	9.481632
2930.207287	5615.541500	1700.473633	96.146553
2930.207287	5615.541500	1699.453125	72.635757
2930.207287	5615.541500	1698.432617	-56.301899
2930.207287	5615.541500	1697.412109	-42.441982
2930.207287	5615.541500	1696.390625	57.945702
2930.207287	5615.541500	1695.369141	-52.391430
2930.207287	5615.541500	1694.347656	38.478111
2930.207287	5615.541500	1693.326172	98.841301
2930.207287	5615.541500	1692.304688	-11.619370
2930.207287	5615.541500	1691.282227	121.093147
2930.207287	5615.541500	1690.260742	174.217728
2930.207287	5615.541500	1689.238281	75.309616
2930.207287	5615.541500	1688.214844	93.227928
2930.207287	5615.541500	1687.192383	66.700134
2930.207287	5615.541500	1686.168945	210.660614
2930.207287	5615.541500	1685.146484	247.079681
2930.207287	5615.541500	1684.123047	117.611267
2930.207287	5615.541500	1683.099609	48.848213
2930.207287	5615.541500	1682.075195	176.140244
2930.207287	5615.541500	1681.051758	195.983963
2930.207287	5615.541500	1680.027344	353.436279
2930.207287	5615.541500	1679.002930	188.814835
2930.207287	5615.541500	1677.978516	332.117157
2930.207287	5615.541500	1676.953125	365.692810
2930.207287	5615.541500	1675.928711	287.300018
2930.207287	5615.541500	1674.903320	218.205353
2930.207287	5615.541500	1673.877930	237.665588
2930.207287	5615.541500	1672.852539	261.736908
2930.207287	5615.541500	1671.826172	197.206665
2930.207287	5615.541500	1670.800781	211.876984
2930.207287	5615.541500	1669.774414	354.585358
2930.207287	5615.541500	1668.748047	266.670319
2930.207287	5615.541500	1667.721680	390.611420
2930.207287	5615.541500	1666.694336	237.460526
2930.207287	5615.541500	1665.667969	400.850159
2930.207287	5615.541500	1664.640625	475.711304
2930.207287	5615.541500	1663.613281	594.709839
2930.207287	5615.541500	1662.585938	678.742188
2930.207287	5615.541500	1661.557617	674.329041
2930.207287	5615.541500	1660.530273	576.900024
2930.207287	5615.541500	1659.501953	658.456116
2930.207287	5615.541500	1658.473633	567.968018
2930.207287	5615.541500	1657.444336	649.424133
2930.207287	5615.541500	1656.416016	621.644775
2930.207287	5615.541500	1655.386719	658.873047
2930.207287	5615.541500	1654.358398	489.392487
2930.207287	5615.541500	1653.328125	549.788635
2930.207287	5615.541500	1652.298828	714.614624
2930.207287	5615.541500	1651.269531	788.839233
2930.207287	5615.541500	1650.239258	985.986694
2930.207287	5615.541500	1649.208984	770.068909
2930.207287	5615.541500	1648.178711	983.342896
2930.207287	5615.541500	1647.148438	834.727539
2930.207287	5615.541500	1646.117188	864.680786
2930.207287	5615.541500	1645.086914	1311.906128
2930.207287	5615.541500	1644.055664	1174.841919
2930.207287	5615.541500	1643.024414	1223.206909
2930.207287	5615.541500	1641.992188	1236.772583
2930.207287	5615.541500	1640.960938	1252.651733
2930.207287	5615.541500	1639.928711	1314.820679
2930.207287	5615.541500	1638.896484	1265.809692
2930.207287	5615.541500	1637.864258	1244.589844
2930.207287	5615.541500	1636.832031	1339.105347
2930.207287	5615.541500	1635.798828	1347.937256
2930.207287	5615.541500	1634.766602	1484.031372
2930.207287	5615.541500	1633.733398	1472.003418
2930.207287	5615.541500	1632.699219	1487.716797
2930.207287	5615.541500	1631.666016	1600.557007
2930.207287	5615.541500	1630.632813	1660.177979
2930.207287	5615.541500	1629.598633	1590.316895
2930.207287	5615.541500	1628.564453	1686.880371
2930.207287	5615.541500	1627.530273	1979.812866
2930.207287	5615.541500	1626.495117	1919.162842
2930.207287	5615.541500	1625.460938	1786.953613
2930.207287	5615.541500	1624.425781	1899.570313
2930.207287	5615.541500	1623.390625	1917.487915
2930.207287	5615.541500	1622.355469	2117.767090
2930.207287	5615.541500	1621.319336	2057.167480
2930.207287	5615.541500	1620.284180	2195.058594
2930.207287	5615.541500	1619.248047	2314.436279
2930.207287	5615.541500	1618.211914	2270.011719
2930.207287	5615.541500	1617.174805	2140.276123
2930.207287	5615.541500	1616.138672	2411.807861
2930.207287	5615.541500	1615.101563	2346.670410
2930.207287	5615.541500	1614.065430	2293.111816
2930.207287	5615.541500	1613.027344	2463.085205
2930.207287	5615.541500	1611.990234	2812.726318
2930.207287	5615.541500	1610.953125	2911.175293
2930.207287	5615.541500	1609.915039	2733.233643
2930.207287	5615.541500	1608.876953	2608.339844
2930.207287	5615.541500	1607.838867	2693.007813
2930.207287	5615.541500	1606.800781	2823.698486
2930.207287	5615.541500	1605.761719	2708.120850
2930.207287	5615.541500	1604.723633	2898.626465
2930.207287	5615.541500	1603.684570	2681.917480
2930.207287	5615.541500	1602.644531	2642.395020
2930.207287	5615.541500	1601.605469	2596.030518
2930.207287	5615.541500	1600.566406	2671.559326
2930.207287	5615.541500	1599.526367	2767.761719
2930.207287	5615.541500	1598.486328	2684.709473
2930.207287	5615.541500	1597.446289	2783.232178
2930.207287	5615.541500	1596.405273	2819.713867
2930.207287	5615.541500	1595.365234	2837.854736
2930.207287	5615.541500	1594.324219	2980.009521
2930.207287	5615.541500	1593.283203	2835.167480
2930.207287	5615.541500	1592.242188	2926.842041
2930.207287	5615.541500	1591.200195	2768.359375
2930.207287	5615.541500	1590.159180	2963.340332
2930.207287	5615.541500	1589.117188	2981.632324
2930.207287	5615.541500	1588.075195	3178.856445
2930.207287	5615.541500	1587.032227	3144.427734
2930.207287	5615.541500	1585.990234	3176.556152
2930.207287	5615.541500	1584.947266	3165.149902
2930.207287	5615.541500	1583.904297	3229.422852
2930.207287	5615.541500	1582.861328	3183.732422
2930.207287	5615.541500	1581.818359	3115.198486
2930.207287	5615.541500	1580.775391	3113.161133
2930.207287	5615.541500	1579.731445	3159.250977
2930.207287	5615.541500	1578.687500	3246.584229
2930.207287	5615.541500	1577.643555	2995.148193
2930.207287	5615.541500	1576.598633	2942.962646
2930.207287	5615.541500	1575.554688	2883.996338
2930.207287	5615.541500	1574.509766	3108.776855
2930.207287	5615.541500	1573.464844	2953.831299
2930.207287	5615.541500	1572.419922	3215.208008
2930.207287	5615.541500	1571.374023	3135.853516
2930.207287	5615.541500	1570.329102	3134.321289
2930.207287	5615.541500	1569.283203	3281.392578
2930.207287	5615.541500	1568.237305	3581.564941
2930.207287	5615.541500	1567.191406	3385.919189
2930.207287	5615.541500	1566.144531	3423.383057
2930.207287	5615.541500	1565.098633	3303.330078
2930.207287	5615.541500	1564.051758	3370.601318
2930.207287	5615.541500	1563.004883	3364.860596
2930.207287	5615.541500	1561.957031	3573.716309
2930.207287	5615.541500	1560.910156	3401.486328
2930.207287	5615.541500	1559.862305	3329.762695
2930.207287	5615.541500	1558.814453	3233.042969
2930.207287	5615.541500	1557.766602	3476.234375
2930.207287	5615.541500	1556.718750	3377.379639
2930.207287	5615.541500	1555.669922	3709.479980
2930.207287	5615.541500	1554.621094	3663.168701
2930.207287	5615.541500	1553.573242	3591.889893
2930.207287	5615.541500	1552.523438	3614.100830
2930.207287	5615.541500	1551.474609	3743.446533
2930.207287	5615.541500	1550.424805	3822.700684
2930.207287	5615.541500	1549.375000	3469.369385
2930.207287	5615.541500	1548.325195	3405.371826
2930.207287	5615.541500	1547.275391	3380.169189
2930.207287	5615.541500	1546.225586	3188.929688
2930.207287	5615.541500	1545.174805	3132.068604
2930.207287	5615.541500	1544.124023	3232.266357
2930.207287	5615.541500	1543.073242	3123.266357
2930.207287	5615.541500	1542.022461	3232.677734
2930.207287	5615.541500	1540.970703	2841.968018
2930.207287	5615.541500	1539.919922	3022.014160
2930.207287	5615.541500	1538.868164	2997.535156
2930.207287	5615.541500	1537.815430	3207.159668
2930.207287	5615.541500	1536.763672	3107.855713
2930.207287	5615.541500	1535.710938	3142.662354
2930.207287	5615.541500	1534.659180	2995.892090
2930.207287	5615.541500	1533.606445	2921.902832
2930.207287	5615.541500	1532.552734	3147.635254
2930.207287	5615.541500	1531.500000	3080.625244
2930.207287	5615.541500	1530.446289	2927.500244
2930.207287	5615.541500	1529.393555	2674.718506
2930.207287	5615.541500	1528.338867	2923.340576
2930.207287	5615.541500	1527.285156	2967.879395
2930.207287	5615.541500	1526.231445	2717.764160
2930.207287	5615.541500	1525.176758	2551.694336
2930.207287	5615.541500	1524.122070	2161.424805
2930.207287	5615.541500	1523.067383	2038.762329
2930.207287	5615.541500	1522.012695	1793.911987
2930.207287	5615.541500	1520.957031	1759.876221
2930.207287	5615.541500	1519.901367	1524.412476
2930.207287	5615.541500	1518.845703	1612.885254
2930.207287	5615.541500	1517.790039	1490.908447
2930.207287	5615.541500	1516.734375	1407.545898
2930.207287	5615.541500	1515.677734	1213.433716
2930.207287	5615.541500	1514.621094	1109.981934
2930.207287	5615.541500	1513.564453	1115.230835
2930.207287	5615.541500	1512.507813	928.363647
2930.207287	5615.541500	1511.450195	960.962952
2930.207287	5615.541500	1510.393555	787.957520
2930.207287	5615.541500	1509.335938	741.668640
2930.207287	5615.541500	1508.278320	677.420715
2930.207287	5615.541500	1507.219727	649.434448
2930.207287	5615.541500	1506.162109	644.152405
2930.207287	5615.541500	1505.103516	460.569489
2930.207287	5615.541500	1504.044922	550.344604
2930.207287	5615.541500	1502.986328	610.840454
2930.207287	5615.541500	1501.926758	617.242004
2930.207287	5615.541500	1500.868164	524.469360
2930.207287	5615.541500	1499.808594	501.761536
2930.207287	5615.541500	1498.749023	416.013214
2930.207287	5615.541500	1497.688477	497.267212
2930.207287	5615.541500	1496.628906	583.106812
2930.207287	5615.541500	1495.568359	407.530640
2930.207287	5615.541500	1494.507813	193.814697
2930.207287	5615.541500	1493.447266	74.924149
2930.207287	5615.541500	1492.386719	199.488144
2930.207287	5615.541500	1491.325195	8.771764
2930.207287	5615.541500	1490.263672	-44.396606
2930.207287	5615.541500	1489.202148	26.391474
2930.207287	5615.541500	1488.140625	-4.038575
2930.207287	5615.541500	1487.079102	-11.843767
2930.207287	5615.541500	1486.016602	-53.296665
2930.207287	5615.541500	1484.954102	47.101479
2930.207287	5615.541500	1483.891602	55.349884
2930.207287	5615.541500	1482.829102	47.962399
2930.207287	5615.541500	1481.765625	42.931469
2930.207287	5615.541500	1480.702148	-206.995560
2930.207287	5615.541500	1479.638672	255.700012
2930.207287	5615.541500	1478.575195	41.992950
2930.207287	5615.541500	1477.511719	-34.451591
2930.207287	5615.541500	1476.447266	44.207951
2930.207287	5615.541500	1475.382813	-9.558016
2930.207287	5615.541500	1474.318359	60.282848
2930.207287	5615.541500	1473.253906	92.083176
2930.207287	5615.541500	1472.189453	72.295212
2930.207287	5615.541500	1471.124023	-52.704861
2930.207287	5615.541500	1470.058594	-38.686428
2930.207287	5615.541500	1468.993164	168.338852
2930.207287	5615.541500	1467.927734	32.485287
2930.207287	5615.541500	1466.861328	49.293518
2930.207287	5615.541500	1465.794922	19.119671
2930.207287	5615.541500	1464.728516	-33.323334
2930.207287	5615.541500	1463.662109	371.028961
2930.207287	5615.541500	1462.594727	298.668793
2930.207287	5615.541500	1461.528320	348.857941
2930.207287	5615.541500	1460.460938	361.729309
2930.207287	5615.541500	1459.393555	446.344421
2930.207287	5615.541500	1458.326172	541.915161
2930.207287	5615.541500	1457.257813	577.040649
2930.207287	5615.541500	1456.189453	619.927551
2930.207287	5615.541500	1455.121094	599.834595
2930.207287	5615.541500	1454.052734	648.575256
2930.207287	5615.541500	1452.984375	400.628876
2930.207287	5615.541500	1451.915039	464.042358
2930.207287	5615.541500	1450.845703	669.381165
2930.207287	5615.541500	1449.776367	529.845398
2930.207287	5615.541500	1448.707031	710.429138
2930.207287	5615.541500	1447.636719	629.854370
2930.207287	5615.541500	1446.567383	658.088928
2930.207287	5615.541500	1445.497070	530.576111
2930.207287	5615.541500	1444.425781	548.650940
2930.207287	5615.541500	1443.355469	766.425293
2930.207287	5615.541500	1442.285156	602.994263
2930.207287	5615.541500	1441.213867	737.471069
2930.207287	5615.541500	1440.142578	615.093079
2930.207287	5615.541500	1439.070313	752.390564
2930.207287	5615.541500	1437.999023	610.232971
2930.207287	5615.541500	1436.926758	557.424622
2930.207287	5615.541500	1435.854492	664.426819
2930.207287	5615.541500	1434.782227	423.654388
2930.207287	5615.541500	1433.709961	489.342529
2930.207287	5615.541500	1432.636719	431.401093
2930.207287	5615.541500	1431.563477	486.133759
2930.207287	5615.541500	1430.490234	343.304047
2930.207287	5615.541500	1429.416992	177.732910
2930.207287	5615.541500	1428.343750	43.923084
2930.207287	5615.541500	1427.269531	98.139359
2930.207287	5615.541500	1426.195313	97.351929
2930.207287	5615.541500	1425.121094	-70.553741
2930.207287	5615.541500	1424.046875	-15.140441
2930.207287	5615.541500	1422.971680	12.504475
2930.207287	5615.541500	1421.896484	-84.554504
2930.207287	5615.541500	1420.821289	59.984077
2930.207287	5615.541500	1419.746094	-283.080292
2930.207287	5615.541500	1418.669922	-139.912766
2930.207287	5615.541500	1417.594727	-2.539423
2930.207287	5615.541500	1416.518555	62.580986
2930.207287	5615.541500	1415.442383	33.981075
2930.207287	5615.541500	1414.365234	-47.709980
2930.207287	5615.541500	1413.289063	298.184021
2930.207287	5615.541500	1412.211914	512.666077
2930.207287	5615.541500	1411.134766	582.673584
2930.207287	5615.541500	1410.057617	674.121216
2930.207287	5615.541500	1408.979492	693.646423
2930.207287	5615.541500	1407.902344	800.462463
2930.207287	5615.541500	1406.824219	615.204163
2930.207287	5615.541500	1405.746094	662.468506
2930.207287	5615.541500	1404.666992	684.756714
2930.207287	5615.541500	1403.588867	682.517456
2930.207287	5615.541500	1402.509766	472.687103
2930.207287	5615.541500	1401.430664	421.967743
2930.207287	5615.541500	1400.351563	450.757446
2930.207287	5615.541500	1399.271484	467.836945
2930.207287	5615.541500	1398.192383	313.179535
2930.207287	5615.541500	1397.112305	552.397156
2930.207287	5615.541500	1396.031250	582.793335
2930.207287	5615.541500	1394.951172	485.901306
2930.207287	5615.541500	1393.871094	444.126038
2930.207287	5615.541500	1392.790039	359.732239
2930.207287	5615.541500	1391.708984	473.316711
2930.207287	5615.541500	1390.626953	295.295685
2930.207287	5615.541500	1389.545898	267.023773
2930.207287	5615.541500	1388.463867	379.788086
2930.207287	5615.541500	1387.381836	598.881348
2930.207287	5615.541500	1386.299805	669.825562
2930.207287	5615.541500	1385.217773	550.656250
2930.207287	5615.541500	1384.134766	576.578247
2930.207287	5615.541500	1383.051758	627.518616
2930.207287	5615.541500	1381.968750	754.296265
2930.207287	5615.541500	1380.885742	418.115631
2930.207287	5615.541500	1379.802734	411.325775
2930.207287	5615.541500	1378.718750	489.021576
2930.207287	5615.541500	1377.634766	401.275177
2930.207287	5615.541500	1376.550781	757.039124
2930.207287	5615.541500	1375.465820	553.804993
2930.207287	5615.541500	1374.381836	491.238464
2930.207287	5615.541500	1373.296875	347.817322
2930.207287	5615.541500	1372.211914	571.427856
2930.207287	5615.541500	1371.126953	467.379944
2930.207287	5615.541500	1370.041016	545.689026
2930.207287	5615.541500	1368.955078	495.813232
2930.207287	5615.541500	1367.869141	461.101593
2930.207287	5615.541500	1366.783203	380.557434
2930.207287	5615.541500	1365.697266	480.861725
2930.207287	5615.541500	1364.610352	784.920837
2930.207287	5615.541500	1363.523438	443.385925
2930.207287	5615.541500	1362.436523	481.410675
2930.207287	5615.541500	1361.349609	449.881134
2930.207287	5615.541500	1360.261719	570.043823
2930.207287	5615.541500	1359.174805	512.892151
2930.207287	5615.541500	1358.086914	302.343719
2930.207287	5615.541500	1356.998047	405.005432
2930.207287	5615.541500	1355.910156	573.739441
2930.207287	5615.541500	1354.821289	438.747925
2930.207287	5615.541500	1353.732422	461.336548
2930.207287	5615.541500	1352.643555	475.248779
2930.207287	5615.541500	1351.554688	591.815063
2930.207287	5615.541500	1350.464844	521.910278
2930.207287	5615.541500	1349.375000	583.456238
2930.207287	5615.541500	1348.285156	565.929688
2930.207287	5615.541500	1347.195313	706.436401
2930.207287	5615.541500	1346.105469	899.670959
2930.207287	5615.541500	1345.014648	845.793030
2930.207287	5615.541500	1343.923828	1021.638794
2930.207287	5615.541500	1342.833008	694.285706
2930.207287	5615.541500	1341.741211	1019.200134
2930.207287	5615.541500	1340.650391	972.976685
2930.207287	5615.541500	1339.558594	803.364136
2930.207287	5615.541500	1338.466797	838.760071
2930.207287	5615.541500	1337.374023	914.245300
2930.207287	5615.541500	1336.282227	955.567200
2930.207287	5615.541500	1335.189453	778.891113
2930.207287	5615.541500	1334.096680	812.984436
2930.207287	5615.541500	1333.003906	687.865051
2930.207287	5615.541500	1331.910156	726.430359
2930.207287	5615.541500	1330.817383	796.527832
2930.207287	5615.541500	1329.723633	694.698425
2930.207287	5615.541500	1328.629883	539.304810
2930.207287	5615.541500	1327.535156	918.232117
2930.207287	5615.541500	1326.441406	693.598694
2930.207287	5615.541500	1325.346680	845.090454
2930.207287	5615.541500	1324.251953	896.175415
2930.207287	5615.541500	1323.156250	804.410645
2930.207287	5615.541500	1322.061523	749.259888
2930.207287	5615.541500	1320.965820	660.066650
2930.207287	5615.541500	1319.870117	560.336792
2930.207287	5615.541500	1318.774414	547.183838
2930.207287	5615.541500	1317.678711	631.592407
2930.207287	5615.541500	1316.582031	512.442200
2930.207287	5615.541500	1315.485352	518.408752
2930.207287	5615.541500	1314.388672	621.824341
2930.207287	5615.541500	1313.291016	451.512177
2930.207287	5615.541500	1312.194336	494.253296
2930.207287	5615.541500	1311.096680	529.718384
2930.207287	5615.541500	1309.999023	611.062195
2930.207287	5615.541500	1308.901367	501.708832
2930.207287	5615.541500	1307.802734	790.024658
2930.207287	5615.541500	1306.705078	772.959290
2930.207287	5615.541500	1305.606445	831.956177
2930.207287	5615.541500	1304.506836	1013.964050
2930.207287	5615.541500	1303.408203	995.086365
2930.207287	5615.541500	1302.308594	1084.846191
2930.207287	5615.541500	1301.208984	1226.953491
2930.207287	5615.541500	1300.109375	1222.400635
2930.207287	5615.541500	1299.009766	1189.241699
2930.207287	5615.541500	1297.909180	1278.335571
2930.207287	5615.541500	1296.808594	1187.862915
2930.207287	5615.541500	1295.708008	1191.693115
2930.207287	5615.541500	1294.607422	1096.502075
2930.207287	5615.541500	1293.506836	1239.167969
2930.207287	5615.541500	1292.405273	1172.530518
2930.207287	5615.541500	1291.303711	1087.729004
2930.207287	5615.541500	1290.202148	1197.269531
2930.207287	5615.541500	1289.099609	996.893311
2930.207287	5615.541500	1287.998047	998.059204
2930.207287	5615.541500	1286.895508	932.121216
2930.207287	5615.541500	1285.792969	900.041016
2930.207287	5615.541500	1284.689453	828.318481
2930.207287	5615.541500	1283.586914	1075.272705
2930.207287	5615.541500	1282.483398	1016.912354
2930.207287	5615.541500	1281.379883	958.447754
2930.207287	5615.541500	1280.276367	969.539307
2930.207287	5615.541500	1279.171875	987.125671
2930.207287	5615.541500	1278.067383	986.885864
2930.207287	5615.541500	1276.962891	1089.536987
2930.207287	5615.541500	1275.858398	1186.957275
2930.207287	5615.541500	1274.753906	1297.259033
2930.207287	5615.541500	1273.648438	1205.422363
2930.207287	5615.541500	1272.542969	1278.549683
2930.207287	5615.541500	1271.437500	1265.549683
2930.207287	5615.541500	1270.331055	1220.257690
2930.207287	5615.541500	1269.225586	1207.897217
2930.207287	5615.541500	1268.119141	1186.991333
2930.207287	5615.541500	1267.012695	1075.257935
2930.207287	5615.541500	1265.906250	887.722656
2930.207287	5615.541500	1264.798828	1041.772583
2930.207287	5615.541500	1263.691406	602.769287
2930.207287	5615.541500	1262.583984	610.586975
2930.207287	5615.541500	1261.476563	615.070557
2930.207287	5615.541500	1260.368164	503.707001
2930.207287	5615.541500	1259.260742	422.831940
2930.207287	5615.541500	1258.152344	446.001831
2930.207287	5615.541500	1257.043945	359.401276
2930.207287	5615.541500	1255.934570	429.507446
2930.207287	5615.541500	1254.825195	253.680618
2930.207287	5615.541500	1253.716797	400.647278
2930.207287	5615.541500	1252.606445	379.171478
2930.207287	5615.541500	1251.497070	285.581543
2930.207287	5615.541500	1250.387695	324.708160
2930.207287	5615.541500	1249.277344	300.375275
2930.207287	5615.541500	1248.166992	250.585709
2930.207287	5615.541500	1247.055664	302.217133
2930.207287	5615.541500	1245.945313	215.903763
2930.207287	5615.541500	1244.833984	285.212158
2930.207287	5615.541500	1243.722656	248.301422
2930.207287	5615.541500	1242.611328	261.597595
2930.207287	5615.541500	1241.499023	415.571167
2930.207287	5615.541500	1240.387695	364.896332
2930.207287	5615.541500	1239.275391	213.011841
2930.207287	5615.541500	1238.162109	274.988312
2930.207287	5615.541500	1237.049805	313.507782
2930.207287	5615.541500	1235.936523	325.312653
2930.207287	5615.541500	1234.823242	131.286621
2930.207287	5615.541500	1233.709961	400.593079
2930.207287	5615.541500	1232.596680	321.337799
2930.207287	5615.541500	1231.482422	331.326324
2930.207287	5615.541500	1230.369141	281.313843
2930.207287	5615.541500	1229.253906	373.611755
2930.207287	5615.541500	1228.139648	295.819489
2930.207287	5615.541500	1227.025391	298.348083
2930.207287	5615.541500	1225.910156	328.916107
2930.207287	5615.541500	1224.794922	321.022461
2930.207287	5615.541500	1223.679688	234.162613
2930.207287	5615.541500	1222.563477	339.401855
2930.207287	5615.541500	1221.447266	342.414856
2930.207287	5615.541500	1220.331055	532.550659
2930.207287	5615.541500	1219.214844	526.467773
2930.207287	5615.541500	1218.098633	634.101196
2930.207287	5615.541500	1216.981445	672.238892
2930.207287	5615.541500	1215.864258	547.717590
2930.207287	5615.541500	1214.747070	624.608093
2930.207287	5615.541500	1213.629883	555.494690
2930.207287	5615.541500	1212.511719	654.834351
2930.207287	5615.541500	1211.393555	665.901367
2930.207287	5615.541500	1210.275391	760.227417
2930.207287	5615.541500	1209.157227	929.619568
2930.207287	5615.541500	1208.038086	746.101990
2930.207287	5615.541500	1206.918945	615.559570
2930.207287	5615.541500	1205.799805	324.585388
2930.207287	5615.541500	1204.680664	378.414307
2930.207287	5615.541500	1203.560547	433.154510
2930.207287	5615.541500	1202.441406	271.604553
2930.207287	5615.541500	1201.321289	277.940338
2930.207287	5615.541500	1200.200195	353.899567
2930.207287	5615.541500	1199.080078	378.192078
2930.207287	5615.541500	1197.958984	418.921417
2930.207287	5615.541500	1196.837891	204.602371
2930.207287	5615.541500	1195.716797	324.480530
2930.207287	5615.541500	1194.594727	240.220642
2930.207287	5615.541500	1193.473633	258.187958
2930.207287	5615.541500	1192.351563	225.911697
2930.207287	5615.541500	1191.229492	248.953629
2930.207287	5615.541500	1190.106445	142.552658
2930.207287	5615.541500	1188.984375	92.361336
2930.207287	5615.541500	1187.861328	89.034691
2930.207287	5615.541500	1186.738281	219.173676
2930.207287	5615.541500	1185.614258	75.831596
2930.207287	5615.541500	1184.491211	42.821289
2930.207287	5615.541500	1183.367188	119.126793
2930.207287	5615.541500	1182.243164	88.586441
2930.207287	5615.541500	1181.119141	55.832584
2930.207287	5615.541500	1179.994141	-31.177248
2930.207287	5615.541500	1178.869141	-19.144690
2930.207287	5615.541500	1177.744141	-154.327988
2930.207287	5615.541500	1176.619141	-131.136765
2930.207287	5615.541500	1175.493164	-58.653618
2930.207287	5615.541500	1174.368164	-205.544739
2930.207287	5615.541500	1173.242188	-148.045227
2930.207287	5615.541500	1172.115234	-49.690708
2930.207287	5615.541500	1170.989258	-25.082308
2930.207287	5615.541500	1169.862305	92.119484
2930.207287	5615.541500	1168.735352	92.614166
2930.207287	5615.541500	1167.608398	84.973114
2930.207287	5615.541500	1166.481445	51.573868
2930.207287	5615.541500	1165.353516	96.077805
2930.207287	5615.541500	1164.225586	-48.295933
2930.207287	5615.541500	1163.097656	73.993301
2930.207287	5615.541500	1161.968750	42.807007
2930.207287	5615.541500	1160.840820	278.424957
2930.207287	5615.541500	1159.711914	245.166656
2930.207287	5615.541500	1158.583008	321.223633
2930.207287	5615.541500	1157.453125	264.185822
2930.207287	5615.541500	1156.324219	447.903473
2930.207287	5615.541500	1155.194336	305.468964
2930.207287	5615.541500	1154.064453	384.801361
2930.207287	5615.541500	1152.933594	330.481781
2930.207287	5615.541500	1151.803711	291.710327
2930.207287	5615.541500	1150.672852	222.976624
2930.207287	5615.541500	1149.541992	352.661804
2930.207287	5615.541500	1148.411133	288.608368
2930.207287	5615.541500	1147.279297	203.600815
2930.207287	5615.541500	1146.147461	344.260193
2930.207287	5615.541500	1145.015625	517.029114
2930.207287	5615.541500	1143.883789	338.665558
2930.207287	5615.541500	1142.750977	289.931030
2930.207287	5615.541500	1141.619141	237.539429
2930.207287	5615.541500	1140.486328	254.550629
2930.207287	5615.541500	1139.352539	137.640030
2930.207287	5615.541500	1138.219727	139.478363
2930.207287	5615.541500	1137.085938	129.580322
2930.207287	5615.541500	1135.952148	123.140068
2930.207287	5615.541500	1134.818359	263.162720
2930.207287	5615.541500	1133.683594	178.245926
2930.207287	5615.541500	1132.549805	68.177979
2930.207287	5615.541500	1131.415039	266.356567
2930.207287	5615.541500	1130.279297	309.954254
2930.207287	5615.541500	1129.144531	337.769714
2930.207287	5615.541500	1128.008789	252.699997
2930.207287	5615.541500	1126.873047	186.490356
2930.207287	5615.541500	1125.737305	347.005310
2930.207287	5615.541500	1124.601563	359.638214
2930.207287	5615.541500	1123.464844	337.011871
2930.207287	5615.541500	1122.328125	224.337448
2930.207287	5615.541500	1121.191406	128.043991
2930.207287	5615.541500	1120.054688	281.968719
2930.207287	5615.541500	1118.916992	257.889526
2930.207287	5615.541500	1117.779297	136.915771
2930.207287	5615.541500	1116.641602	219.989670
2930.207287	5615.541500	1115.503906	91.081741
2930.207287	5615.541500	1114.365234	-35.488216
2930.207287	5615.541500	1113.226563	-49.776714
2930.207287	5615.541500	1112.087891	201.764420
2930.207287	5615.541500	1110.949219	93.673134
2930.207287	5615.541500	1109.809570	-5.179151
2930.207287	5615.541500	1108.669922	38.256191
2930.207287	5615.541500	1107.530273	175.136734
2930.207287	5615.541500	1106.390625	98.232376
2930.207287	5615.541500	1105.250000	154.440292
2930.207287	5615.541500	1104.109375	205.437683
2930.207287	5615.541500	1102.968750	391.750793
2930.207287	5615.541500	1101.828125	365.323395
2930.207287	5615.541500	1100.686523	194.847397
2930.207287	5615.541500	1099.544922	277.370331
2930.207287	5615.541500	1098.403320	333.583008
2930.207287	5615.541500	1097.261719	251.027832
2930.207287	5615.541500	1096.120117	226.881439
2930.207287	5615.541500	1094.977539	354.851746
2930.207287	5615.541500	1093.834961	257.846832
2930.207287	5615.541500	1092.691406	310.411926
2930.207287	5615.541500	1091.548828	294.442108
2930.207287	5615.541500	1090.405273	296.742279
2930.207287	5615.541500	1089.261719	161.346649
2930.207287	5615.541500	1088.118164	212.268326
2930.207287	5615.541500	1086.973633	362.221832
2930.207287	5615.541500	1085.829102	146.443649
2930.207287	5615.541500	1084.684570	64.671013
2930.207287	5615.541500	1083.540039	132.122665
2930.207287	5615.541500	1082.395508	51.027546
2930.207287	5615.541500	1081.250000	97.463272
2930.207287	5615.541500	1080.104492	118.767136
2930.207287	5615.541500	1078.958984	137.478165
2930.207287	5615.541500	1077.812500	190.370651
2930.207287	5615.541500	1076.666016	225.837173
2930.207287	5615.541500	1075.519531	115.497353
2930.207287	5615.541500	1074.373047	84.670029
2930.207287	5615.541500	1073.226563	36.612518
2930.207287	5615.541500	1072.079102	85.812302
2930.207287	5615.541500	1070.931641	-60.764572
2930.207287	5615.541500	1069.784180	-73.934982
2930.207287	5615.541500	1068.635742	-50.026028
2930.207287	5615.541500	1067.487305	-28.513407
2930.207287	5615.541500	1066.338867	95.933464
2930.207287	5615.541500	1065.190430	19.952297
2930.207287	5615.541500	1064.041992	-80.035492
2930.207287	5615.541500	1062.892578	15.073482
2930.207287	5615.541500	1061.743164	180.177765
2930.207287	5615.541500	1060.593750	8.308143
2930.207287	5615.541500	1059.443359	86.564491
2930.207287	5615.541500	1058.292969	-41.915264
2930.207287	5615.541500	1057.142578	-98.509995
2930.207287	5615.541500	1055.992188	7.459555
2930.207287	5615.541500	1054.841797	53.832298
2930.207287	5615.541500	1053.690430	-90.950768
2930.207287	5615.541500	1052.539063	-152.663620
2930.207287	5615.541500	1051.387695	-120.552773
2930.207287	5615.541500	1050.235352	-92.834076
2930.207287	5615.541500	1049.083984	-57.590816
2930.207287	5615.541500	1047.931641	-67.610748
2930.207287	5615.541500	1046.778320	-61.997913
2930.207287	5615.541500	1045.625977	-16.546299
2930.207287	5615.541500	1044.472656	-184.438416
2930.207287	5615.541500	1043.319336	-185.444458
2930.207287	5615.541500	1042.166016	11.691492
2930.207287	5615.541500	1041.012695	-66.736526
2930.207287	5615.541500	1039.858398	-113.907082
2930.207287	5615.541500	1038.704102	-55.363667
2930.207287	5615.541500	1037.549805	-49.857166
2930.207287	5615.541500	1036.394531	-103.791359
2930.207287	5615.541500	1035.239258	75.860222
2930.207287	5615.541500	1034.083984	86.300797
2930.207287	5615.541500	1032.928711	38.038284
2930.207287	5615.541500	1031.773438	192.051804
2930.207287	5615.541500	1030.617188	163.960327
2930.207287	5615.541500	1029.460938	175.442871
2930.207287	5615.541500	1028.304688	249.618225
2930.207287	5615.541500	1027.147461	319.916748
2930.207287	5615.541500	1025.991211	338.488739
2930.207287	5615.541500	1024.833984	191.329102
2930.207287	5615.541500	1023.675781	283.654633
2930.207287	5615.541500	1022.518555	262.491364
2930.207287	5615.541500	1021.360352	482.106384
2930.207287	5615.541500	1020.202148	404.838776
2930.207287	5615.541500	1019.043945	266.693481
2930.207287	5615.541500	1017.884766	155.950287
2930.207287	5615.541500	1016.726563	224.813263
2930.207287	5615.541500	1015.567383	186.039932
2930.207287	5615.541500	1014.407227	89.947716
2930.207287	5615.541500	1013.248047	7.080782
2930.207287	5615.541500	1012.087891	15.659331
2930.207287	5615.541500	1010.927734	114.831276
2930.207287	5615.541500	1009.767578	191.368240
2930.207287	5615.541500	1008.606445	143.367050
2930.207287	5615.541500	1007.446289	102.759949
2930.207287	5615.541500	1006.285156	157.687698
2930.207287	5615.541500	1005.123047	364.781647
2930.207287	5615.541500	1003.961914	162.683289
2930.207287	5615.541500	1002.799805	19.825603
2930.207287	5615.541500	1001.637695	112.527710
2930.207287	5615.541500	1000.475586	71.370811
2930.207287	5615.541500	999.312500	178.135071
2930.207287	5615.541500	998.149414	135.503479
2930.207287	5615.541500	996.986328	127.519157
2930.207287	5615.541500	995.823242	-7.889514
2930.207287	5615.541500	994.659180	7.067745
2930.207287	5615.541500	993.496094	165.901657
2930.207287	5615.541500	992.332031	-27.854774
2930.207287	5615.541500	991.166992	-154.779633
2930.207287	5615.541500	990.002930	107.958359
2930.207287	5615.541500	988.837891	-79.699348
2930.207287	5615.541500	987.672852	-2.754008
2930.207287	5615.541500	986.506836	-97.898003
2930.207287	5615.541500	985.341797	10.750493
2930.207287	5615.541500	984.175781	-32.121716
2930.207287	5615.541500	983.009766	36.171265
2930.207287	5615.541500	981.843750	41.403034
2930.207287	5615.541500	980.676758	-123.598434
2930.207287	5615.541500	979.509766	74.829895
2930.207287	5615.541500	978.342773	-110.996384
2930.207287	5615.541500	977.175781	198.823303
2930.207287	5615.541500	976.007813	-83.640038
2930.207287	5615.541500	974.839844	49.079971
2930.207287	5615.541500	973.671875	-59.621464
2930.207287	5615.541500	972.503906	-7.818394
2930.207287	5615.541500	971.334961	-26.841801
2930.207287	5615.541500	970.166016	-28.533262
2930.207287	5615.541500	968.997070	-75.001976
2930.207287	5615.541500	967.828125	-49.693089
2930.207287	5615.541500	966.658203	-59.303425
2930.207287	5615.541500	965.488281	23.870975
2930.207287	5615.541500	964.318359	195.268753
2930.207287	5615.541500	963.148438	-64.979042
2930.207287	5615.541500	961.977539	89.155235
2930.207287	5615.541500	960.806641	91.423515
2930.207287	5615.541500	959.635742	-45.064152
2930.207287	5615.541500	958.463867	61.114311
2930.207287	5615.541500	957.292969	48.713860
2930.207287	5615.541500	956.121094	153.463226
2930.207287	5615.541500	954.948242	187.956253
2930.207287	5615.541500	953.776367	151.746902
2930.207287	5615.541500	952.603516	335.858643
2930.207287	5615.541500	951.430664	237.407898
2930.207287	5615.541500	950.257813	161.231781
2930.207287	5615.541500	949.084961	99.974495
2930.207287	5615.541500	947.911133	18.508545
2930.207287	5615.541500	946.737305	2.281532
2930.207287	5615.541500	945.563477	70.124687
2930.207287	5615.541500	944.388672	-34.530499
2930.207287	5615.541500	943.213867	-40.286621
2930.207287	5615.541500	942.039063	-26.033159
2930.207287	5615.541500	940.864258	129.671951
2930.207287	5615.541500	939.688477	106.209297
2930.207287	5615.541500	938.513672	203.696579
2930.207287	5615.541500	937.337891	149.764923
2930.207287	5615.541500	936.161133	274.970551
2930.207287	5615.541500	934.985352	263.742371
2930.207287	5615.541500	933.808594	93.818245
2930.207287	5615.541500	932.631836	72.500130
2930.207287	5615.541500	931.454102	293.416473
2930.207287	5615.541500	930.277344	82.858200
2930.207287	5615.541500	929.099609	258.200653
2930.207287	5615.541500	927.921875	254.458313
2930.207287	5615.541500	926.743164	162.477753
2930.207287	5615.541500	925.565430	214.112122
2930.207287	5615.541500	924.386719	172.464096
2930.207287	5615.541500	923.208008	105.597084
2930.207287	5615.541500	922.028320	227.698364
2930.207287	5615.541500	920.849609	97.802452
2930.207287	5615.541500	919.669922	100.284760
2930.207287	5615.541500	919.474609	197.532059
2930.207287	5615.541500	918.309570	173.359665
2930.207287	5615.541500	917.143555	156.721756
2930.207287	5615.541500	915.977539	87.202377
2930.207287	5615.541500	914.810547	-25.098272
2930.207287	5615.541500	913.644531	104.155907
2930.207287	5615.541500	912.477539	-78.597015
2930.207287	5615.541500	911.310547	108.403854
2930.207287	5615.541500	910.143555	129.341278
2930.207287	5615.541500	908.975586	283.485260
2930.207287	5615.541500	907.807617	70.566963
2930.207287	5615.541500	906.639648	16.024050
2930.207287	5615.541500	905.471680	41.873241
2930.207287	5615.541500	904.303711	77.731369
2930.207287	5615.541500	903.134766	25.647127
2930.207287	5615.541500	901.965820	109.145752
2930.207287	5615.541500	900.796875	117.269371
2930.207287	5615.541500	899.626953	142.932312
2930.207287	5615.541500	898.457031	166.046631
2930.207287	5615.541500	897.287109	10.992302
2930.207287	5615.541500	896.117188	-16.099190
2930.207287	5615.541500	894.947266	49.582817
2930.207287	5615.541500	893.776367	39.991116
2930.207287	5615.541500	892.605469	158.224365
2930.207287	5615.541500	891.434570	98.432106
2930.207287	5615.541500	890.262695	41.144188
2930.207287	5615.541500	889.091797	134.168884
2930.207287	5615.541500	887.919922	179.538437
2930.207287	5615.541500	886.748047	42.048897
2930.207287	5615.541500	885.575195	217.561554
2930.207287	5615.541500	884.403320	-70.129776
2930.207287	5615.541500	883.230469	72.744255
2930.207287	5615.541500	882.057617	-132.279022
2930.207287	5615.541500	880.883789	-27.029776
2930.207287	5615.541500	879.710938	33.126762
2930.207287	5615.541500	878.537109	248.276672
2930.207287	5615.541500	877.362305	63.281792
2930.207287	5615.541500	876.188477	130.802444
2930.207287	5615.541500	875.013672	48.320049
2930.207287	5615.541500	873.839844	85.779205
2930.207287	5615.541500	872.664063	125.696999
2930.207287	5615.541500	871.489258	-49.225700
2930.207287	5615.541500	870.313477	-1.857748
2930.207287	5615.541500	869.138672	90.402351
2930.207287	5615.541500	867.962891	55.298447
2930.207287	5615.541500	866.786133	97.546875
2930.207287	5615.541500	865.610352	-29.914812
2930.207287	5615.541500	864.433594	156.967163
2930.207287	5615.541500	863.256836	151.703629
2930.207287	5615.541500	862.079102	-45.585793
2930.207287	5615.541500	860.902344	193.460449
2930.207287	5615.541500	859.724609	287.817352
2930.207287	5615.541500	858.546875	232.589050
2930.207287	5615.541500	857.368164	199.781830
2930.207287	5615.541500	856.190430	353.786194
2930.207287	5615.541500	855.011719	66.887054
2930.207287	5615.541500	853.833008	158.555801
2930.207287	5615.541500	852.654297	192.903839
2930.207287	5615.541500	851.474609	35.564289
2930.207287	5615.541500	850.294922	132.084793
2930.207287	5615.541500	849.115234	133.998627
2930.207287	5615.541500	847.935547	237.870804
2930.207287	5615.541500	846.754883	162.618500
2930.207287	5615.541500	845.575195	64.993454
2930.207287	5615.541500	844.393555	-10.242206
2930.207287	5615.541500	843.212891	247.567001
2930.207287	5615.541500	842.032227	38.091648
2930.207287	5615.541500	840.850586	-131.572464
2930.207287	5615.541500	839.668945	205.511185
2930.207287	5615.541500	838.486328	-21.283337
2930.207287	5615.541500	837.304688	-24.556568
2930.207287	5615.541500	836.122070	131.014267
2930.207287	5615.541500	834.939453	-48.545368
2930.207287	5615.541500	833.756836	-7.222244
2930.207287	5615.541500	832.573242	-62.690239
2930.207287	5615.541500	831.389648	149.707993
2930.207287	5615.541500	830.206055	-163.713043
2930.207287	5615.541500	829.022461	-152.249191
2930.207287	5615.541500	827.838867	30.217775
2930.207287	5615.541500	826.654297	53.979187
2930.207287	5615.541500	825.469727	-98.210831
2930.207287	5615.541500	824.284180	81.581619
2930.207287	5615.541500	823.099609	107.721313
2930.207287	5615.541500	821.914063	39.730728
2930.207287	5615.541500	820.728516	154.943176
2930.207287	5615.541500	819.542969	156.226379
2930.207287	5615.541500	818.356445	125.314415
2930.207287	5615.541500	817.169922	15.218867
2930.207287	5615.541500	815.983398	-127.012856
2930.207287	5615.541500	814.796875	-19.425619
2930.207287	5615.541500	813.609375	-10.811317
2930.207287	5615.541500	812.422852	7.663456
2930.207287	5615.541500	811.235352	31.050119
2930.207287	5615.541500	810.046875	-197.646454
2930.207287	5615.541500	808.859375	-174.275864
2930.207287	5615.541500	807.670898	-126.238449
2930.207287	5615.541500	806.482422	-23.915524
2930.207287	5615.541500	805.293945	-32.764561
2930.207287	5615.541500	804.104492	101.539589
2930.207287	5615.541500	802.915039	-33.248573
2930.207287	5615.541500	801.725586	-128.525009
2930.207287	5615.541500	800.536133	-33.828220
2930.207287	5615.541500	799.345703	21.342136
2930.207287	5615.541500	798.155273	-36.969315
2930.207287	5615.541500	796.964844	-105.141922
2930.207287	5615.541500	795.774414	-40.202980
2930.207287	5615.541500	794.583008	101.082176
2930.207287	5615.541500	793.392578	3.284878
2930.207287	5615.541500	792.200195	-87.105881
2930.207287	5615.541500	791.008789	73.733025
2930.207287	5615.541500	789.816406	64.576439
2930.207287	5615.541500	788.625000	1.239008
2930.207287	5615.541500	787.432617	-143.321381
2930.207287	5615.541500	786.239258	-122.968002
2930.207287	5615.541500	785.046875	17.910765
2930.207287	5615.541500	783.853516	-60.218506
2930.207287	5615.541500	782.660156	-98.989655
2930.207287	5615.541500	781.465820	-167.274170
2930.207287	5615.541500	780.272461	-176.554016
2930.207287	5615.541500	779.078125	-28.554657
2930.207287	5615.541500	777.883789	-37.906937
2930.207287	5615.541500	776.688477	-118.524887
2930.207287	5615.541500	775.494141	-24.737486
2930.207287	5615.541500	774.298828	-39.066246
2930.207287	5615.541500	773.103516	-26.404125
2930.207287	5615.541500	771.907227	18.140923
2930.207287	5615.541500	770.711914	114.183434
2930.207287	5615.541500	769.515625	99.745209
2930.207287	5615.541500	768.318359	257.013763
2930.207287	5615.541500	767.122070	95.344490
2930.207287	5615.541500	765.924805	147.058868
2930.207287	5615.541500	764.727539	49.177181
2930.207287	5615.541500	763.530273	76.322548
2930.207287	5615.541500	762.333008	-70.562073
2930.207287	5615.541500	761.134766	-246.810852
2930.207287	5615.541500	759.936523	-40.865349
2930.207287	5615.541500	758.738281	25.371675
2930.207287	5615.541500	757.540039	-43.115299
2930.207287	5615.541500	756.340820	35.290176
2930.207287	5615.541500	755.141602	81.821899
2930.207287	5615.541500	753.942383	62.240723
2930.207287	5615.541500	752.742188	145.400833
2930.207287	5615.541500	751.541992	123.323708
2930.207287	5615.541500	750.341797	64.550949
2930.207287	5615.541500	749.141602	86.466934
2930.207287	5615.541500	747.941406	257.469238
2930.207287	5615.541500	746.740234	142.426666
2930.207287	5615.541500	745.539063	164.247452
2930.207287	5615.541500	744.337891	-46.048233
2930.207287	5615.541500	743.135742	149.176895
2930.207287	5615.541500	741.933594	12.188581
2930.207287	5615.541500	740.731445	7.076324
2930.207287	5615.541500	739.529297	50.765053
2930.207287	5615.541500	738.326172	160.305588
2930.207287	5615.541500	737.124023	101.424812
2930.207287	5615.541500	735.919922	105.971146
2930.207287	5615.541500	734.716797	176.346954
2930.207287	5615.541500	733.513672	188.151367
2930.207287	5615.541500	732.309570	163.360947
2930.207287	5615.541500	731.105469	187.308975
2930.207287	5615.541500	729.900391	203.915344
2930.207287	5615.541500	728.696289	174.205032
2930.207287	5615.541500	727.491211	232.177765
2930.207287	5615.541500	726.286133	122.066330
2930.207287	5615.541500	725.080078	233.552780
2930.207287	5615.541500	723.874023	138.053528
2930.207287	5615.541500	722.668945	242.151596
2930.207287	5615.541500	721.461914	336.451233
2930.207287	5615.541500	720.255859	192.278259
2930.207287	5615.541500	719.048828	213.542831
2930.207287	5615.541500	717.841797	268.825562
2930.207287	5615.541500	716.634766	127.132484
2930.207287	5615.541500	715.427734	364.682587
2930.207287	5615.541500	714.219727	23.709547
2930.207287	5615.541500	713.011719	115.359459
2930.207287	5615.541500	711.803711	68.486542
2930.207287	5615.541500	710.594727	45.902592
2930.207287	5615.541500	709.385742	198.143402
2930.207287	5615.541500	708.176758	100.248749
2930.207287	5615.541500	706.967773	67.913200
2930.207287	5615.541500	705.758789	137.496857
2930.207287	5615.541500	704.548828	71.166954
2930.207287	5615.541500	703.338867	-82.475700
2930.207287	5615.541500	702.127930	168.933853
2930.207287	5615.541500	700.917969	-88.956116
2930.207287	5615.541500	699.707031	41.110920
2930.207287	5615.541500	698.496094	66.892090
2930.207287	5615.541500	697.285156	22.376431
2930.207287	5615.541500	696.073242	164.406906
2930.207287	5615.541500	694.861328	10.864241
2930.207287	5615.541500	693.649414	135.858566
2930.207287	5615.541500	692.436523	67.096603
2930.207287	5615.541500	691.224609	-23.433352
2930.207287	5615.541500	690.011719	79.667694
2930.207287	5615.541500	688.798828	54.474869
2930.207287	5615.541500	687.584961	159.908737
2930.207287	5615.541500	686.372070	393.471832
2930.207287	5615.541500	685.158203	370.609497
2930.207287	5615.541500	683.943359	222.031509
2930.207287	5615.541500	682.729492	206.443573
2930.207287	5615.541500	681.514648	485.666504
2930.207287	5615.541500	680.299805	636.712524
2930.207287	5615.541500	679.084961	444.682037
2930.207287	5615.541500	677.869141	631.877014
2930.207287	5615.541500	676.653320	459.223663
2930.207287	5615.541500	675.437500	438.715088
2930.207287	5615.541500	674.221680	495.438110
2930.207287	5615.541500	673.004883	477.324890
2930.207287	5615.541500	671.789063	398.901733
2930.207287	5615.541500	670.571289	351.855774
2930.207287	5615.541500	669.354492	389.224701
2930.207287	5615.541500	668.136719	431.391266
2930.207287	5615.541500	666.919922	603.698608
2930.207287	5615.541500	665.701172	506.012543
2930.207287	5615.541500	664.483398	364.994415
2930.207287	5615.541500	663.264648	696.173889
2930.207287	5615.541500	662.045898	627.414978
2930.207287	5615.541500	660.827148	589.983582
2930.207287	5615.541500	659.608398	591.081421
2930.207287	5615.541500	658.388672	652.345764
2930.207287	5615.541500	657.168945	513.852539
2930.207287	5615.541500	655.949219	560.666077
2930.207287	5615.541500	654.728516	465.540070
2930.207287	5615.541500	653.507813	546.005432
2930.207287	5615.541500	652.287109	434.089478
2930.207287	5615.541500	651.066406	339.046021
2930.207287	5615.541500	649.844727	431.499359
2930.207287	5615.541500	648.623047	343.702576
2930.207287	5615.541500	647.401367	313.598572
2930.207287	5615.541500	646.179688	470.847931
2930.207287	5615.541500	644.957031	327.869843
2930.207287	5615.541500	643.734375	225.767532
2930.207287	5615.541500	642.511719	226.921890
2930.207287	5615.541500	641.289063	338.467163
2930.207287	5615.541500	640.065430	306.011993
2930.207287	5615.541500	638.841797	482.264648
2930.207287	5615.541500	637.618164	380.251984
2930.207287	5615.541500	636.393555	364.603638
2930.207287	5615.541500	635.168945	387.322327
2930.207287	5615.541500	633.944336	417.227386
2930.207287	5615.541500	632.719727	403.994598
2930.207287	5615.541500	631.494141	237.447540
2930.207287	5615.541500	630.269531	473.371796
2930.207287	5615.541500	629.042969	393.102722
2930.207287	5615.541500	627.817383	456.527679
2930.207287	5615.541500	626.590820	318.865540
2930.207287	5615.541500	625.365234	336.827637
2930.207287	5615.541500	624.137695	251.904739
2930.207287	5615.541500	622.911133	92.873718
2930.207287	5615.541500	621.683594	292.664520
2930.207287	5615.541500	620.456055	191.100540
2930.207287	5615.541500	619.228516	383.637451
2930.207287	5615.541500	618.000977	219.978348
2930.207287	5615.541500	616.772461	333.594940
2930.207287	5615.541500	615.543945	296.663605
2930.207287	5615.541500	614.314453	360.081299
2930.207287	5615.541500	613.085938	306.472290
2930.207287	5615.541500	611.856445	286.326233
2930.207287	5615.541500	610.626953	168.334625
2930.207287	5615.541500	609.397461	181.670395
2930.207287	5615.541500	608.166992	183.086044
2930.207287	5615.541500	606.936523	120.108978
2930.207287	5615.541500	605.706055	123.957535
2930.207287	5615.541500	604.474609	58.670372
2930.207287	5615.541500	603.244141	41.112221
2930.207287	5615.541500	602.012695	47.415073
2930.207287	5615.541500	600.780273	149.054611
2930.207287	5615.541500	599.548828	217.318817
2930.207287	5615.541500	598.316406	97.395424
2930.207287	5615.541500	597.083984	191.879623
2930.207287	5615.541500	595.851563	69.676712
2930.207287	5615.541500	594.618164	76.093079
2930.207287	5615.541500	593.384766	165.829803
2930.207287	5615.541500	592.151367	-13.326956
2930.207287	5615.541500	590.917969	145.429489
2930.207287	5615.541500	589.683594	35.376762
2930.207287	5615.541500	588.449219	-10.397909
2930.207287	5615.541500	587.214844	-1.445776
2930.207287	5615.541500	585.979492	-28.125854
2930.207287	5615.541500	584.745117	-66.648247
2930.207287	5615.541500	583.509766	-57.608444
2930.207287	5615.541500	582.273438	-105.555183
2930.207287	5615.541500	581.038086	-34.706051
2930.207287	5615.541500	579.801758	-115.819977
2930.207287	5615.541500	578.565430	26.276451
2930.207287	5615.541500	577.329102	-71.369415
2930.207287	5615.541500	576.091797	-95.383522
2930.207287	5615.541500	574.854492	210.404022
2930.207287	5615.541500	573.617188	229.096710
2930.207287	5615.541500	572.378906	278.640900
2930.207287	5615.541500	571.141602	309.231201
2930.207287	5615.541500	569.903320	311.396545
2930.207287	5615.541500	568.664063	31.582338
2930.207287	5615.541500	567.425781	161.818863
2930.207287	5615.541500	566.186523	173.591812
2930.207287	5615.541500	564.947266	5.401889
2930.207287	5615.541500	563.708008	119.090286
2930.207287	5615.541500	562.467773	43.380386
2930.207287	5615.541500	561.227539	131.049118
2930.207287	5615.541500	559.987305	-27.378263
2930.207287	5615.541500	558.747070	5.928665
2930.207287	5615.541500	557.505859	81.833488
2930.207287	5615.541500	556.264648	63.152527
2930.207287	5615.541500	555.023438	-5.131987
2930.207287	5615.541500	553.781250	40.111656
2930.207287	5615.541500	552.539063	59.379333
2930.207287	5615.541500	551.296875	159.011627
2930.207287	5615.541500	550.054688	194.859390
2930.207287	5615.541500	548.811523	169.326340
2930.207287	5615.541500	547.569336	479.141357
2930.207287	5615.541500	546.325195	236.449371
2930.207287	5615.541500	545.082031	156.758636
2930.207287	5615.541500	543.837891	32.307205
2930.207287	5615.541500	542.593750	28.270241
2930.207287	5615.541500	541.349609	-100.735916
2930.207287	5615.541500	540.105469	8.534444
2930.207287	5615.541500	538.860352	61.213703
2930.207287	5615.541500	537.615234	130.411880
2930.207287	5615.541500	536.369141	72.360031
2930.207287	5615.541500	535.124023	-39.817852
2930.207287	5615.541500	533.877930	-57.678299
2930.207287	5615.541500	532.631836	289.564270
2930.207287	5615.541500	531.384766	29.191742
2930.207287	5615.541500	530.138672	178.598740
2930.207287	5615.541500	528.891602	106.738182
2930.207287	5615.541500	527.643555	42.009453
2930.207287	5615.541500	526.396484	54.987118
2930.207287	5615.541500	525.148438	-101.354317
2930.207287	5615.541500	523.900391	24.610172
2930.207287	5615.541500	522.652344	16.546371
2930.207287	5615.541500	521.403320	76.695175
2930.207287	5615.541500	520.154297	21.701439
2930.207287	5615.541500	518.905273	-56.724701
2930.207287	5615.541500	517.656250	-62.254494
2930.207287	5615.541500	516.406250	-67.741768
2930.207287	5615.541500	515.156250	-66.143974
2930.207287	5615.541500	513.906250	-83.289192
2930.207287	5615.541500	512.655273	-39.363293
2930.207287	5615.541500	511.404297	-110.402046
2930.207287	5615.541500	510.153320	-268.179443
2930.207287	5615.541500	508.902344	-186.601318
2930.207287	5615.541500	507.650391	-60.464935
2930.207287	5615.541500	506.398438	-192.252121
2930.207287	5615.541500	505.146484	-75.474792
2930.207287	5615.541500	503.893555	113.937935
2930.207287	5615.541500	502.641602	24.474844
2930.207287	5615.541500	501.388672	169.341400
2930.207287	5615.541500	500.134766	190.048035
2930.207287	5615.541500	498.881836	77.306404
2930.207287	5615.541500	497.627930	67.650597
2930.207287	5615.541500	496.374023	69.730560
2930.207287	5615.541500	495.119141	67.158051
2930.207287	5615.541500	493.865234	-57.044106
2930.207287	5615.541500	492.610352	19.991655
2930.207287	5615.541500	491.355469	43.231892
2930.207287	5615.541500	490.099609	15.049486
2930.207287	5615.541500	488.843750	-10.761022
2930.207287	5615.541500	487.587891	66.289261
2930.207287	5615.541500	486.332031	33.508984
2930.207287	5615.541500	485.075195	3.097543
2930.207287	5615.541500	483.818359	26.432201
2930.207287	5615.541500	482.561523	-97.334801
2930.207287	5615.541500	481.304688	-17.932127
2930.207287	5615.541500	480.046875	77.787163
2930.207287	5615.541500	478.789063	103.469109
2930.207287	5615.541500	477.531250	161.810135
2930.207287	5615.541500	476.272461	105.840340
2930.207287	5615.541500	475.013672	-52.709015
2930.207287	5615.541500	473.754883	129.210373
2930.207287	5615.541500	472.496094	56.973385
2930.207287	5615.541500	471.236328	227.137695
2930.207287	5615.541500	469.976563	150.245316
2930.207287	5615.541500	468.716797	52.414108
2930.207287	5615.541500	467.456055	266.701019
2930.207287	5615.541500	466.196289	310.904510
2930.207287	5615.541500	464.935547	303.860352
2930.207287	5615.541500	463.673828	329.388245
2930.207287	5615.541500	462.413086	364.193756
2930.207287	5615.541500	461.151367	450.145508
2930.207287	5615.541500	459.889648	268.549194
2930.207287	5615.541500	458.626953	447.451843
2930.207287	5615.541500	457.364258	170.554474
2930.207287	5615.541500	456.101563	328.417511
2930.207287	5615.541500	454.838867	342.090118
2930.207287	5615.541500	453.575195	223.280960
2930.207287	5615.541500	452.312500	246.179184
2930.207287	5615.541500	451.047852	194.704559
2930.207287	5615.541500	449.784180	454.342590
2930.207287	5615.541500	448.519531	277.382935
2930.207287	5615.541500	447.254883	300.044220
2930.207287	5615.541500	445.990234	320.313904
2930.207287	5615.541500	444.725586	263.951843
2930.207287	5615.541500	443.459961	237.698837
2930.207287	5615.541500	442.194336	341.243988
2930.207287	5615.541500	440.927734	349.612488
2930.207287	5615.541500	439.662109	420.478729
2930.207287	5615.541500	438.395508	447.198181
2930.207287	5615.541500	437.127930	411.258362
2930.207287	5615.541500	435.861328	435.465668
2930.207287	5615.541500	434.593750	464.194794
2930.207287	5615.541500	433.326172	448.813751
2930.207287	5615.541500	432.058594	491.202911
2930.207287	5615.541500	430.790039	531.144226
2930.207287	5615.541500	429.521484	406.659973
2930.207287	5615.541500	428.252930	302.925018
2930.207287	5615.541500	426.984375	546.041992
2930.207287	5615.541500	425.714844	462.866150
2930.207287	5615.541500	424.445313	474.372772
2930.207287	5615.541500	423.174805	476.480164
2930.207287	5615.541500	421.905273	466.878754
2930.207287	5615.541500	420.634766	378.566742
2930.207287	5615.541500	419.364258	648.163818
2930.207287	5615.541500	418.092773	545.654175
2930.207287	5615.541500	416.822266	521.514404
2930.207287	5615.541500	415.550781	644.936401
2930.207287	5615.541500	414.278320	571.938538
2930.207287	5615.541500	413.006836	653.370789
2930.207287	5615.541500	411.734375	699.955627
2930.207287	5615.541500	410.461914	667.888916
2930.207287	5615.541500	409.188477	552.599426
2930.207287	5615.541500	407.916016	702.256348
2930.207287	5615.541500	406.642578	563.495239
2930.207287	5615.541500	405.368164	542.072510
2930.207287	5615.541500	404.094727	382.174927
2930.207287	5615.541500	402.820313	454.727539
2930.207287	5615.541500	401.545898	612.187500
2930.207287	5615.541500	400.270508	631.153687
2930.207287	5615.541500	398.996094	564.658569
2930.207287	5615.541500	397.720703	477.181427
2930.207287	5615.541500	396.444336	368.725555
2930.207287	5615.541500	395.168945	388.831116
2930.207287	5615.541500	393.892578	431.600067
2930.207287	5615.541500	392.616211	393.539215
2930.207287	5615.541500	391.339844	506.880829
2930.207287	5615.541500	390.062500	606.026062
2930.207287	5615.541500	388.785156	518.635315
2930.207287	5615.541500	387.507813	389.557007
2930.207287	5615.541500	386.229492	521.994080
2930.207287	5615.541500	384.951172	603.458740
2930.207287	5615.541500	383.672852	487.034637
2930.207287	5615.541500	382.394531	553.879517
2930.207287	5615.541500	381.115234	549.119080
2930.207287	5615.541500	379.835938	557.688416
2930.207287	5615.541500	378.556641	437.345123
2930.207287	5615.541500	377.277344	559.694397
2930.207287	5615.541500	375.997070	493.488708
2930.207287	5615.541500	374.716797	431.410095
2930.207287	5615.541500	373.435547	410.104462
2930.207287	5615.541500	372.155273	259.986633
2930.207287	5615.541500	370.874023	256.017853
2930.207287	5615.541500	369.591797	180.498520
2930.207287	5615.541500	368.310547	225.837433
2930.207287	5615.541500	367.028320	165.266617
2930.207287	5615.541500	365.746094	284.967346
2930.207287	5615.541500	364.463867	252.986465
2930.207287	5615.541500	363.180664	236.414307
2930.207287	5615.541500	361.897461	162.040161
2930.207287	5615.541500	360.614258	265.441864
2930.207287	5615.541500	359.330078	50.316532
2930.207287	5615.541500	358.045898	211.795380
2930.207287	5615.541500	356.761719	185.114227
2930.207287	5615.541500	355.477539	294.840668
2930.207287	5615.541500	354.192383	198.186798
2930.207287	5615.541500	352.907227	235.594421
2930.207287	5615.541500	351.622070	183.181625
2930.207287	5615.541500	350.336914	212.211304
2930.207287	5615.541500	349.050781	124.021095
2930.207287	5615.541500	347.764648	101.243439
2930.207287	5615.541500	346.477539	262.434387
2930.207287	5615.541500	345.191406	64.626015
2930.207287	5615.541500	343.904297	196.694550
2930.207287	5615.541500	342.616211	-0.507938
2930.207287	5615.541500	341.329102	147.983276
2930.207287	5615.541500	340.041016	94.922974
2930.207287	5615.541500	338.752930	-9.173678
2930.207287	5615.541500	337.463867	104.481964
2930.207287	5615.541500	336.175781	-19.718164
2930.207287	5615.541500	334.886719	-53.804901
2930.207287	5615.541500	333.596680	22.628115
2930.207287	5615.541500	332.307617	-74.956757
2930.207287	5615.541500	331.017578	15.280177
2930.207287	5615.541500	329.727539	-43.476982
2930.207287	5615.541500	328.436523	-82.871025
2930.207287	5615.541500	327.146484	56.303337
2930.207287	5615.541500	325.855469	148.768143
2930.207287	5615.541500	324.563477	-7.770041
2930.207287	5615.541500	323.272461	39.123787
2930.207287	5615.541500	321.980469	-44.760330
2930.207287	5615.541500	320.688477	-48.077030
2930.207287	5615.541500	319.395508	-2.734535
2930.207287	5615.541500	318.103516	-79.006203
2930.207287	5615.541500	316.810547	25.001493
2930.207287	5615.541500	315.516602	-49.443211
2930.207287	5615.541500	314.223633	-23.080528
2930.207287	5615.541500	312.929688	-143.354568
2930.207287	5615.541500	311.635742	54.794685
2930.207287	5615.541500	310.340820	33.676884
2930.207287	5615.541500	309.045898	-22.918129
2930.207287	5615.541500	307.750977	-164.859039
2930.207287	5615.541500	306.456055	149.471451
2930.207287	5615.541500	305.160156	-86.216820
2930.207287	5615.541500	303.865234	-78.718956
2930.207287	5615.541500	302.568359	60.661083
2930.207287	5615.541500	301.272461	44.419098
2930.207287	5615.541500	299.975586	173.579727
2930.207287	5615.541500	298.678711	303.230835
