#X		#Y		#Wave		#Intensity
12475.020798	3950.995000	1999.980469	-91.280838
12475.020798	3950.995000	1999.016602	-95.793922
12475.020798	3950.995000	1998.052734	89.218559
12475.020798	3950.995000	1997.087891	56.383118
12475.020798	3950.995000	1996.123047	43.674671
12475.020798	3950.995000	1995.158203	13.913949
12475.020798	3950.995000	1994.193359	-32.897438
12475.020798	3950.995000	1993.228516	145.916153
12475.020798	3950.995000	1992.262695	-73.692123
12475.020798	3950.995000	1991.297852	85.766602
12475.020798	3950.995000	1990.332031	27.610332
12475.020798	3950.995000	1989.366211	197.359268
12475.020798	3950.995000	1988.399414	38.224121
12475.020798	3950.995000	1987.433594	173.721863
12475.020798	3950.995000	1986.466797	131.313736
12475.020798	3950.995000	1985.500977	-36.976013
12475.020798	3950.995000	1984.534180	108.953728
12475.020798	3950.995000	1983.567383	-56.416218
12475.020798	3950.995000	1982.599609	-60.914894
12475.020798	3950.995000	1981.632813	-127.003296
12475.020798	3950.995000	1980.665039	17.077105
12475.020798	3950.995000	1979.697266	94.580437
12475.020798	3950.995000	1978.729492	6.761155
12475.020798	3950.995000	1977.761719	185.772293
12475.020798	3950.995000	1976.792969	-160.930099
12475.020798	3950.995000	1975.825195	154.070877
12475.020798	3950.995000	1974.856445	-2.221305
12475.020798	3950.995000	1973.887695	-84.313316
12475.020798	3950.995000	1972.918945	-8.386360
12475.020798	3950.995000	1971.949219	-129.668594
12475.020798	3950.995000	1970.980469	72.221092
12475.020798	3950.995000	1970.010742	104.037140
12475.020798	3950.995000	1969.041016	5.308041
12475.020798	3950.995000	1968.071289	98.933319
12475.020798	3950.995000	1967.101563	-78.411987
12475.020798	3950.995000	1966.130859	42.473057
12475.020798	3950.995000	1965.161133	163.398773
12475.020798	3950.995000	1964.190430	104.594131
12475.020798	3950.995000	1963.219727	-57.519653
12475.020798	3950.995000	1962.249023	-66.881241
12475.020798	3950.995000	1961.277344	91.187820
12475.020798	3950.995000	1960.306641	172.980042
12475.020798	3950.995000	1959.334961	-47.807529
12475.020798	3950.995000	1958.363281	139.868530
12475.020798	3950.995000	1957.391602	10.274205
12475.020798	3950.995000	1956.419922	16.016367
12475.020798	3950.995000	1955.447266	-78.992210
12475.020798	3950.995000	1954.474609	-36.276314
12475.020798	3950.995000	1953.501953	117.052467
12475.020798	3950.995000	1952.529297	46.769356
12475.020798	3950.995000	1951.556641	84.635986
12475.020798	3950.995000	1950.583984	-59.233360
12475.020798	3950.995000	1949.610352	-158.818756
12475.020798	3950.995000	1948.636719	92.755699
12475.020798	3950.995000	1947.663086	-6.771488
12475.020798	3950.995000	1946.689453	43.471111
12475.020798	3950.995000	1945.715820	-144.311020
12475.020798	3950.995000	1944.741211	217.553909
12475.020798	3950.995000	1943.767578	103.425972
12475.020798	3950.995000	1942.792969	13.876958
12475.020798	3950.995000	1941.818359	-9.424899
12475.020798	3950.995000	1940.842773	160.962036
12475.020798	3950.995000	1939.868164	169.516205
12475.020798	3950.995000	1938.892578	40.833134
12475.020798	3950.995000	1937.916992	20.007067
12475.020798	3950.995000	1936.941406	1.636665
12475.020798	3950.995000	1935.965820	24.907558
12475.020798	3950.995000	1934.990234	40.817940
12475.020798	3950.995000	1934.013672	-87.737991
12475.020798	3950.995000	1933.037109	158.275696
12475.020798	3950.995000	1932.060547	105.598564
12475.020798	3950.995000	1931.083984	48.033699
12475.020798	3950.995000	1930.107422	19.835423
12475.020798	3950.995000	1929.129883	82.138359
12475.020798	3950.995000	1928.153320	124.836769
12475.020798	3950.995000	1927.175781	-25.668634
12475.020798	3950.995000	1926.198242	31.665321
12475.020798	3950.995000	1925.219727	88.956772
12475.020798	3950.995000	1924.242188	109.547562
12475.020798	3950.995000	1923.263672	81.239777
12475.020798	3950.995000	1922.285156	16.276062
12475.020798	3950.995000	1921.306641	-12.053725
12475.020798	3950.995000	1920.328125	93.910431
12475.020798	3950.995000	1919.349609	141.210419
12475.020798	3950.995000	1918.370117	124.995705
12475.020798	3950.995000	1917.391602	296.684906
12475.020798	3950.995000	1916.412109	97.373978
12475.020798	3950.995000	1915.431641	10.332359
12475.020798	3950.995000	1914.452148	-32.803272
12475.020798	3950.995000	1913.472656	-24.741741
12475.020798	3950.995000	1912.492188	-82.553314
12475.020798	3950.995000	1911.511719	-67.242737
12475.020798	3950.995000	1910.531250	99.148178
12475.020798	3950.995000	1909.550781	104.598129
12475.020798	3950.995000	1908.569336	-19.128227
12475.020798	3950.995000	1907.588867	13.061540
12475.020798	3950.995000	1906.607422	-27.867928
12475.020798	3950.995000	1905.625977	52.934456
12475.020798	3950.995000	1904.644531	-65.979248
12475.020798	3950.995000	1903.662109	51.231705
12475.020798	3950.995000	1902.680664	114.813553
12475.020798	3950.995000	1901.698242	-13.906083
12475.020798	3950.995000	1900.715820	78.771843
12475.020798	3950.995000	1899.733398	98.398499
12475.020798	3950.995000	1898.750000	74.196342
12475.020798	3950.995000	1897.767578	-146.995102
12475.020798	3950.995000	1896.784180	-27.800724
12475.020798	3950.995000	1895.800781	-76.408875
12475.020798	3950.995000	1894.817383	3.752195
12475.020798	3950.995000	1893.833984	-35.220348
12475.020798	3950.995000	1892.850586	-154.391434
12475.020798	3950.995000	1891.866211	-16.114052
12475.020798	3950.995000	1890.881836	-164.482529
12475.020798	3950.995000	1889.897461	-43.349861
12475.020798	3950.995000	1888.913086	-24.263357
12475.020798	3950.995000	1887.927734	-267.350586
12475.020798	3950.995000	1886.943359	-8.105788
12475.020798	3950.995000	1885.958008	3.530743
12475.020798	3950.995000	1884.972656	-159.533020
12475.020798	3950.995000	1883.987305	33.909550
12475.020798	3950.995000	1883.001953	-92.833351
12475.020798	3950.995000	1882.015625	66.478622
12475.020798	3950.995000	1881.029297	-60.331303
12475.020798	3950.995000	1880.042969	-194.417816
12475.020798	3950.995000	1879.056641	30.079067
12475.020798	3950.995000	1878.070313	-130.729706
12475.020798	3950.995000	1877.083984	11.214071
12475.020798	3950.995000	1876.096680	22.284256
12475.020798	3950.995000	1875.109375	-87.759079
12475.020798	3950.995000	1874.122070	-47.738560
12475.020798	3950.995000	1873.134766	-92.496361
12475.020798	3950.995000	1872.146484	-33.248688
12475.020798	3950.995000	1871.159180	-119.235161
12475.020798	3950.995000	1870.170898	-74.633987
12475.020798	3950.995000	1869.182617	-163.116409
12475.020798	3950.995000	1868.194336	-63.029469
12475.020798	3950.995000	1867.205078	-71.825989
12475.020798	3950.995000	1866.216797	71.593842
12475.020798	3950.995000	1865.227539	86.820778
12475.020798	3950.995000	1864.238281	82.652603
12475.020798	3950.995000	1863.249023	-54.435463
12475.020798	3950.995000	1862.259766	-12.809022
12475.020798	3950.995000	1861.269531	-12.313848
12475.020798	3950.995000	1860.279297	-38.437073
12475.020798	3950.995000	1859.290039	70.561951
12475.020798	3950.995000	1858.298828	41.890419
12475.020798	3950.995000	1857.308594	184.485870
12475.020798	3950.995000	1856.318359	261.827606
12475.020798	3950.995000	1855.327148	336.660278
12475.020798	3950.995000	1854.335938	100.310570
12475.020798	3950.995000	1853.344727	225.648193
12475.020798	3950.995000	1852.353516	102.577065
12475.020798	3950.995000	1851.362305	18.048893
12475.020798	3950.995000	1850.370117	-47.239826
12475.020798	3950.995000	1849.377930	34.395294
12475.020798	3950.995000	1848.385742	255.645248
12475.020798	3950.995000	1847.393555	98.627762
12475.020798	3950.995000	1846.401367	170.353149
12475.020798	3950.995000	1845.408203	232.349564
12475.020798	3950.995000	1844.415039	202.787064
12475.020798	3950.995000	1843.421875	-16.954939
12475.020798	3950.995000	1842.428711	138.669998
12475.020798	3950.995000	1841.435547	-20.976290
12475.020798	3950.995000	1840.441406	50.261921
12475.020798	3950.995000	1839.448242	176.714294
12475.020798	3950.995000	1838.454102	141.954391
12475.020798	3950.995000	1837.459961	181.653656
12475.020798	3950.995000	1836.464844	33.794651
12475.020798	3950.995000	1835.470703	176.678299
12475.020798	3950.995000	1834.475586	-16.921286
12475.020798	3950.995000	1833.480469	159.392242
12475.020798	3950.995000	1832.485352	-48.691219
12475.020798	3950.995000	1831.490234	175.431351
12475.020798	3950.995000	1830.495117	149.721329
12475.020798	3950.995000	1829.499023	-108.884171
12475.020798	3950.995000	1828.502930	136.484146
12475.020798	3950.995000	1827.506836	36.177326
12475.020798	3950.995000	1826.510742	142.132309
12475.020798	3950.995000	1825.513672	70.479240
12475.020798	3950.995000	1824.517578	169.033264
12475.020798	3950.995000	1823.520508	34.903751
12475.020798	3950.995000	1822.523438	-22.551294
12475.020798	3950.995000	1821.526367	44.558186
12475.020798	3950.995000	1820.529297	101.972824
12475.020798	3950.995000	1819.531250	65.844711
12475.020798	3950.995000	1818.533203	106.293877
12475.020798	3950.995000	1817.535156	295.121490
12475.020798	3950.995000	1816.537109	57.594505
12475.020798	3950.995000	1815.539063	95.371536
12475.020798	3950.995000	1814.540039	39.696022
12475.020798	3950.995000	1813.541992	91.644592
12475.020798	3950.995000	1812.542969	74.095276
12475.020798	3950.995000	1811.543945	-96.631157
12475.020798	3950.995000	1810.543945	187.023819
12475.020798	3950.995000	1809.544922	236.149185
12475.020798	3950.995000	1808.544922	65.211174
12475.020798	3950.995000	1807.544922	161.958588
12475.020798	3950.995000	1806.544922	81.727692
12475.020798	3950.995000	1805.544922	8.601846
12475.020798	3950.995000	1804.544922	128.914383
12475.020798	3950.995000	1803.543945	105.770058
12475.020798	3950.995000	1802.542969	22.838028
12475.020798	3950.995000	1801.541992	97.421349
12475.020798	3950.995000	1800.541016	124.136536
12475.020798	3950.995000	1799.539063	31.403425
12475.020798	3950.995000	1798.538086	38.835373
12475.020798	3950.995000	1797.536133	-80.287971
12475.020798	3950.995000	1796.534180	15.212833
12475.020798	3950.995000	1795.532227	-44.440228
12475.020798	3950.995000	1794.529297	22.194639
12475.020798	3950.995000	1793.527344	-97.239944
12475.020798	3950.995000	1792.524414	114.569862
12475.020798	3950.995000	1791.521484	180.827393
12475.020798	3950.995000	1790.518555	118.294685
12475.020798	3950.995000	1789.514648	150.958923
12475.020798	3950.995000	1788.511719	52.518379
12475.020798	3950.995000	1787.507813	120.688255
12475.020798	3950.995000	1786.503906	143.489761
12475.020798	3950.995000	1785.500000	111.425148
12475.020798	3950.995000	1784.496094	141.142166
12475.020798	3950.995000	1783.491211	249.251419
12475.020798	3950.995000	1782.486328	176.404404
12475.020798	3950.995000	1781.481445	34.494968
12475.020798	3950.995000	1780.476563	-100.337914
12475.020798	3950.995000	1779.471680	126.170692
12475.020798	3950.995000	1778.465820	60.075203
12475.020798	3950.995000	1777.460938	-113.054688
12475.020798	3950.995000	1776.455078	8.417767
12475.020798	3950.995000	1775.449219	98.842064
12475.020798	3950.995000	1774.442383	37.079823
12475.020798	3950.995000	1773.436523	-110.264236
12475.020798	3950.995000	1772.429688	-55.849136
12475.020798	3950.995000	1771.422852	121.877205
12475.020798	3950.995000	1770.416016	216.340897
12475.020798	3950.995000	1769.409180	135.035385
12475.020798	3950.995000	1768.402344	41.775478
12475.020798	3950.995000	1767.394531	116.847778
12475.020798	3950.995000	1766.386719	-26.435291
12475.020798	3950.995000	1765.378906	24.661959
12475.020798	3950.995000	1764.371094	-50.040810
12475.020798	3950.995000	1763.362305	-169.890228
12475.020798	3950.995000	1762.354492	20.660395
12475.020798	3950.995000	1761.345703	87.784546
12475.020798	3950.995000	1760.336914	-98.735893
12475.020798	3950.995000	1759.328125	-185.831238
12475.020798	3950.995000	1758.318359	15.885695
12475.020798	3950.995000	1757.308594	162.938370
12475.020798	3950.995000	1756.299805	84.924950
12475.020798	3950.995000	1755.290039	2.065364
12475.020798	3950.995000	1754.279297	63.442638
12475.020798	3950.995000	1753.269531	-171.064240
12475.020798	3950.995000	1752.258789	48.545170
12475.020798	3950.995000	1751.249023	116.587875
12475.020798	3950.995000	1750.238281	11.844110
12475.020798	3950.995000	1749.226563	-64.638229
12475.020798	3950.995000	1748.215820	142.427368
12475.020798	3950.995000	1747.204102	-106.836815
12475.020798	3950.995000	1746.193359	47.904110
12475.020798	3950.995000	1745.181641	48.884239
12475.020798	3950.995000	1744.168945	11.923962
12475.020798	3950.995000	1743.157227	-29.871536
12475.020798	3950.995000	1742.144531	-45.833336
12475.020798	3950.995000	1741.132813	15.983151
12475.020798	3950.995000	1740.120117	-125.344482
12475.020798	3950.995000	1739.106445	51.774696
12475.020798	3950.995000	1738.093750	-262.007874
12475.020798	3950.995000	1737.080078	11.494030
12475.020798	3950.995000	1736.067383	-87.842995
12475.020798	3950.995000	1735.053711	-83.556870
12475.020798	3950.995000	1734.040039	54.955116
12475.020798	3950.995000	1733.025391	-160.283203
12475.020798	3950.995000	1732.011719	72.159569
12475.020798	3950.995000	1730.997070	-79.678352
12475.020798	3950.995000	1729.982422	69.909828
12475.020798	3950.995000	1728.967773	68.565323
12475.020798	3950.995000	1727.952148	-126.022636
12475.020798	3950.995000	1726.937500	4.213512
12475.020798	3950.995000	1725.921875	2.425928
12475.020798	3950.995000	1724.906250	-39.515762
12475.020798	3950.995000	1723.890625	-62.768131
12475.020798	3950.995000	1722.875000	26.756388
12475.020798	3950.995000	1721.858398	22.002142
12475.020798	3950.995000	1720.841797	94.699699
12475.020798	3950.995000	1719.825195	96.686676
12475.020798	3950.995000	1718.808594	164.339752
12475.020798	3950.995000	1717.791992	1.498527
12475.020798	3950.995000	1716.774414	139.316666
12475.020798	3950.995000	1715.756836	70.193466
12475.020798	3950.995000	1714.739258	78.455856
12475.020798	3950.995000	1713.721680	142.923950
12475.020798	3950.995000	1712.704102	357.481354
12475.020798	3950.995000	1711.685547	189.147308
12475.020798	3950.995000	1710.667969	173.299667
12475.020798	3950.995000	1709.649414	-56.251522
12475.020798	3950.995000	1708.630859	0.357966
12475.020798	3950.995000	1707.611328	141.218170
12475.020798	3950.995000	1706.592773	204.495209
12475.020798	3950.995000	1705.573242	190.198288
12475.020798	3950.995000	1704.553711	159.341644
12475.020798	3950.995000	1703.534180	208.033615
12475.020798	3950.995000	1702.513672	401.825562
12475.020798	3950.995000	1701.494141	229.902603
12475.020798	3950.995000	1700.473633	303.836121
12475.020798	3950.995000	1699.453125	363.533722
12475.020798	3950.995000	1698.432617	163.133087
12475.020798	3950.995000	1697.412109	208.476074
12475.020798	3950.995000	1696.390625	445.566376
12475.020798	3950.995000	1695.369141	338.389374
12475.020798	3950.995000	1694.347656	390.205902
12475.020798	3950.995000	1693.326172	308.501373
12475.020798	3950.995000	1692.304688	184.572815
12475.020798	3950.995000	1691.282227	231.224060
12475.020798	3950.995000	1690.260742	361.891602
12475.020798	3950.995000	1689.238281	223.510086
12475.020798	3950.995000	1688.214844	190.176895
12475.020798	3950.995000	1687.192383	273.555969
12475.020798	3950.995000	1686.168945	295.983521
12475.020798	3950.995000	1685.146484	322.940460
12475.020798	3950.995000	1684.123047	380.069122
12475.020798	3950.995000	1683.099609	413.672150
12475.020798	3950.995000	1682.075195	353.708588
12475.020798	3950.995000	1681.051758	256.291412
12475.020798	3950.995000	1680.027344	259.077484
12475.020798	3950.995000	1679.002930	317.701172
12475.020798	3950.995000	1677.978516	399.474365
12475.020798	3950.995000	1676.953125	483.373047
12475.020798	3950.995000	1675.928711	592.756775
12475.020798	3950.995000	1674.903320	447.811401
12475.020798	3950.995000	1673.877930	633.748291
12475.020798	3950.995000	1672.852539	642.351990
12475.020798	3950.995000	1671.826172	785.912354
12475.020798	3950.995000	1670.800781	777.871460
12475.020798	3950.995000	1669.774414	788.291870
12475.020798	3950.995000	1668.748047	863.756714
12475.020798	3950.995000	1667.721680	831.947205
12475.020798	3950.995000	1666.694336	1002.484680
12475.020798	3950.995000	1665.667969	986.651428
12475.020798	3950.995000	1664.640625	1105.603394
12475.020798	3950.995000	1663.613281	1196.445190
12475.020798	3950.995000	1662.585938	1114.986938
12475.020798	3950.995000	1661.557617	1319.417725
12475.020798	3950.995000	1660.530273	1542.245850
12475.020798	3950.995000	1659.501953	1474.248291
12475.020798	3950.995000	1658.473633	1373.592651
12475.020798	3950.995000	1657.444336	1423.842529
12475.020798	3950.995000	1656.416016	1585.466553
12475.020798	3950.995000	1655.386719	1793.312744
12475.020798	3950.995000	1654.358398	1787.308228
12475.020798	3950.995000	1653.328125	2052.768311
12475.020798	3950.995000	1652.298828	2006.940796
12475.020798	3950.995000	1651.269531	2172.195557
12475.020798	3950.995000	1650.239258	2126.053711
12475.020798	3950.995000	1649.208984	2147.070801
12475.020798	3950.995000	1648.178711	2346.550293
12475.020798	3950.995000	1647.148438	2538.854736
12475.020798	3950.995000	1646.117188	2557.018066
12475.020798	3950.995000	1645.086914	2591.291016
12475.020798	3950.995000	1644.055664	2808.493896
12475.020798	3950.995000	1643.024414	2680.190918
12475.020798	3950.995000	1641.992188	3077.714844
12475.020798	3950.995000	1640.960938	3298.925781
12475.020798	3950.995000	1639.928711	3401.774902
12475.020798	3950.995000	1638.896484	3624.861572
12475.020798	3950.995000	1637.864258	3840.783936
12475.020798	3950.995000	1636.832031	3903.725098
12475.020798	3950.995000	1635.798828	3971.113770
12475.020798	3950.995000	1634.766602	4154.062012
12475.020798	3950.995000	1633.733398	4126.274414
12475.020798	3950.995000	1632.699219	4250.993652
12475.020798	3950.995000	1631.666016	4377.877930
12475.020798	3950.995000	1630.632813	4749.656738
12475.020798	3950.995000	1629.598633	4827.578125
12475.020798	3950.995000	1628.564453	5191.921387
12475.020798	3950.995000	1627.530273	5227.891113
12475.020798	3950.995000	1626.495117	5210.565430
12475.020798	3950.995000	1625.460938	5710.537598
12475.020798	3950.995000	1624.425781	6226.331543
12475.020798	3950.995000	1623.390625	6330.838867
12475.020798	3950.995000	1622.355469	6499.822754
12475.020798	3950.995000	1621.319336	6964.016602
12475.020798	3950.995000	1620.284180	7097.974121
12475.020798	3950.995000	1619.248047	7266.345215
12475.020798	3950.995000	1618.211914	7123.151367
12475.020798	3950.995000	1617.174805	7394.979004
12475.020798	3950.995000	1616.138672	7553.646484
12475.020798	3950.995000	1615.101563	7719.029785
12475.020798	3950.995000	1614.065430	7792.083984
12475.020798	3950.995000	1613.027344	8014.727539
12475.020798	3950.995000	1611.990234	7688.886230
12475.020798	3950.995000	1610.953125	8042.587402
12475.020798	3950.995000	1609.915039	8439.778320
12475.020798	3950.995000	1608.876953	7883.462402
12475.020798	3950.995000	1607.838867	8086.959473
12475.020798	3950.995000	1606.800781	7434.067871
12475.020798	3950.995000	1605.761719	7391.126953
12475.020798	3950.995000	1604.723633	7348.140137
12475.020798	3950.995000	1603.684570	7452.269531
12475.020798	3950.995000	1602.644531	7151.463867
12475.020798	3950.995000	1601.605469	7285.309082
12475.020798	3950.995000	1600.566406	6844.273926
12475.020798	3950.995000	1599.526367	6752.671875
12475.020798	3950.995000	1598.486328	6913.808105
12475.020798	3950.995000	1597.446289	6507.291504
12475.020798	3950.995000	1596.405273	6863.482422
12475.020798	3950.995000	1595.365234	6486.835938
12475.020798	3950.995000	1594.324219	6601.630371
12475.020798	3950.995000	1593.283203	6629.063965
12475.020798	3950.995000	1592.242188	6390.152832
12475.020798	3950.995000	1591.200195	6518.419434
12475.020798	3950.995000	1590.159180	6426.329102
12475.020798	3950.995000	1589.117188	6515.404297
12475.020798	3950.995000	1588.075195	6487.407227
12475.020798	3950.995000	1587.032227	6681.759277
12475.020798	3950.995000	1585.990234	7022.735840
12475.020798	3950.995000	1584.947266	6707.910645
12475.020798	3950.995000	1583.904297	6686.497070
12475.020798	3950.995000	1582.861328	6346.541504
12475.020798	3950.995000	1581.818359	6693.928223
12475.020798	3950.995000	1580.775391	6509.746094
12475.020798	3950.995000	1579.731445	6543.101074
12475.020798	3950.995000	1578.687500	6406.968750
12475.020798	3950.995000	1577.643555	6344.092773
12475.020798	3950.995000	1576.598633	6221.660645
12475.020798	3950.995000	1575.554688	6380.713867
12475.020798	3950.995000	1574.509766	6432.105469
12475.020798	3950.995000	1573.464844	6291.305664
12475.020798	3950.995000	1572.419922	6287.733398
12475.020798	3950.995000	1571.374023	6309.247070
12475.020798	3950.995000	1570.329102	6266.742676
12475.020798	3950.995000	1569.283203	5988.783203
12475.020798	3950.995000	1568.237305	5939.410156
12475.020798	3950.995000	1567.191406	5960.852539
12475.020798	3950.995000	1566.144531	6098.719238
12475.020798	3950.995000	1565.098633	5857.444824
12475.020798	3950.995000	1564.051758	5867.372559
12475.020798	3950.995000	1563.004883	5822.486328
12475.020798	3950.995000	1561.957031	5875.712402
12475.020798	3950.995000	1560.910156	6056.719727
12475.020798	3950.995000	1559.862305	5530.356934
12475.020798	3950.995000	1558.814453	5252.820313
12475.020798	3950.995000	1557.766602	5477.107422
12475.020798	3950.995000	1556.718750	5379.804688
12475.020798	3950.995000	1555.669922	5323.536621
12475.020798	3950.995000	1554.621094	4964.150391
12475.020798	3950.995000	1553.573242	5181.467773
12475.020798	3950.995000	1552.523438	5277.886230
12475.020798	3950.995000	1551.474609	5267.242188
12475.020798	3950.995000	1550.424805	5261.129395
12475.020798	3950.995000	1549.375000	5216.320801
12475.020798	3950.995000	1548.325195	5185.197754
12475.020798	3950.995000	1547.275391	5106.300781
12475.020798	3950.995000	1546.225586	5202.674805
12475.020798	3950.995000	1545.174805	4864.431641
12475.020798	3950.995000	1544.124023	5122.326172
12475.020798	3950.995000	1543.073242	5166.355469
12475.020798	3950.995000	1542.022461	5101.245605
12475.020798	3950.995000	1540.970703	5163.466309
12475.020798	3950.995000	1539.919922	4912.052246
12475.020798	3950.995000	1538.868164	4985.705566
12475.020798	3950.995000	1537.815430	5270.632813
12475.020798	3950.995000	1536.763672	5035.312012
12475.020798	3950.995000	1535.710938	4795.548340
12475.020798	3950.995000	1534.659180	4730.795410
12475.020798	3950.995000	1533.606445	4298.292969
12475.020798	3950.995000	1532.552734	4397.110840
12475.020798	3950.995000	1531.500000	4248.605957
12475.020798	3950.995000	1530.446289	4306.647949
12475.020798	3950.995000	1529.393555	3926.932129
12475.020798	3950.995000	1528.338867	4062.199951
12475.020798	3950.995000	1527.285156	4181.625977
12475.020798	3950.995000	1526.231445	3800.026123
12475.020798	3950.995000	1525.176758	3633.939941
12475.020798	3950.995000	1524.122070	3438.519287
12475.020798	3950.995000	1523.067383	3451.692383
12475.020798	3950.995000	1522.012695	3460.395020
12475.020798	3950.995000	1520.957031	3471.395996
12475.020798	3950.995000	1519.901367	3192.616699
12475.020798	3950.995000	1518.845703	3427.946045
12475.020798	3950.995000	1517.790039	3416.530518
12475.020798	3950.995000	1516.734375	3086.099365
12475.020798	3950.995000	1515.677734	2970.802246
12475.020798	3950.995000	1514.621094	2977.790527
12475.020798	3950.995000	1513.564453	3179.371582
12475.020798	3950.995000	1512.507813	2971.662354
12475.020798	3950.995000	1511.450195	3039.918945
12475.020798	3950.995000	1510.393555	3099.226074
12475.020798	3950.995000	1509.335938	2876.079590
12475.020798	3950.995000	1508.278320	3100.501709
12475.020798	3950.995000	1507.219727	2866.311279
12475.020798	3950.995000	1506.162109	2688.808594
12475.020798	3950.995000	1505.103516	2757.590332
12475.020798	3950.995000	1504.044922	2474.246338
12475.020798	3950.995000	1502.986328	2640.317871
12475.020798	3950.995000	1501.926758	2373.092773
12475.020798	3950.995000	1500.868164	2304.673828
12475.020798	3950.995000	1499.808594	2430.378906
12475.020798	3950.995000	1498.749023	2165.951660
12475.020798	3950.995000	1497.688477	2165.557617
12475.020798	3950.995000	1496.628906	2084.145752
12475.020798	3950.995000	1495.568359	2106.552734
12475.020798	3950.995000	1494.507813	2273.311035
12475.020798	3950.995000	1493.447266	1890.338257
12475.020798	3950.995000	1492.386719	1870.347900
12475.020798	3950.995000	1491.325195	2019.396484
12475.020798	3950.995000	1490.263672	1844.244385
12475.020798	3950.995000	1489.202148	1671.549805
12475.020798	3950.995000	1488.140625	1787.189941
12475.020798	3950.995000	1487.079102	1632.856079
12475.020798	3950.995000	1486.016602	1624.957397
12475.020798	3950.995000	1484.954102	1371.993652
12475.020798	3950.995000	1483.891602	1326.204956
12475.020798	3950.995000	1482.829102	1847.290771
12475.020798	3950.995000	1481.765625	1651.121582
12475.020798	3950.995000	1480.702148	1468.708130
12475.020798	3950.995000	1479.638672	1410.159790
12475.020798	3950.995000	1478.575195	1502.392700
12475.020798	3950.995000	1477.511719	1399.301392
12475.020798	3950.995000	1476.447266	1375.032593
12475.020798	3950.995000	1475.382813	1139.967163
12475.020798	3950.995000	1474.318359	1147.613037
12475.020798	3950.995000	1473.253906	1260.841309
12475.020798	3950.995000	1472.189453	1517.866699
12475.020798	3950.995000	1471.124023	1274.815186
12475.020798	3950.995000	1470.058594	1231.500610
12475.020798	3950.995000	1468.993164	1621.149414
12475.020798	3950.995000	1467.927734	1532.964600
12475.020798	3950.995000	1466.861328	1425.158813
12475.020798	3950.995000	1465.794922	1534.578125
12475.020798	3950.995000	1464.728516	1602.314331
12475.020798	3950.995000	1463.662109	1644.912231
12475.020798	3950.995000	1462.594727	1616.061523
12475.020798	3950.995000	1461.528320	1643.745728
12475.020798	3950.995000	1460.460938	1535.118164
12475.020798	3950.995000	1459.393555	1891.047363
12475.020798	3950.995000	1458.326172	1856.693115
12475.020798	3950.995000	1457.257813	1856.380981
12475.020798	3950.995000	1456.189453	2188.328369
12475.020798	3950.995000	1455.121094	2132.082031
12475.020798	3950.995000	1454.052734	2353.813477
12475.020798	3950.995000	1452.984375	2289.985352
12475.020798	3950.995000	1451.915039	2109.117432
12475.020798	3950.995000	1450.845703	2345.652588
12475.020798	3950.995000	1449.776367	1949.418701
12475.020798	3950.995000	1448.707031	1890.618530
12475.020798	3950.995000	1447.636719	1727.237427
12475.020798	3950.995000	1446.567383	1806.891724
12475.020798	3950.995000	1445.497070	1587.290894
12475.020798	3950.995000	1444.425781	1086.847290
12475.020798	3950.995000	1443.355469	953.115479
12475.020798	3950.995000	1442.285156	1216.672852
12475.020798	3950.995000	1441.213867	939.421814
12475.020798	3950.995000	1440.142578	1162.846313
12475.020798	3950.995000	1439.070313	860.550171
12475.020798	3950.995000	1437.999023	884.300781
12475.020798	3950.995000	1436.926758	1187.898560
12475.020798	3950.995000	1435.854492	792.933838
12475.020798	3950.995000	1434.782227	745.228271
12475.020798	3950.995000	1433.709961	691.378906
12475.020798	3950.995000	1432.636719	671.680542
12475.020798	3950.995000	1431.563477	950.179382
12475.020798	3950.995000	1430.490234	737.841675
12475.020798	3950.995000	1429.416992	594.258545
12475.020798	3950.995000	1428.343750	504.091339
12475.020798	3950.995000	1427.269531	697.089050
12475.020798	3950.995000	1426.195313	576.060364
12475.020798	3950.995000	1425.121094	80.043640
12475.020798	3950.995000	1424.046875	239.774399
12475.020798	3950.995000	1422.971680	18.373539
12475.020798	3950.995000	1421.896484	0.914383
12475.020798	3950.995000	1420.821289	233.441040
12475.020798	3950.995000	1419.746094	-14.602023
12475.020798	3950.995000	1418.669922	-42.772762
12475.020798	3950.995000	1417.594727	56.077522
12475.020798	3950.995000	1416.518555	342.785156
12475.020798	3950.995000	1415.442383	-56.804653
12475.020798	3950.995000	1414.365234	314.399475
12475.020798	3950.995000	1413.289063	267.014923
12475.020798	3950.995000	1412.211914	278.913055
12475.020798	3950.995000	1411.134766	501.447845
12475.020798	3950.995000	1410.057617	591.936584
12475.020798	3950.995000	1408.979492	933.782288
12475.020798	3950.995000	1407.902344	526.406433
12475.020798	3950.995000	1406.824219	802.985535
12475.020798	3950.995000	1405.746094	1116.532227
12475.020798	3950.995000	1404.666992	695.532593
12475.020798	3950.995000	1403.588867	695.171570
12475.020798	3950.995000	1402.509766	484.692017
12475.020798	3950.995000	1401.430664	781.494202
12475.020798	3950.995000	1400.351563	569.848450
12475.020798	3950.995000	1399.271484	840.198914
12475.020798	3950.995000	1398.192383	971.048157
12475.020798	3950.995000	1397.112305	770.547791
12475.020798	3950.995000	1396.031250	750.099487
12475.020798	3950.995000	1394.951172	790.427063
12475.020798	3950.995000	1393.871094	737.930054
12475.020798	3950.995000	1392.790039	814.015015
12475.020798	3950.995000	1391.708984	799.362915
12475.020798	3950.995000	1390.626953	1115.134644
12475.020798	3950.995000	1389.545898	1112.295410
12475.020798	3950.995000	1388.463867	1172.447876
12475.020798	3950.995000	1387.381836	1187.226929
12475.020798	3950.995000	1386.299805	1375.260132
12475.020798	3950.995000	1385.217773	1161.588623
12475.020798	3950.995000	1384.134766	1393.466675
12475.020798	3950.995000	1383.051758	1368.020142
12475.020798	3950.995000	1381.968750	1378.237793
12475.020798	3950.995000	1380.885742	1316.467529
12475.020798	3950.995000	1379.802734	1545.865723
12475.020798	3950.995000	1378.718750	1177.133057
12475.020798	3950.995000	1377.634766	1329.218384
12475.020798	3950.995000	1376.550781	1245.440063
12475.020798	3950.995000	1375.465820	1090.700806
12475.020798	3950.995000	1374.381836	1251.043823
12475.020798	3950.995000	1373.296875	1194.002808
12475.020798	3950.995000	1372.211914	979.726074
12475.020798	3950.995000	1371.126953	1097.663086
12475.020798	3950.995000	1370.041016	1057.094360
12475.020798	3950.995000	1368.955078	1300.302490
12475.020798	3950.995000	1367.869141	931.142639
12475.020798	3950.995000	1366.783203	771.523254
12475.020798	3950.995000	1365.697266	1152.838623
12475.020798	3950.995000	1364.610352	1404.544434
12475.020798	3950.995000	1363.523438	1371.782959
12475.020798	3950.995000	1362.436523	1438.442749
12475.020798	3950.995000	1361.349609	1407.584229
12475.020798	3950.995000	1360.261719	1257.124878
12475.020798	3950.995000	1359.174805	1260.830811
12475.020798	3950.995000	1358.086914	1448.424316
12475.020798	3950.995000	1356.998047	1427.560181
12475.020798	3950.995000	1355.910156	1576.756592
12475.020798	3950.995000	1354.821289	1203.317627
12475.020798	3950.995000	1353.732422	1601.531250
12475.020798	3950.995000	1352.643555	1328.965454
12475.020798	3950.995000	1351.554688	1252.287842
12475.020798	3950.995000	1350.464844	1337.683716
12475.020798	3950.995000	1349.375000	1295.785767
12475.020798	3950.995000	1348.285156	1459.232178
12475.020798	3950.995000	1347.195313	1387.831055
12475.020798	3950.995000	1346.105469	1489.869019
12475.020798	3950.995000	1345.014648	1474.696411
12475.020798	3950.995000	1343.923828	1725.991577
12475.020798	3950.995000	1342.833008	1574.267578
12475.020798	3950.995000	1341.741211	1581.209473
12475.020798	3950.995000	1340.650391	1569.148438
12475.020798	3950.995000	1339.558594	1498.022095
12475.020798	3950.995000	1338.466797	1679.165283
12475.020798	3950.995000	1337.374023	1518.908936
12475.020798	3950.995000	1336.282227	1535.378540
12475.020798	3950.995000	1335.189453	1483.588013
12475.020798	3950.995000	1334.096680	1564.785156
12475.020798	3950.995000	1333.003906	1411.006470
12475.020798	3950.995000	1331.910156	1418.980103
12475.020798	3950.995000	1330.817383	1415.184570
12475.020798	3950.995000	1329.723633	1490.628418
12475.020798	3950.995000	1328.629883	1225.665405
12475.020798	3950.995000	1327.535156	1296.327637
12475.020798	3950.995000	1326.441406	1385.118774
12475.020798	3950.995000	1325.346680	1507.611816
12475.020798	3950.995000	1324.251953	1321.497192
12475.020798	3950.995000	1323.156250	1438.597046
12475.020798	3950.995000	1322.061523	1528.684448
12475.020798	3950.995000	1320.965820	1585.771729
12475.020798	3950.995000	1319.870117	1508.997559
12475.020798	3950.995000	1318.774414	1544.124512
12475.020798	3950.995000	1317.678711	1422.989380
12475.020798	3950.995000	1316.582031	1447.444580
12475.020798	3950.995000	1315.485352	1509.958008
12475.020798	3950.995000	1314.388672	1482.630005
12475.020798	3950.995000	1313.291016	1409.872192
12475.020798	3950.995000	1312.194336	1280.650635
12475.020798	3950.995000	1311.096680	1238.252930
12475.020798	3950.995000	1309.999023	1191.138062
12475.020798	3950.995000	1308.901367	1107.667725
12475.020798	3950.995000	1307.802734	776.375916
12475.020798	3950.995000	1306.705078	922.528809
12475.020798	3950.995000	1305.606445	927.400818
12475.020798	3950.995000	1304.506836	1029.766602
12475.020798	3950.995000	1303.408203	1170.027466
12475.020798	3950.995000	1302.308594	1243.260132
12475.020798	3950.995000	1301.208984	1402.538330
12475.020798	3950.995000	1300.109375	1554.448486
12475.020798	3950.995000	1299.009766	1420.000732
12475.020798	3950.995000	1297.909180	1410.066650
12475.020798	3950.995000	1296.808594	1864.391113
12475.020798	3950.995000	1295.708008	1670.347412
12475.020798	3950.995000	1294.607422	1791.828491
12475.020798	3950.995000	1293.506836	2018.594360
12475.020798	3950.995000	1292.405273	1875.347778
12475.020798	3950.995000	1291.303711	1879.863525
12475.020798	3950.995000	1290.202148	1779.217896
12475.020798	3950.995000	1289.099609	1816.844849
12475.020798	3950.995000	1287.998047	1424.256470
12475.020798	3950.995000	1286.895508	1336.673706
12475.020798	3950.995000	1285.792969	1349.842896
12475.020798	3950.995000	1284.689453	993.089233
12475.020798	3950.995000	1283.586914	976.263000
12475.020798	3950.995000	1282.483398	792.106201
12475.020798	3950.995000	1281.379883	948.807678
12475.020798	3950.995000	1280.276367	778.113525
12475.020798	3950.995000	1279.171875	865.074402
12475.020798	3950.995000	1278.067383	923.143982
12475.020798	3950.995000	1276.962891	687.259827
12475.020798	3950.995000	1275.858398	798.769531
12475.020798	3950.995000	1274.753906	627.971924
12475.020798	3950.995000	1273.648438	464.121582
12475.020798	3950.995000	1272.542969	603.915283
12475.020798	3950.995000	1271.437500	542.036621
12475.020798	3950.995000	1270.331055	452.734741
12475.020798	3950.995000	1269.225586	414.405640
12475.020798	3950.995000	1268.119141	371.428802
12475.020798	3950.995000	1267.012695	558.119263
12475.020798	3950.995000	1265.906250	589.824463
12475.020798	3950.995000	1264.798828	717.599182
12475.020798	3950.995000	1263.691406	716.595581
12475.020798	3950.995000	1262.583984	715.131836
12475.020798	3950.995000	1261.476563	621.547668
12475.020798	3950.995000	1260.368164	722.546692
12475.020798	3950.995000	1259.260742	662.820435
12475.020798	3950.995000	1258.152344	675.536621
12475.020798	3950.995000	1257.043945	694.131531
12475.020798	3950.995000	1255.934570	551.866150
12475.020798	3950.995000	1254.825195	494.152985
12475.020798	3950.995000	1253.716797	546.441101
12475.020798	3950.995000	1252.606445	550.815674
12475.020798	3950.995000	1251.497070	327.352905
12475.020798	3950.995000	1250.387695	489.653839
12475.020798	3950.995000	1249.277344	459.085754
12475.020798	3950.995000	1248.166992	386.499664
12475.020798	3950.995000	1247.055664	198.919296
12475.020798	3950.995000	1245.945313	103.602692
12475.020798	3950.995000	1244.833984	76.758026
12475.020798	3950.995000	1243.722656	-4.389298
12475.020798	3950.995000	1242.611328	103.607521
12475.020798	3950.995000	1241.499023	-119.160744
12475.020798	3950.995000	1240.387695	-60.119099
12475.020798	3950.995000	1239.275391	-109.401848
12475.020798	3950.995000	1238.162109	-111.534508
12475.020798	3950.995000	1237.049805	112.016129
12475.020798	3950.995000	1235.936523	-203.842529
12475.020798	3950.995000	1234.823242	106.625511
12475.020798	3950.995000	1233.709961	-20.920124
12475.020798	3950.995000	1232.596680	19.512203
12475.020798	3950.995000	1231.482422	115.918526
12475.020798	3950.995000	1230.369141	9.525926
12475.020798	3950.995000	1229.253906	183.542664
12475.020798	3950.995000	1228.139648	221.226120
12475.020798	3950.995000	1227.025391	242.964996
12475.020798	3950.995000	1225.910156	196.253830
12475.020798	3950.995000	1224.794922	232.587326
12475.020798	3950.995000	1223.679688	124.128937
12475.020798	3950.995000	1222.563477	150.691833
12475.020798	3950.995000	1221.447266	52.819210
12475.020798	3950.995000	1220.331055	312.416687
12475.020798	3950.995000	1219.214844	289.319611
12475.020798	3950.995000	1218.098633	202.687439
12475.020798	3950.995000	1216.981445	272.726379
12475.020798	3950.995000	1215.864258	299.395142
12475.020798	3950.995000	1214.747070	229.648163
12475.020798	3950.995000	1213.629883	132.100021
12475.020798	3950.995000	1212.511719	-5.716668
12475.020798	3950.995000	1211.393555	-18.105221
12475.020798	3950.995000	1210.275391	14.742290
12475.020798	3950.995000	1209.157227	97.750984
12475.020798	3950.995000	1208.038086	-24.308989
12475.020798	3950.995000	1206.918945	-22.059580
12475.020798	3950.995000	1205.799805	-138.184082
12475.020798	3950.995000	1204.680664	171.399826
12475.020798	3950.995000	1203.560547	147.272095
12475.020798	3950.995000	1202.441406	-64.160789
12475.020798	3950.995000	1201.321289	20.121180
12475.020798	3950.995000	1200.200195	13.910427
12475.020798	3950.995000	1199.080078	17.472511
12475.020798	3950.995000	1197.958984	159.554276
12475.020798	3950.995000	1196.837891	248.078171
12475.020798	3950.995000	1195.716797	178.189011
12475.020798	3950.995000	1194.594727	183.628235
12475.020798	3950.995000	1193.473633	308.029175
12475.020798	3950.995000	1192.351563	402.217133
12475.020798	3950.995000	1191.229492	293.791199
12475.020798	3950.995000	1190.106445	430.612000
12475.020798	3950.995000	1188.984375	593.714050
12475.020798	3950.995000	1187.861328	619.295898
12475.020798	3950.995000	1186.738281	688.984802
12475.020798	3950.995000	1185.614258	593.166992
12475.020798	3950.995000	1184.491211	534.732178
12475.020798	3950.995000	1183.367188	537.842041
12475.020798	3950.995000	1182.243164	414.411865
12475.020798	3950.995000	1181.119141	408.229095
12475.020798	3950.995000	1179.994141	477.973846
12475.020798	3950.995000	1178.869141	403.344635
12475.020798	3950.995000	1177.744141	455.835876
12475.020798	3950.995000	1176.619141	331.543671
12475.020798	3950.995000	1175.493164	148.183350
12475.020798	3950.995000	1174.368164	361.171967
12475.020798	3950.995000	1173.242188	263.499420
12475.020798	3950.995000	1172.115234	301.463013
12475.020798	3950.995000	1170.989258	145.806900
12475.020798	3950.995000	1169.862305	231.337448
12475.020798	3950.995000	1168.735352	-55.873821
12475.020798	3950.995000	1167.608398	171.156906
12475.020798	3950.995000	1166.481445	67.363625
12475.020798	3950.995000	1165.353516	74.463600
12475.020798	3950.995000	1164.225586	-88.660011
12475.020798	3950.995000	1163.097656	90.062561
12475.020798	3950.995000	1161.968750	89.410042
12475.020798	3950.995000	1160.840820	26.216938
12475.020798	3950.995000	1159.711914	162.135925
12475.020798	3950.995000	1158.583008	52.244694
12475.020798	3950.995000	1157.453125	203.255432
12475.020798	3950.995000	1156.324219	460.287170
12475.020798	3950.995000	1155.194336	340.080200
12475.020798	3950.995000	1154.064453	238.737808
12475.020798	3950.995000	1152.933594	31.443720
12475.020798	3950.995000	1151.803711	54.009727
12475.020798	3950.995000	1150.672852	182.254944
12475.020798	3950.995000	1149.541992	28.367781
12475.020798	3950.995000	1148.411133	96.915245
12475.020798	3950.995000	1147.279297	77.626785
12475.020798	3950.995000	1146.147461	92.880486
12475.020798	3950.995000	1145.015625	-16.301563
12475.020798	3950.995000	1143.883789	156.195541
12475.020798	3950.995000	1142.750977	95.342262
12475.020798	3950.995000	1141.619141	57.934906
12475.020798	3950.995000	1140.486328	-40.047207
12475.020798	3950.995000	1139.352539	37.977459
12475.020798	3950.995000	1138.219727	-147.933594
12475.020798	3950.995000	1137.085938	-53.850266
12475.020798	3950.995000	1135.952148	-105.876190
12475.020798	3950.995000	1134.818359	-188.560425
12475.020798	3950.995000	1133.683594	-143.632187
12475.020798	3950.995000	1132.549805	-127.611267
12475.020798	3950.995000	1131.415039	-155.617081
12475.020798	3950.995000	1130.279297	-137.631470
12475.020798	3950.995000	1129.144531	-8.212753
12475.020798	3950.995000	1128.008789	16.316076
12475.020798	3950.995000	1126.873047	190.610931
12475.020798	3950.995000	1125.737305	10.868009
12475.020798	3950.995000	1124.601563	57.104816
12475.020798	3950.995000	1123.464844	278.508484
12475.020798	3950.995000	1122.328125	-11.321287
12475.020798	3950.995000	1121.191406	27.584236
12475.020798	3950.995000	1120.054688	-19.808146
12475.020798	3950.995000	1118.916992	191.652237
12475.020798	3950.995000	1117.779297	221.076279
12475.020798	3950.995000	1116.641602	299.253113
12475.020798	3950.995000	1115.503906	182.602768
12475.020798	3950.995000	1114.365234	-19.019405
12475.020798	3950.995000	1113.226563	114.887672
12475.020798	3950.995000	1112.087891	68.027252
12475.020798	3950.995000	1110.949219	-51.655174
12475.020798	3950.995000	1109.809570	100.049896
12475.020798	3950.995000	1108.669922	109.444817
12475.020798	3950.995000	1107.530273	69.118690
12475.020798	3950.995000	1106.390625	-59.043468
12475.020798	3950.995000	1105.250000	133.300262
12475.020798	3950.995000	1104.109375	-72.325516
12475.020798	3950.995000	1102.968750	-38.857025
12475.020798	3950.995000	1101.828125	-4.124001
12475.020798	3950.995000	1100.686523	-29.114029
12475.020798	3950.995000	1099.544922	4.891422
12475.020798	3950.995000	1098.403320	-78.476387
12475.020798	3950.995000	1097.261719	-46.296127
12475.020798	3950.995000	1096.120117	62.805691
12475.020798	3950.995000	1094.977539	212.391724
12475.020798	3950.995000	1093.834961	30.797474
12475.020798	3950.995000	1092.691406	397.362732
12475.020798	3950.995000	1091.548828	162.389816
12475.020798	3950.995000	1090.405273	89.460060
12475.020798	3950.995000	1089.261719	208.105865
12475.020798	3950.995000	1088.118164	390.891327
12475.020798	3950.995000	1086.973633	420.143921
12475.020798	3950.995000	1085.829102	305.609467
12475.020798	3950.995000	1084.684570	309.192902
12475.020798	3950.995000	1083.540039	548.075684
12475.020798	3950.995000	1082.395508	289.831696
12475.020798	3950.995000	1081.250000	309.322083
12475.020798	3950.995000	1080.104492	477.350067
12475.020798	3950.995000	1078.958984	306.119629
12475.020798	3950.995000	1077.812500	213.703323
12475.020798	3950.995000	1076.666016	19.495817
12475.020798	3950.995000	1075.519531	333.830017
12475.020798	3950.995000	1074.373047	310.253693
12475.020798	3950.995000	1073.226563	122.343033
12475.020798	3950.995000	1072.079102	158.685562
12475.020798	3950.995000	1070.931641	230.032303
12475.020798	3950.995000	1069.784180	149.930161
12475.020798	3950.995000	1068.635742	230.131363
12475.020798	3950.995000	1067.487305	113.012444
12475.020798	3950.995000	1066.338867	157.708298
12475.020798	3950.995000	1065.190430	124.193665
12475.020798	3950.995000	1064.041992	403.509766
12475.020798	3950.995000	1062.892578	294.884705
12475.020798	3950.995000	1061.743164	163.615845
12475.020798	3950.995000	1060.593750	200.660522
12475.020798	3950.995000	1059.443359	-70.896179
12475.020798	3950.995000	1058.292969	196.693924
12475.020798	3950.995000	1057.142578	5.437007
12475.020798	3950.995000	1055.992188	21.559032
12475.020798	3950.995000	1054.841797	20.563324
12475.020798	3950.995000	1053.690430	-28.543812
12475.020798	3950.995000	1052.539063	-157.837479
12475.020798	3950.995000	1051.387695	-6.760573
12475.020798	3950.995000	1050.235352	-113.348206
12475.020798	3950.995000	1049.083984	33.529827
12475.020798	3950.995000	1047.931641	-158.674866
12475.020798	3950.995000	1046.778320	-43.178051
12475.020798	3950.995000	1045.625977	-154.166763
12475.020798	3950.995000	1044.472656	33.006927
12475.020798	3950.995000	1043.319336	71.653252
12475.020798	3950.995000	1042.166016	37.711388
12475.020798	3950.995000	1041.012695	-95.390205
12475.020798	3950.995000	1039.858398	-6.376414
12475.020798	3950.995000	1038.704102	-142.706711
12475.020798	3950.995000	1037.549805	72.581619
12475.020798	3950.995000	1036.394531	206.224213
12475.020798	3950.995000	1035.239258	170.250443
12475.020798	3950.995000	1034.083984	248.783310
12475.020798	3950.995000	1032.928711	146.758255
12475.020798	3950.995000	1031.773438	86.213356
12475.020798	3950.995000	1030.617188	248.114960
12475.020798	3950.995000	1029.460938	-4.410830
12475.020798	3950.995000	1028.304688	36.211216
12475.020798	3950.995000	1027.147461	181.998795
12475.020798	3950.995000	1025.991211	198.599213
12475.020798	3950.995000	1024.833984	81.476395
12475.020798	3950.995000	1023.675781	297.078186
12475.020798	3950.995000	1022.518555	186.299179
12475.020798	3950.995000	1021.360352	137.511429
12475.020798	3950.995000	1020.202148	401.534058
12475.020798	3950.995000	1019.043945	233.696426
12475.020798	3950.995000	1017.884766	165.779724
12475.020798	3950.995000	1016.726563	39.315071
12475.020798	3950.995000	1015.567383	72.452324
12475.020798	3950.995000	1014.407227	-40.522511
12475.020798	3950.995000	1013.248047	14.710881
12475.020798	3950.995000	1012.087891	21.113914
12475.020798	3950.995000	1010.927734	-60.878498
12475.020798	3950.995000	1009.767578	152.657944
12475.020798	3950.995000	1008.606445	272.710327
12475.020798	3950.995000	1007.446289	205.864456
12475.020798	3950.995000	1006.285156	28.338972
12475.020798	3950.995000	1005.123047	293.354675
12475.020798	3950.995000	1003.961914	380.949615
12475.020798	3950.995000	1002.799805	33.110065
12475.020798	3950.995000	1001.637695	32.871136
12475.020798	3950.995000	1000.475586	214.398544
12475.020798	3950.995000	999.312500	287.903839
12475.020798	3950.995000	998.149414	170.832809
12475.020798	3950.995000	996.986328	299.608093
12475.020798	3950.995000	995.823242	129.425827
12475.020798	3950.995000	994.659180	204.211807
12475.020798	3950.995000	993.496094	249.491653
12475.020798	3950.995000	992.332031	-34.392693
12475.020798	3950.995000	991.166992	105.764275
12475.020798	3950.995000	990.002930	165.815338
12475.020798	3950.995000	988.837891	23.389692
12475.020798	3950.995000	987.672852	273.230713
12475.020798	3950.995000	986.506836	82.427330
12475.020798	3950.995000	985.341797	149.351318
12475.020798	3950.995000	984.175781	350.240051
12475.020798	3950.995000	983.009766	267.755585
12475.020798	3950.995000	981.843750	248.690979
12475.020798	3950.995000	980.676758	228.448029
12475.020798	3950.995000	979.509766	227.537949
12475.020798	3950.995000	978.342773	235.329071
12475.020798	3950.995000	977.175781	318.474854
12475.020798	3950.995000	976.007813	27.466440
12475.020798	3950.995000	974.839844	268.938782
12475.020798	3950.995000	973.671875	534.649963
12475.020798	3950.995000	972.503906	248.161682
12475.020798	3950.995000	971.334961	191.105240
12475.020798	3950.995000	970.166016	295.484406
12475.020798	3950.995000	968.997070	184.469452
12475.020798	3950.995000	967.828125	263.768707
12475.020798	3950.995000	966.658203	265.596863
12475.020798	3950.995000	965.488281	266.692810
12475.020798	3950.995000	964.318359	297.584229
12475.020798	3950.995000	963.148438	409.761810
12475.020798	3950.995000	961.977539	224.672165
12475.020798	3950.995000	960.806641	306.214966
12475.020798	3950.995000	959.635742	326.860413
12475.020798	3950.995000	958.463867	406.549896
12475.020798	3950.995000	957.292969	273.142120
12475.020798	3950.995000	956.121094	292.617035
12475.020798	3950.995000	954.948242	425.029449
12475.020798	3950.995000	953.776367	337.996704
12475.020798	3950.995000	952.603516	390.458954
12475.020798	3950.995000	951.430664	425.272125
12475.020798	3950.995000	950.257813	311.500244
12475.020798	3950.995000	949.084961	243.048218
12475.020798	3950.995000	947.911133	280.784241
12475.020798	3950.995000	946.737305	506.758148
12475.020798	3950.995000	945.563477	563.643372
12475.020798	3950.995000	944.388672	407.554932
12475.020798	3950.995000	943.213867	536.483459
12475.020798	3950.995000	942.039063	534.654175
12475.020798	3950.995000	940.864258	477.372528
12475.020798	3950.995000	939.688477	616.021606
12475.020798	3950.995000	938.513672	322.778625
12475.020798	3950.995000	937.337891	388.554504
12475.020798	3950.995000	936.161133	109.934624
12475.020798	3950.995000	934.985352	364.528564
12475.020798	3950.995000	933.808594	429.690918
12475.020798	3950.995000	932.631836	400.433960
12475.020798	3950.995000	931.454102	676.320862
12475.020798	3950.995000	930.277344	443.293945
12475.020798	3950.995000	929.099609	454.887848
12475.020798	3950.995000	927.921875	570.398438
12475.020798	3950.995000	926.743164	327.469482
12475.020798	3950.995000	925.565430	401.602905
12475.020798	3950.995000	924.386719	407.895966
12475.020798	3950.995000	923.208008	435.860748
12475.020798	3950.995000	922.028320	325.809723
12475.020798	3950.995000	920.849609	319.727936
12475.020798	3950.995000	919.669922	318.434570
12475.020798	3950.995000	919.474609	264.959778
12475.020798	3950.995000	918.309570	326.404083
12475.020798	3950.995000	917.143555	283.769928
12475.020798	3950.995000	915.977539	383.657806
12475.020798	3950.995000	914.810547	166.843475
12475.020798	3950.995000	913.644531	213.369644
12475.020798	3950.995000	912.477539	204.224380
12475.020798	3950.995000	911.310547	95.975365
12475.020798	3950.995000	910.143555	258.108795
12475.020798	3950.995000	908.975586	33.837521
12475.020798	3950.995000	907.807617	178.846680
12475.020798	3950.995000	906.639648	386.451538
12475.020798	3950.995000	905.471680	101.722267
12475.020798	3950.995000	904.303711	330.802277
12475.020798	3950.995000	903.134766	142.501740
12475.020798	3950.995000	901.965820	192.898712
12475.020798	3950.995000	900.796875	455.332916
12475.020798	3950.995000	899.626953	-10.273369
12475.020798	3950.995000	898.457031	263.995026
12475.020798	3950.995000	897.287109	328.484619
12475.020798	3950.995000	896.117188	192.960907
12475.020798	3950.995000	894.947266	283.792816
12475.020798	3950.995000	893.776367	401.003021
12475.020798	3950.995000	892.605469	262.940491
12475.020798	3950.995000	891.434570	271.680298
12475.020798	3950.995000	890.262695	309.227264
12475.020798	3950.995000	889.091797	48.396309
12475.020798	3950.995000	887.919922	160.418945
12475.020798	3950.995000	886.748047	229.056564
12475.020798	3950.995000	885.575195	227.886078
12475.020798	3950.995000	884.403320	233.878967
12475.020798	3950.995000	883.230469	182.137482
12475.020798	3950.995000	882.057617	269.728821
12475.020798	3950.995000	880.883789	292.373291
12475.020798	3950.995000	879.710938	274.136353
12475.020798	3950.995000	878.537109	143.000854
12475.020798	3950.995000	877.362305	71.892204
12475.020798	3950.995000	876.188477	197.601654
12475.020798	3950.995000	875.013672	292.019958
12475.020798	3950.995000	873.839844	2.474666
12475.020798	3950.995000	872.664063	197.569855
12475.020798	3950.995000	871.489258	116.745750
12475.020798	3950.995000	870.313477	285.296204
12475.020798	3950.995000	869.138672	7.841788
12475.020798	3950.995000	867.962891	34.871578
12475.020798	3950.995000	866.786133	131.353897
12475.020798	3950.995000	865.610352	48.083294
12475.020798	3950.995000	864.433594	242.684387
12475.020798	3950.995000	863.256836	56.394566
12475.020798	3950.995000	862.079102	107.204109
12475.020798	3950.995000	860.902344	215.430099
12475.020798	3950.995000	859.724609	175.197922
12475.020798	3950.995000	858.546875	-183.295013
12475.020798	3950.995000	857.368164	-51.207981
12475.020798	3950.995000	856.190430	-98.581284
12475.020798	3950.995000	855.011719	14.276750
12475.020798	3950.995000	853.833008	-152.665039
12475.020798	3950.995000	852.654297	-197.632767
12475.020798	3950.995000	851.474609	-142.214523
12475.020798	3950.995000	850.294922	-10.360410
12475.020798	3950.995000	849.115234	-72.075912
12475.020798	3950.995000	847.935547	7.154015
12475.020798	3950.995000	846.754883	-202.607437
12475.020798	3950.995000	845.575195	-58.923088
12475.020798	3950.995000	844.393555	103.791412
12475.020798	3950.995000	843.212891	-39.034977
12475.020798	3950.995000	842.032227	-265.311768
12475.020798	3950.995000	840.850586	-19.151649
12475.020798	3950.995000	839.668945	-42.601574
12475.020798	3950.995000	838.486328	291.650574
12475.020798	3950.995000	837.304688	86.968498
12475.020798	3950.995000	836.122070	37.311157
12475.020798	3950.995000	834.939453	-167.218155
12475.020798	3950.995000	833.756836	9.568186
12475.020798	3950.995000	832.573242	83.859207
12475.020798	3950.995000	831.389648	115.262985
12475.020798	3950.995000	830.206055	275.251282
12475.020798	3950.995000	829.022461	175.695175
12475.020798	3950.995000	827.838867	233.289078
12475.020798	3950.995000	826.654297	262.316650
12475.020798	3950.995000	825.469727	203.320389
12475.020798	3950.995000	824.284180	289.465790
12475.020798	3950.995000	823.099609	59.296608
12475.020798	3950.995000	821.914063	162.121490
12475.020798	3950.995000	820.728516	179.345001
12475.020798	3950.995000	819.542969	68.240448
12475.020798	3950.995000	818.356445	244.729156
12475.020798	3950.995000	817.169922	223.981216
12475.020798	3950.995000	815.983398	177.137985
12475.020798	3950.995000	814.796875	51.972633
12475.020798	3950.995000	813.609375	38.473881
12475.020798	3950.995000	812.422852	150.822556
12475.020798	3950.995000	811.235352	163.470978
12475.020798	3950.995000	810.046875	-94.362396
12475.020798	3950.995000	808.859375	288.472748
12475.020798	3950.995000	807.670898	94.818443
12475.020798	3950.995000	806.482422	-77.383232
12475.020798	3950.995000	805.293945	53.987347
12475.020798	3950.995000	804.104492	213.776306
12475.020798	3950.995000	802.915039	32.267330
12475.020798	3950.995000	801.725586	248.923706
12475.020798	3950.995000	800.536133	456.047546
12475.020798	3950.995000	799.345703	137.327759
12475.020798	3950.995000	798.155273	65.036079
12475.020798	3950.995000	796.964844	-28.498129
12475.020798	3950.995000	795.774414	377.464630
12475.020798	3950.995000	794.583008	9.460906
12475.020798	3950.995000	793.392578	138.497314
12475.020798	3950.995000	792.200195	75.906746
12475.020798	3950.995000	791.008789	190.753036
12475.020798	3950.995000	789.816406	38.395245
12475.020798	3950.995000	788.625000	-26.393784
12475.020798	3950.995000	787.432617	147.590759
12475.020798	3950.995000	786.239258	186.843079
12475.020798	3950.995000	785.046875	-64.474586
12475.020798	3950.995000	783.853516	152.027206
12475.020798	3950.995000	782.660156	78.004189
12475.020798	3950.995000	781.465820	44.180370
12475.020798	3950.995000	780.272461	62.340660
12475.020798	3950.995000	779.078125	38.043571
12475.020798	3950.995000	777.883789	167.163315
12475.020798	3950.995000	776.688477	-52.885662
12475.020798	3950.995000	775.494141	-126.573715
12475.020798	3950.995000	774.298828	-70.504326
12475.020798	3950.995000	773.103516	136.463058
12475.020798	3950.995000	771.907227	18.088572
12475.020798	3950.995000	770.711914	83.616348
12475.020798	3950.995000	769.515625	200.981079
12475.020798	3950.995000	768.318359	35.646198
12475.020798	3950.995000	767.122070	-63.642464
12475.020798	3950.995000	765.924805	131.473663
12475.020798	3950.995000	764.727539	133.494110
12475.020798	3950.995000	763.530273	10.795163
12475.020798	3950.995000	762.333008	210.566605
12475.020798	3950.995000	761.134766	177.359482
12475.020798	3950.995000	759.936523	228.874283
12475.020798	3950.995000	758.738281	181.619019
12475.020798	3950.995000	757.540039	28.602621
12475.020798	3950.995000	756.340820	207.130066
12475.020798	3950.995000	755.141602	73.019722
12475.020798	3950.995000	753.942383	329.052917
12475.020798	3950.995000	752.742188	190.316818
12475.020798	3950.995000	751.541992	448.608124
12475.020798	3950.995000	750.341797	316.990326
12475.020798	3950.995000	749.141602	133.792435
12475.020798	3950.995000	747.941406	100.919678
12475.020798	3950.995000	746.740234	246.435654
12475.020798	3950.995000	745.539063	220.622223
12475.020798	3950.995000	744.337891	126.803413
12475.020798	3950.995000	743.135742	377.806458
12475.020798	3950.995000	741.933594	206.635742
12475.020798	3950.995000	740.731445	7.413067
12475.020798	3950.995000	739.529297	330.977966
12475.020798	3950.995000	738.326172	82.617538
12475.020798	3950.995000	737.124023	-34.427021
12475.020798	3950.995000	735.919922	-78.804520
12475.020798	3950.995000	734.716797	307.763885
12475.020798	3950.995000	733.513672	104.121857
12475.020798	3950.995000	732.309570	188.505569
12475.020798	3950.995000	731.105469	233.065552
12475.020798	3950.995000	729.900391	55.302589
12475.020798	3950.995000	728.696289	83.488869
12475.020798	3950.995000	727.491211	111.657700
12475.020798	3950.995000	726.286133	245.041504
12475.020798	3950.995000	725.080078	142.218109
12475.020798	3950.995000	723.874023	-77.451187
12475.020798	3950.995000	722.668945	-56.319958
12475.020798	3950.995000	721.461914	-44.559834
12475.020798	3950.995000	720.255859	-70.195953
12475.020798	3950.995000	719.048828	-0.080041
12475.020798	3950.995000	717.841797	-144.842117
12475.020798	3950.995000	716.634766	20.940838
12475.020798	3950.995000	715.427734	-65.453705
12475.020798	3950.995000	714.219727	-81.829124
12475.020798	3950.995000	713.011719	209.753876
12475.020798	3950.995000	711.803711	6.660585
12475.020798	3950.995000	710.594727	25.178316
12475.020798	3950.995000	709.385742	141.587158
12475.020798	3950.995000	708.176758	-38.148998
12475.020798	3950.995000	706.967773	262.282318
12475.020798	3950.995000	705.758789	175.731628
12475.020798	3950.995000	704.548828	214.982147
12475.020798	3950.995000	703.338867	286.783691
12475.020798	3950.995000	702.127930	328.235718
12475.020798	3950.995000	700.917969	369.625336
12475.020798	3950.995000	699.707031	306.198334
12475.020798	3950.995000	698.496094	254.383362
12475.020798	3950.995000	697.285156	346.800354
12475.020798	3950.995000	696.073242	453.079742
12475.020798	3950.995000	694.861328	268.529144
12475.020798	3950.995000	693.649414	404.893463
12475.020798	3950.995000	692.436523	285.403534
12475.020798	3950.995000	691.224609	347.203430
12475.020798	3950.995000	690.011719	469.330170
12475.020798	3950.995000	688.798828	512.342468
12475.020798	3950.995000	687.584961	471.639862
12475.020798	3950.995000	686.372070	384.436127
12475.020798	3950.995000	685.158203	534.026550
12475.020798	3950.995000	683.943359	486.153931
12475.020798	3950.995000	682.729492	777.082092
12475.020798	3950.995000	681.514648	633.878418
12475.020798	3950.995000	680.299805	1045.122559
12475.020798	3950.995000	679.084961	922.627625
12475.020798	3950.995000	677.869141	783.859985
12475.020798	3950.995000	676.653320	869.954041
12475.020798	3950.995000	675.437500	900.285522
12475.020798	3950.995000	674.221680	867.936035
12475.020798	3950.995000	673.004883	719.647034
12475.020798	3950.995000	671.789063	965.135803
12475.020798	3950.995000	670.571289	1120.085083
12475.020798	3950.995000	669.354492	807.122925
12475.020798	3950.995000	668.136719	906.265442
12475.020798	3950.995000	666.919922	748.339783
12475.020798	3950.995000	665.701172	828.714294
12475.020798	3950.995000	664.483398	645.191895
12475.020798	3950.995000	663.264648	688.311340
12475.020798	3950.995000	662.045898	791.422974
12475.020798	3950.995000	660.827148	986.855469
12475.020798	3950.995000	659.608398	724.371277
12475.020798	3950.995000	658.388672	903.301697
12475.020798	3950.995000	657.168945	1003.465027
12475.020798	3950.995000	655.949219	819.299561
12475.020798	3950.995000	654.728516	965.363708
12475.020798	3950.995000	653.507813	1016.551514
12475.020798	3950.995000	652.287109	1037.565796
12475.020798	3950.995000	651.066406	1063.048096
12475.020798	3950.995000	649.844727	1074.525024
12475.020798	3950.995000	648.623047	1134.305298
12475.020798	3950.995000	647.401367	1235.434448
12475.020798	3950.995000	646.179688	1114.968262
12475.020798	3950.995000	644.957031	851.434937
12475.020798	3950.995000	643.734375	963.627930
12475.020798	3950.995000	642.511719	941.936890
12475.020798	3950.995000	641.289063	1035.313721
12475.020798	3950.995000	640.065430	990.254456
12475.020798	3950.995000	638.841797	1087.860474
12475.020798	3950.995000	637.618164	1231.319336
12475.020798	3950.995000	636.393555	1061.418579
12475.020798	3950.995000	635.168945	905.232849
12475.020798	3950.995000	633.944336	979.084534
12475.020798	3950.995000	632.719727	981.404358
12475.020798	3950.995000	631.494141	976.640564
12475.020798	3950.995000	630.269531	1049.908813
12475.020798	3950.995000	629.042969	1030.973999
12475.020798	3950.995000	627.817383	981.988708
12475.020798	3950.995000	626.590820	1114.416016
12475.020798	3950.995000	625.365234	943.274231
12475.020798	3950.995000	624.137695	1043.111694
12475.020798	3950.995000	622.911133	1122.054810
12475.020798	3950.995000	621.683594	1228.326172
12475.020798	3950.995000	620.456055	1024.394043
12475.020798	3950.995000	619.228516	1036.140015
12475.020798	3950.995000	618.000977	1004.082153
12475.020798	3950.995000	616.772461	1182.937744
12475.020798	3950.995000	615.543945	985.285461
12475.020798	3950.995000	614.314453	1184.308105
12475.020798	3950.995000	613.085938	1114.759888
12475.020798	3950.995000	611.856445	1088.591064
12475.020798	3950.995000	610.626953	1007.219727
12475.020798	3950.995000	609.397461	1219.014893
12475.020798	3950.995000	608.166992	1281.578003
12475.020798	3950.995000	606.936523	1178.979126
12475.020798	3950.995000	605.706055	1176.987915
12475.020798	3950.995000	604.474609	1177.068726
12475.020798	3950.995000	603.244141	1135.744263
12475.020798	3950.995000	602.012695	821.856995
12475.020798	3950.995000	600.780273	711.537659
12475.020798	3950.995000	599.548828	848.145081
12475.020798	3950.995000	598.316406	835.797363
12475.020798	3950.995000	597.083984	745.491150
12475.020798	3950.995000	595.851563	760.181152
12475.020798	3950.995000	594.618164	802.070068
12475.020798	3950.995000	593.384766	898.574097
12475.020798	3950.995000	592.151367	994.822937
12475.020798	3950.995000	590.917969	757.296814
12475.020798	3950.995000	589.683594	640.690247
12475.020798	3950.995000	588.449219	656.354919
12475.020798	3950.995000	587.214844	646.685486
12475.020798	3950.995000	585.979492	664.179810
12475.020798	3950.995000	584.745117	555.956177
12475.020798	3950.995000	583.509766	814.865112
12475.020798	3950.995000	582.273438	740.412048
12475.020798	3950.995000	581.038086	574.568176
12475.020798	3950.995000	579.801758	659.365723
12475.020798	3950.995000	578.565430	520.519531
12475.020798	3950.995000	577.329102	723.371948
12475.020798	3950.995000	576.091797	504.379181
12475.020798	3950.995000	574.854492	453.840851
12475.020798	3950.995000	573.617188	505.600494
12475.020798	3950.995000	572.378906	782.542725
12475.020798	3950.995000	571.141602	847.444580
12475.020798	3950.995000	569.903320	821.049194
12475.020798	3950.995000	568.664063	769.406799
12475.020798	3950.995000	567.425781	674.364014
12475.020798	3950.995000	566.186523	790.680847
12475.020798	3950.995000	564.947266	677.048401
12475.020798	3950.995000	563.708008	856.564636
12475.020798	3950.995000	562.467773	649.338318
12475.020798	3950.995000	561.227539	632.904907
12475.020798	3950.995000	559.987305	604.915527
12475.020798	3950.995000	558.747070	812.997742
12475.020798	3950.995000	557.505859	464.317566
12475.020798	3950.995000	556.264648	624.241577
12475.020798	3950.995000	555.023438	861.090027
12475.020798	3950.995000	553.781250	650.476990
12475.020798	3950.995000	552.539063	1027.512817
12475.020798	3950.995000	551.296875	1068.411621
12475.020798	3950.995000	550.054688	870.928650
12475.020798	3950.995000	548.811523	798.058350
12475.020798	3950.995000	547.569336	886.036255
12475.020798	3950.995000	546.325195	767.473145
12475.020798	3950.995000	545.082031	771.185120
12475.020798	3950.995000	543.837891	903.857849
12475.020798	3950.995000	542.593750	918.498291
12475.020798	3950.995000	541.349609	788.003601
12475.020798	3950.995000	540.105469	768.355164
12475.020798	3950.995000	538.860352	814.186035
12475.020798	3950.995000	537.615234	642.539734
12475.020798	3950.995000	536.369141	547.729919
12475.020798	3950.995000	535.124023	645.135803
12475.020798	3950.995000	533.877930	794.355042
12475.020798	3950.995000	532.631836	671.973145
12475.020798	3950.995000	531.384766	757.495789
12475.020798	3950.995000	530.138672	612.277161
12475.020798	3950.995000	528.891602	435.320526
12475.020798	3950.995000	527.643555	540.733704
12475.020798	3950.995000	526.396484	519.477112
12475.020798	3950.995000	525.148438	299.319336
12475.020798	3950.995000	523.900391	377.207428
12475.020798	3950.995000	522.652344	305.932373
12475.020798	3950.995000	521.403320	397.068176
12475.020798	3950.995000	520.154297	352.647339
12475.020798	3950.995000	518.905273	276.549011
12475.020798	3950.995000	517.656250	200.375931
12475.020798	3950.995000	516.406250	214.324112
12475.020798	3950.995000	515.156250	252.969620
12475.020798	3950.995000	513.906250	244.165451
12475.020798	3950.995000	512.655273	210.463989
12475.020798	3950.995000	511.404297	293.864563
12475.020798	3950.995000	510.153320	278.023071
12475.020798	3950.995000	508.902344	183.280975
12475.020798	3950.995000	507.650391	65.969002
12475.020798	3950.995000	506.398438	74.717766
12475.020798	3950.995000	505.146484	60.891346
12475.020798	3950.995000	503.893555	161.762878
12475.020798	3950.995000	502.641602	280.559143
12475.020798	3950.995000	501.388672	255.270905
12475.020798	3950.995000	500.134766	405.348297
12475.020798	3950.995000	498.881836	364.224365
12475.020798	3950.995000	497.627930	156.712173
12475.020798	3950.995000	496.374023	234.693832
12475.020798	3950.995000	495.119141	114.859581
12475.020798	3950.995000	493.865234	255.676910
12475.020798	3950.995000	492.610352	263.882660
12475.020798	3950.995000	491.355469	204.709656
12475.020798	3950.995000	490.099609	174.724213
12475.020798	3950.995000	488.843750	315.341797
12475.020798	3950.995000	487.587891	101.335045
12475.020798	3950.995000	486.332031	212.759766
12475.020798	3950.995000	485.075195	59.440136
12475.020798	3950.995000	483.818359	155.145096
12475.020798	3950.995000	482.561523	100.608177
12475.020798	3950.995000	481.304688	-3.190048
12475.020798	3950.995000	480.046875	137.364700
12475.020798	3950.995000	478.789063	-91.820152
12475.020798	3950.995000	477.531250	-58.750423
12475.020798	3950.995000	476.272461	-52.540314
12475.020798	3950.995000	475.013672	-32.841209
12475.020798	3950.995000	473.754883	-122.789925
12475.020798	3950.995000	472.496094	270.842896
12475.020798	3950.995000	471.236328	252.595413
12475.020798	3950.995000	469.976563	-25.102131
12475.020798	3950.995000	468.716797	-29.702236
12475.020798	3950.995000	467.456055	61.929989
12475.020798	3950.995000	466.196289	95.498116
12475.020798	3950.995000	464.935547	-13.941602
12475.020798	3950.995000	463.673828	6.371142
12475.020798	3950.995000	462.413086	127.347168
12475.020798	3950.995000	461.151367	-35.357468
12475.020798	3950.995000	459.889648	-57.172283
12475.020798	3950.995000	458.626953	-168.202698
12475.020798	3950.995000	457.364258	279.064697
12475.020798	3950.995000	456.101563	186.105072
12475.020798	3950.995000	454.838867	180.341721
12475.020798	3950.995000	453.575195	-64.036003
12475.020798	3950.995000	452.312500	294.104706
12475.020798	3950.995000	451.047852	420.254211
12475.020798	3950.995000	449.784180	290.097656
12475.020798	3950.995000	448.519531	521.240845
12475.020798	3950.995000	447.254883	226.459778
12475.020798	3950.995000	445.990234	170.367844
12475.020798	3950.995000	444.725586	-41.493015
12475.020798	3950.995000	443.459961	245.765228
12475.020798	3950.995000	442.194336	203.492340
12475.020798	3950.995000	440.927734	156.918854
12475.020798	3950.995000	439.662109	459.981720
12475.020798	3950.995000	438.395508	282.386566
12475.020798	3950.995000	437.127930	396.454498
12475.020798	3950.995000	435.861328	608.514404
12475.020798	3950.995000	434.593750	553.759216
12475.020798	3950.995000	433.326172	505.850250
12475.020798	3950.995000	432.058594	246.941086
12475.020798	3950.995000	430.790039	690.558838
12475.020798	3950.995000	429.521484	440.896820
12475.020798	3950.995000	428.252930	506.935608
12475.020798	3950.995000	426.984375	584.198425
12475.020798	3950.995000	425.714844	745.934204
12475.020798	3950.995000	424.445313	588.062622
12475.020798	3950.995000	423.174805	730.017578
12475.020798	3950.995000	421.905273	763.329346
12475.020798	3950.995000	420.634766	752.370117
12475.020798	3950.995000	419.364258	473.155151
12475.020798	3950.995000	418.092773	733.042664
12475.020798	3950.995000	416.822266	631.560425
12475.020798	3950.995000	415.550781	474.800140
12475.020798	3950.995000	414.278320	508.786865
12475.020798	3950.995000	413.006836	635.928955
12475.020798	3950.995000	411.734375	382.076935
12475.020798	3950.995000	410.461914	181.570007
12475.020798	3950.995000	409.188477	455.054382
12475.020798	3950.995000	407.916016	416.357452
12475.020798	3950.995000	406.642578	521.579956
12475.020798	3950.995000	405.368164	635.635376
12475.020798	3950.995000	404.094727	448.815704
12475.020798	3950.995000	402.820313	456.722015
12475.020798	3950.995000	401.545898	444.729706
12475.020798	3950.995000	400.270508	576.431824
12475.020798	3950.995000	398.996094	186.418381
12475.020798	3950.995000	397.720703	393.201691
12475.020798	3950.995000	396.444336	215.389328
12475.020798	3950.995000	395.168945	178.977310
12475.020798	3950.995000	393.892578	261.739136
12475.020798	3950.995000	392.616211	295.791077
12475.020798	3950.995000	391.339844	219.333252
12475.020798	3950.995000	390.062500	378.905121
12475.020798	3950.995000	388.785156	527.216309
12475.020798	3950.995000	387.507813	514.241638
12475.020798	3950.995000	386.229492	450.322083
12475.020798	3950.995000	384.951172	328.873779
12475.020798	3950.995000	383.672852	83.767128
12475.020798	3950.995000	382.394531	208.789551
12475.020798	3950.995000	381.115234	247.494095
12475.020798	3950.995000	379.835938	224.164597
12475.020798	3950.995000	378.556641	30.878267
12475.020798	3950.995000	377.277344	154.408508
12475.020798	3950.995000	375.997070	169.564636
12475.020798	3950.995000	374.716797	470.429718
12475.020798	3950.995000	373.435547	139.030685
12475.020798	3950.995000	372.155273	75.717621
12475.020798	3950.995000	370.874023	-60.736225
12475.020798	3950.995000	369.591797	107.969246
12475.020798	3950.995000	368.310547	-108.813316
12475.020798	3950.995000	367.028320	-55.783985
12475.020798	3950.995000	365.746094	139.374298
12475.020798	3950.995000	364.463867	91.977097
12475.020798	3950.995000	363.180664	111.890388
12475.020798	3950.995000	361.897461	3.553522
12475.020798	3950.995000	360.614258	-147.347305
12475.020798	3950.995000	359.330078	-22.507303
12475.020798	3950.995000	358.045898	-26.021099
12475.020798	3950.995000	356.761719	272.277222
12475.020798	3950.995000	355.477539	191.968033
12475.020798	3950.995000	354.192383	130.264420
12475.020798	3950.995000	352.907227	80.538910
12475.020798	3950.995000	351.622070	44.923424
12475.020798	3950.995000	350.336914	-11.731139
12475.020798	3950.995000	349.050781	6.935622
12475.020798	3950.995000	347.764648	333.105255
12475.020798	3950.995000	346.477539	239.151642
12475.020798	3950.995000	345.191406	-125.716095
12475.020798	3950.995000	343.904297	167.016556
12475.020798	3950.995000	342.616211	-4.088163
12475.020798	3950.995000	341.329102	-80.571625
12475.020798	3950.995000	340.041016	105.853889
12475.020798	3950.995000	338.752930	220.231293
12475.020798	3950.995000	337.463867	229.674286
12475.020798	3950.995000	336.175781	346.382690
12475.020798	3950.995000	334.886719	425.807129
12475.020798	3950.995000	333.596680	323.608795
12475.020798	3950.995000	332.307617	293.428009
12475.020798	3950.995000	331.017578	520.754700
12475.020798	3950.995000	329.727539	382.777100
12475.020798	3950.995000	328.436523	255.241821
12475.020798	3950.995000	327.146484	271.351166
12475.020798	3950.995000	325.855469	319.458130
12475.020798	3950.995000	324.563477	150.605331
12475.020798	3950.995000	323.272461	168.652420
12475.020798	3950.995000	321.980469	399.419189
12475.020798	3950.995000	320.688477	295.232269
12475.020798	3950.995000	319.395508	198.494537
12475.020798	3950.995000	318.103516	318.532837
12475.020798	3950.995000	316.810547	380.279999
12475.020798	3950.995000	315.516602	477.350800
12475.020798	3950.995000	314.223633	250.247437
12475.020798	3950.995000	312.929688	-4.859775
12475.020798	3950.995000	311.635742	64.810059
12475.020798	3950.995000	310.340820	8.092185
12475.020798	3950.995000	309.045898	-53.082714
12475.020798	3950.995000	307.750977	70.500526
12475.020798	3950.995000	306.456055	-113.202087
12475.020798	3950.995000	305.160156	74.505684
12475.020798	3950.995000	303.865234	170.160065
12475.020798	3950.995000	302.568359	66.773445
12475.020798	3950.995000	301.272461	8.144405
12475.020798	3950.995000	299.975586	-138.751236
12475.020798	3950.995000	298.678711	25.944977
