#X		#Y		#Wave		#Intensity
13290.079202	3904.965167	1999.980469	-2.758513
13290.079202	3904.965167	1999.016602	-74.298958
13290.079202	3904.965167	1998.052734	-87.606064
13290.079202	3904.965167	1997.087891	-11.922920
13290.079202	3904.965167	1996.123047	-142.139984
13290.079202	3904.965167	1995.158203	-37.191956
13290.079202	3904.965167	1994.193359	-93.482887
13290.079202	3904.965167	1993.228516	228.915512
13290.079202	3904.965167	1992.262695	58.309628
13290.079202	3904.965167	1991.297852	55.897160
13290.079202	3904.965167	1990.332031	38.455029
13290.079202	3904.965167	1989.366211	-38.546371
13290.079202	3904.965167	1988.399414	94.600410
13290.079202	3904.965167	1987.433594	49.432869
13290.079202	3904.965167	1986.466797	23.909065
13290.079202	3904.965167	1985.500977	-108.085938
13290.079202	3904.965167	1984.534180	-5.324002
13290.079202	3904.965167	1983.567383	-41.159672
13290.079202	3904.965167	1982.599609	6.903317
13290.079202	3904.965167	1981.632813	-51.430916
13290.079202	3904.965167	1980.665039	-57.993992
13290.079202	3904.965167	1979.697266	81.043724
13290.079202	3904.965167	1978.729492	27.297506
13290.079202	3904.965167	1977.761719	79.621292
13290.079202	3904.965167	1976.792969	50.357555
13290.079202	3904.965167	1975.825195	13.593983
13290.079202	3904.965167	1974.856445	95.187752
13290.079202	3904.965167	1973.887695	95.240501
13290.079202	3904.965167	1972.918945	48.334110
13290.079202	3904.965167	1971.949219	85.208458
13290.079202	3904.965167	1970.980469	57.875000
13290.079202	3904.965167	1970.010742	124.152824
13290.079202	3904.965167	1969.041016	79.412056
13290.079202	3904.965167	1968.071289	212.049500
13290.079202	3904.965167	1967.101563	46.434967
13290.079202	3904.965167	1966.130859	18.770180
13290.079202	3904.965167	1965.161133	37.849125
13290.079202	3904.965167	1964.190430	54.400063
13290.079202	3904.965167	1963.219727	-25.132793
13290.079202	3904.965167	1962.249023	126.703400
13290.079202	3904.965167	1961.277344	115.996819
13290.079202	3904.965167	1960.306641	92.943405
13290.079202	3904.965167	1959.334961	47.712334
13290.079202	3904.965167	1958.363281	-49.199631
13290.079202	3904.965167	1957.391602	16.202400
13290.079202	3904.965167	1956.419922	-4.516947
13290.079202	3904.965167	1955.447266	97.658463
13290.079202	3904.965167	1954.474609	5.585579
13290.079202	3904.965167	1953.501953	151.896164
13290.079202	3904.965167	1952.529297	47.506596
13290.079202	3904.965167	1951.556641	171.594360
13290.079202	3904.965167	1950.583984	50.000473
13290.079202	3904.965167	1949.610352	46.303444
13290.079202	3904.965167	1948.636719	-33.521908
13290.079202	3904.965167	1947.663086	-78.967308
13290.079202	3904.965167	1946.689453	-21.329742
13290.079202	3904.965167	1945.715820	-17.710943
13290.079202	3904.965167	1944.741211	15.335338
13290.079202	3904.965167	1943.767578	-91.456772
13290.079202	3904.965167	1942.792969	-36.353355
13290.079202	3904.965167	1941.818359	-86.714432
13290.079202	3904.965167	1940.842773	63.966995
13290.079202	3904.965167	1939.868164	109.190964
13290.079202	3904.965167	1938.892578	80.876167
13290.079202	3904.965167	1937.916992	-35.636486
13290.079202	3904.965167	1936.941406	-54.115311
13290.079202	3904.965167	1935.965820	-82.383385
13290.079202	3904.965167	1934.990234	-86.150551
13290.079202	3904.965167	1934.013672	-1.771059
13290.079202	3904.965167	1933.037109	92.373077
13290.079202	3904.965167	1932.060547	-70.496025
13290.079202	3904.965167	1931.083984	16.296341
13290.079202	3904.965167	1930.107422	200.925308
13290.079202	3904.965167	1929.129883	-71.926003
13290.079202	3904.965167	1928.153320	78.428238
13290.079202	3904.965167	1927.175781	-1.111421
13290.079202	3904.965167	1926.198242	-117.282372
13290.079202	3904.965167	1925.219727	-67.189735
13290.079202	3904.965167	1924.242188	-39.098621
13290.079202	3904.965167	1923.263672	98.944626
13290.079202	3904.965167	1922.285156	85.488541
13290.079202	3904.965167	1921.306641	-50.072445
13290.079202	3904.965167	1920.328125	53.744457
13290.079202	3904.965167	1919.349609	-196.486206
13290.079202	3904.965167	1918.370117	-131.711075
13290.079202	3904.965167	1917.391602	-18.134228
13290.079202	3904.965167	1916.412109	-41.234695
13290.079202	3904.965167	1915.431641	16.197199
13290.079202	3904.965167	1914.452148	19.958647
13290.079202	3904.965167	1913.472656	45.681965
13290.079202	3904.965167	1912.492188	103.108871
13290.079202	3904.965167	1911.511719	38.633995
13290.079202	3904.965167	1910.531250	-57.489254
13290.079202	3904.965167	1909.550781	24.337233
13290.079202	3904.965167	1908.569336	-15.678595
13290.079202	3904.965167	1907.588867	102.679459
13290.079202	3904.965167	1906.607422	-20.118481
13290.079202	3904.965167	1905.625977	-72.237137
13290.079202	3904.965167	1904.644531	-24.499449
13290.079202	3904.965167	1903.662109	15.931366
13290.079202	3904.965167	1902.680664	56.360088
13290.079202	3904.965167	1901.698242	94.353523
13290.079202	3904.965167	1900.715820	-115.808426
13290.079202	3904.965167	1899.733398	53.579483
13290.079202	3904.965167	1898.750000	-39.736839
13290.079202	3904.965167	1897.767578	-98.965080
13290.079202	3904.965167	1896.784180	-17.158047
13290.079202	3904.965167	1895.800781	35.462513
13290.079202	3904.965167	1894.817383	88.073418
13290.079202	3904.965167	1893.833984	-12.396098
13290.079202	3904.965167	1892.850586	-1.072962
13290.079202	3904.965167	1891.866211	83.119225
13290.079202	3904.965167	1890.881836	-80.402290
13290.079202	3904.965167	1889.897461	-13.204913
13290.079202	3904.965167	1888.913086	121.943237
13290.079202	3904.965167	1887.927734	-167.673477
13290.079202	3904.965167	1886.943359	13.570816
13290.079202	3904.965167	1885.958008	-28.445524
13290.079202	3904.965167	1884.972656	19.307402
13290.079202	3904.965167	1883.987305	113.125366
13290.079202	3904.965167	1883.001953	-33.133869
13290.079202	3904.965167	1882.015625	21.878469
13290.079202	3904.965167	1881.029297	59.906559
13290.079202	3904.965167	1880.042969	240.899933
13290.079202	3904.965167	1879.056641	-28.831059
13290.079202	3904.965167	1878.070313	74.595718
13290.079202	3904.965167	1877.083984	1.178578
13290.079202	3904.965167	1876.096680	14.963985
13290.079202	3904.965167	1875.109375	108.638428
13290.079202	3904.965167	1874.122070	18.308119
13290.079202	3904.965167	1873.134766	0.614405
13290.079202	3904.965167	1872.146484	-55.791317
13290.079202	3904.965167	1871.159180	-131.534866
13290.079202	3904.965167	1870.170898	-37.938229
13290.079202	3904.965167	1869.182617	48.362793
13290.079202	3904.965167	1868.194336	-17.702883
13290.079202	3904.965167	1867.205078	-136.935104
13290.079202	3904.965167	1866.216797	72.580879
13290.079202	3904.965167	1865.227539	40.355011
13290.079202	3904.965167	1864.238281	124.103546
13290.079202	3904.965167	1863.249023	60.457043
13290.079202	3904.965167	1862.259766	88.599762
13290.079202	3904.965167	1861.269531	68.425148
13290.079202	3904.965167	1860.279297	2.374557
13290.079202	3904.965167	1859.290039	-39.527573
13290.079202	3904.965167	1858.298828	-9.026674
13290.079202	3904.965167	1857.308594	67.292465
13290.079202	3904.965167	1856.318359	-54.254887
13290.079202	3904.965167	1855.327148	38.895031
13290.079202	3904.965167	1854.335938	30.707092
13290.079202	3904.965167	1853.344727	49.025223
13290.079202	3904.965167	1852.353516	-21.876484
13290.079202	3904.965167	1851.362305	-32.517380
13290.079202	3904.965167	1850.370117	142.375168
13290.079202	3904.965167	1849.377930	-36.985321
13290.079202	3904.965167	1848.385742	108.891556
13290.079202	3904.965167	1847.393555	184.846802
13290.079202	3904.965167	1846.401367	118.681870
13290.079202	3904.965167	1845.408203	50.108261
13290.079202	3904.965167	1844.415039	186.132080
13290.079202	3904.965167	1843.421875	-62.973518
13290.079202	3904.965167	1842.428711	123.494286
13290.079202	3904.965167	1841.435547	-87.071236
13290.079202	3904.965167	1840.441406	87.247345
13290.079202	3904.965167	1839.448242	61.875523
13290.079202	3904.965167	1838.454102	67.738274
13290.079202	3904.965167	1837.459961	-39.413944
13290.079202	3904.965167	1836.464844	52.923618
13290.079202	3904.965167	1835.470703	94.732361
13290.079202	3904.965167	1834.475586	66.818390
13290.079202	3904.965167	1833.480469	178.198914
13290.079202	3904.965167	1832.485352	94.973305
13290.079202	3904.965167	1831.490234	78.974823
13290.079202	3904.965167	1830.495117	142.168091
13290.079202	3904.965167	1829.499023	13.280289
13290.079202	3904.965167	1828.502930	208.374252
13290.079202	3904.965167	1827.506836	-86.108810
13290.079202	3904.965167	1826.510742	-59.069992
13290.079202	3904.965167	1825.513672	111.822769
13290.079202	3904.965167	1824.517578	76.384743
13290.079202	3904.965167	1823.520508	69.687424
13290.079202	3904.965167	1822.523438	132.465790
13290.079202	3904.965167	1821.526367	202.366653
13290.079202	3904.965167	1820.529297	66.127182
13290.079202	3904.965167	1819.531250	-134.790909
13290.079202	3904.965167	1818.533203	26.006256
13290.079202	3904.965167	1817.535156	-12.072268
13290.079202	3904.965167	1816.537109	0.098893
13290.079202	3904.965167	1815.539063	64.883896
13290.079202	3904.965167	1814.540039	41.037750
13290.079202	3904.965167	1813.541992	-198.216492
13290.079202	3904.965167	1812.542969	26.724054
13290.079202	3904.965167	1811.543945	50.593945
13290.079202	3904.965167	1810.543945	45.703709
13290.079202	3904.965167	1809.544922	16.853973
13290.079202	3904.965167	1808.544922	119.452919
13290.079202	3904.965167	1807.544922	150.252945
13290.079202	3904.965167	1806.544922	20.869738
13290.079202	3904.965167	1805.544922	-58.340244
13290.079202	3904.965167	1804.544922	77.430626
13290.079202	3904.965167	1803.543945	158.159103
13290.079202	3904.965167	1802.542969	-26.268843
13290.079202	3904.965167	1801.541992	-5.349733
13290.079202	3904.965167	1800.541016	-3.590847
13290.079202	3904.965167	1799.539063	105.509796
13290.079202	3904.965167	1798.538086	40.320457
13290.079202	3904.965167	1797.536133	29.969999
13290.079202	3904.965167	1796.534180	181.768127
13290.079202	3904.965167	1795.532227	97.349236
13290.079202	3904.965167	1794.529297	51.052479
13290.079202	3904.965167	1793.527344	-0.050630
13290.079202	3904.965167	1792.524414	36.994442
13290.079202	3904.965167	1791.521484	59.668152
13290.079202	3904.965167	1790.518555	132.308548
13290.079202	3904.965167	1789.514648	-176.286911
13290.079202	3904.965167	1788.511719	-115.657944
13290.079202	3904.965167	1787.507813	85.379478
13290.079202	3904.965167	1786.503906	60.103024
13290.079202	3904.965167	1785.500000	80.001686
13290.079202	3904.965167	1784.496094	95.071808
13290.079202	3904.965167	1783.491211	57.723324
13290.079202	3904.965167	1782.486328	79.802063
13290.079202	3904.965167	1781.481445	-97.988083
13290.079202	3904.965167	1780.476563	-28.451029
13290.079202	3904.965167	1779.471680	50.507763
13290.079202	3904.965167	1778.465820	86.581215
13290.079202	3904.965167	1777.460938	77.422462
13290.079202	3904.965167	1776.455078	-183.687500
13290.079202	3904.965167	1775.449219	-14.732917
13290.079202	3904.965167	1774.442383	-5.061102
13290.079202	3904.965167	1773.436523	28.295580
13290.079202	3904.965167	1772.429688	-59.526844
13290.079202	3904.965167	1771.422852	-102.273560
13290.079202	3904.965167	1770.416016	21.083187
13290.079202	3904.965167	1769.409180	-2.806282
13290.079202	3904.965167	1768.402344	77.647827
13290.079202	3904.965167	1767.394531	231.541702
13290.079202	3904.965167	1766.386719	-17.891459
13290.079202	3904.965167	1765.378906	199.859085
13290.079202	3904.965167	1764.371094	-63.828274
13290.079202	3904.965167	1763.362305	-76.217873
13290.079202	3904.965167	1762.354492	29.835651
13290.079202	3904.965167	1761.345703	-39.565582
13290.079202	3904.965167	1760.336914	49.723190
13290.079202	3904.965167	1759.328125	6.269413
13290.079202	3904.965167	1758.318359	149.849503
13290.079202	3904.965167	1757.308594	-166.030228
13290.079202	3904.965167	1756.299805	-39.168385
13290.079202	3904.965167	1755.290039	-42.599735
13290.079202	3904.965167	1754.279297	-29.534317
13290.079202	3904.965167	1753.269531	47.346321
13290.079202	3904.965167	1752.258789	53.163811
13290.079202	3904.965167	1751.249023	2.158742
13290.079202	3904.965167	1750.238281	-58.354607
13290.079202	3904.965167	1749.226563	-69.266869
13290.079202	3904.965167	1748.215820	9.585309
13290.079202	3904.965167	1747.204102	109.607674
13290.079202	3904.965167	1746.193359	143.374969
13290.079202	3904.965167	1745.181641	54.220470
13290.079202	3904.965167	1744.168945	54.781918
13290.079202	3904.965167	1743.157227	-29.725906
13290.079202	3904.965167	1742.144531	-102.465172
13290.079202	3904.965167	1741.132813	23.050158
13290.079202	3904.965167	1740.120117	77.646957
13290.079202	3904.965167	1739.106445	16.533836
13290.079202	3904.965167	1738.093750	63.909115
13290.079202	3904.965167	1737.080078	106.481682
13290.079202	3904.965167	1736.067383	26.351486
13290.079202	3904.965167	1735.053711	23.993320
13290.079202	3904.965167	1734.040039	137.086029
13290.079202	3904.965167	1733.025391	42.659702
13290.079202	3904.965167	1732.011719	63.681980
13290.079202	3904.965167	1730.997070	131.750778
13290.079202	3904.965167	1729.982422	93.733200
13290.079202	3904.965167	1728.967773	-146.870392
13290.079202	3904.965167	1727.952148	57.586121
13290.079202	3904.965167	1726.937500	19.426903
13290.079202	3904.965167	1725.921875	-65.858040
13290.079202	3904.965167	1724.906250	74.750565
13290.079202	3904.965167	1723.890625	-78.861107
13290.079202	3904.965167	1722.875000	-32.515373
13290.079202	3904.965167	1721.858398	128.996094
13290.079202	3904.965167	1720.841797	31.721649
13290.079202	3904.965167	1719.825195	-140.805542
13290.079202	3904.965167	1718.808594	93.334908
13290.079202	3904.965167	1717.791992	-15.794487
13290.079202	3904.965167	1716.774414	11.340570
13290.079202	3904.965167	1715.756836	26.664684
13290.079202	3904.965167	1714.739258	-80.209328
13290.079202	3904.965167	1713.721680	-46.193542
13290.079202	3904.965167	1712.704102	65.237953
13290.079202	3904.965167	1711.685547	-119.214218
13290.079202	3904.965167	1710.667969	-43.120621
13290.079202	3904.965167	1709.649414	98.589333
13290.079202	3904.965167	1708.630859	43.119926
13290.079202	3904.965167	1707.611328	-82.755615
13290.079202	3904.965167	1706.592773	37.623028
13290.079202	3904.965167	1705.573242	225.897385
13290.079202	3904.965167	1704.553711	36.615215
13290.079202	3904.965167	1703.534180	-157.330292
13290.079202	3904.965167	1702.513672	54.156170
13290.079202	3904.965167	1701.494141	59.340363
13290.079202	3904.965167	1700.473633	-29.232277
13290.079202	3904.965167	1699.453125	92.970650
13290.079202	3904.965167	1698.432617	13.701246
13290.079202	3904.965167	1697.412109	-79.628723
13290.079202	3904.965167	1696.390625	-168.293289
13290.079202	3904.965167	1695.369141	-83.786232
13290.079202	3904.965167	1694.347656	7.664582
13290.079202	3904.965167	1693.326172	85.002701
13290.079202	3904.965167	1692.304688	-144.130096
13290.079202	3904.965167	1691.282227	-45.836121
13290.079202	3904.965167	1690.260742	-31.781300
13290.079202	3904.965167	1689.238281	31.309992
13290.079202	3904.965167	1688.214844	-29.537235
13290.079202	3904.965167	1687.192383	63.829674
13290.079202	3904.965167	1686.168945	-13.429557
13290.079202	3904.965167	1685.146484	159.240692
13290.079202	3904.965167	1684.123047	-67.540482
13290.079202	3904.965167	1683.099609	-46.772739
13290.079202	3904.965167	1682.075195	-2.711455
13290.079202	3904.965167	1681.051758	-24.043898
13290.079202	3904.965167	1680.027344	80.600739
13290.079202	3904.965167	1679.002930	-50.468445
13290.079202	3904.965167	1677.978516	289.673126
13290.079202	3904.965167	1676.953125	167.871994
13290.079202	3904.965167	1675.928711	139.365021
13290.079202	3904.965167	1674.903320	-17.389330
13290.079202	3904.965167	1673.877930	89.272186
13290.079202	3904.965167	1672.852539	67.693115
13290.079202	3904.965167	1671.826172	157.924011
13290.079202	3904.965167	1670.800781	-47.742832
13290.079202	3904.965167	1669.774414	186.823181
13290.079202	3904.965167	1668.748047	200.057907
13290.079202	3904.965167	1667.721680	71.246803
13290.079202	3904.965167	1666.694336	149.618073
13290.079202	3904.965167	1665.667969	99.946159
13290.079202	3904.965167	1664.640625	157.295563
13290.079202	3904.965167	1663.613281	240.191620
13290.079202	3904.965167	1662.585938	74.164421
13290.079202	3904.965167	1661.557617	82.581749
13290.079202	3904.965167	1660.530273	84.010216
13290.079202	3904.965167	1659.501953	115.630890
13290.079202	3904.965167	1658.473633	251.806580
13290.079202	3904.965167	1657.444336	278.693146
13290.079202	3904.965167	1656.416016	412.429047
13290.079202	3904.965167	1655.386719	311.492157
13290.079202	3904.965167	1654.358398	291.869659
13290.079202	3904.965167	1653.328125	295.442383
13290.079202	3904.965167	1652.298828	517.221741
13290.079202	3904.965167	1651.269531	546.264954
13290.079202	3904.965167	1650.239258	443.008514
13290.079202	3904.965167	1649.208984	381.542938
13290.079202	3904.965167	1648.178711	324.731293
13290.079202	3904.965167	1647.148438	511.444092
13290.079202	3904.965167	1646.117188	545.034363
13290.079202	3904.965167	1645.086914	437.199799
13290.079202	3904.965167	1644.055664	670.110107
13290.079202	3904.965167	1643.024414	490.434814
13290.079202	3904.965167	1641.992188	609.697876
13290.079202	3904.965167	1640.960938	610.780212
13290.079202	3904.965167	1639.928711	507.630646
13290.079202	3904.965167	1638.896484	594.394958
13290.079202	3904.965167	1637.864258	417.201813
13290.079202	3904.965167	1636.832031	531.724915
13290.079202	3904.965167	1635.798828	604.539978
13290.079202	3904.965167	1634.766602	540.824768
13290.079202	3904.965167	1633.733398	599.733276
13290.079202	3904.965167	1632.699219	619.295044
13290.079202	3904.965167	1631.666016	705.921814
13290.079202	3904.965167	1630.632813	605.250244
13290.079202	3904.965167	1629.598633	837.473755
13290.079202	3904.965167	1628.564453	794.595947
13290.079202	3904.965167	1627.530273	818.749878
13290.079202	3904.965167	1626.495117	1018.467407
13290.079202	3904.965167	1625.460938	887.833862
13290.079202	3904.965167	1624.425781	713.375488
13290.079202	3904.965167	1623.390625	772.187988
13290.079202	3904.965167	1622.355469	925.632080
13290.079202	3904.965167	1621.319336	762.833374
13290.079202	3904.965167	1620.284180	897.785217
13290.079202	3904.965167	1619.248047	771.994507
13290.079202	3904.965167	1618.211914	897.685730
13290.079202	3904.965167	1617.174805	1048.702026
13290.079202	3904.965167	1616.138672	1042.897827
13290.079202	3904.965167	1615.101563	977.167725
13290.079202	3904.965167	1614.065430	913.794556
13290.079202	3904.965167	1613.027344	1011.752014
13290.079202	3904.965167	1611.990234	1061.317383
13290.079202	3904.965167	1610.953125	1117.793701
13290.079202	3904.965167	1609.915039	1082.141235
13290.079202	3904.965167	1608.876953	1113.297852
13290.079202	3904.965167	1607.838867	1257.268188
13290.079202	3904.965167	1606.800781	1235.486938
13290.079202	3904.965167	1605.761719	1278.163818
13290.079202	3904.965167	1604.723633	1261.037842
13290.079202	3904.965167	1603.684570	1363.551514
13290.079202	3904.965167	1602.644531	1314.253784
13290.079202	3904.965167	1601.605469	1446.663208
13290.079202	3904.965167	1600.566406	1312.370239
13290.079202	3904.965167	1599.526367	1430.985840
13290.079202	3904.965167	1598.486328	1496.730713
13290.079202	3904.965167	1597.446289	1539.503052
13290.079202	3904.965167	1596.405273	1389.319946
13290.079202	3904.965167	1595.365234	1294.357300
13290.079202	3904.965167	1594.324219	1447.452637
13290.079202	3904.965167	1593.283203	1368.644775
13290.079202	3904.965167	1592.242188	1358.762573
13290.079202	3904.965167	1591.200195	1364.974854
13290.079202	3904.965167	1590.159180	1270.272339
13290.079202	3904.965167	1589.117188	1304.100342
13290.079202	3904.965167	1588.075195	1266.851929
13290.079202	3904.965167	1587.032227	1209.009766
13290.079202	3904.965167	1585.990234	1075.577637
13290.079202	3904.965167	1584.947266	1061.426147
13290.079202	3904.965167	1583.904297	1111.489258
13290.079202	3904.965167	1582.861328	1051.589966
13290.079202	3904.965167	1581.818359	998.628235
13290.079202	3904.965167	1580.775391	1197.677002
13290.079202	3904.965167	1579.731445	1101.274780
13290.079202	3904.965167	1578.687500	1075.929810
13290.079202	3904.965167	1577.643555	938.472900
13290.079202	3904.965167	1576.598633	954.446960
13290.079202	3904.965167	1575.554688	1055.130615
13290.079202	3904.965167	1574.509766	1068.879761
13290.079202	3904.965167	1573.464844	988.890747
13290.079202	3904.965167	1572.419922	1190.263184
13290.079202	3904.965167	1571.374023	938.890503
13290.079202	3904.965167	1570.329102	1140.290771
13290.079202	3904.965167	1569.283203	1241.092529
13290.079202	3904.965167	1568.237305	1101.973145
13290.079202	3904.965167	1567.191406	1129.736084
13290.079202	3904.965167	1566.144531	942.821472
13290.079202	3904.965167	1565.098633	1002.679749
13290.079202	3904.965167	1564.051758	859.350037
13290.079202	3904.965167	1563.004883	812.007996
13290.079202	3904.965167	1561.957031	814.944214
13290.079202	3904.965167	1560.910156	1034.722290
13290.079202	3904.965167	1559.862305	1019.470215
13290.079202	3904.965167	1558.814453	956.379517
13290.079202	3904.965167	1557.766602	907.052795
13290.079202	3904.965167	1556.718750	1083.533936
13290.079202	3904.965167	1555.669922	961.359985
13290.079202	3904.965167	1554.621094	971.486267
13290.079202	3904.965167	1553.573242	885.964722
13290.079202	3904.965167	1552.523438	825.585632
13290.079202	3904.965167	1551.474609	892.856506
13290.079202	3904.965167	1550.424805	757.463928
13290.079202	3904.965167	1549.375000	895.423523
13290.079202	3904.965167	1548.325195	789.799805
13290.079202	3904.965167	1547.275391	615.996948
13290.079202	3904.965167	1546.225586	597.068115
13290.079202	3904.965167	1545.174805	662.385864
13290.079202	3904.965167	1544.124023	880.148987
13290.079202	3904.965167	1543.073242	615.738892
13290.079202	3904.965167	1542.022461	763.063599
13290.079202	3904.965167	1540.970703	651.221863
13290.079202	3904.965167	1539.919922	559.950745
13290.079202	3904.965167	1538.868164	407.418427
13290.079202	3904.965167	1537.815430	509.477081
13290.079202	3904.965167	1536.763672	463.912628
13290.079202	3904.965167	1535.710938	563.782349
13290.079202	3904.965167	1534.659180	457.050110
13290.079202	3904.965167	1533.606445	425.341278
13290.079202	3904.965167	1532.552734	504.929382
13290.079202	3904.965167	1531.500000	316.773499
13290.079202	3904.965167	1530.446289	403.295746
13290.079202	3904.965167	1529.393555	412.729370
13290.079202	3904.965167	1528.338867	333.767151
13290.079202	3904.965167	1527.285156	257.178375
13290.079202	3904.965167	1526.231445	287.245483
13290.079202	3904.965167	1525.176758	217.632935
13290.079202	3904.965167	1524.122070	463.125244
13290.079202	3904.965167	1523.067383	275.827698
13290.079202	3904.965167	1522.012695	346.924164
13290.079202	3904.965167	1520.957031	372.762970
13290.079202	3904.965167	1519.901367	425.837341
13290.079202	3904.965167	1518.845703	426.891602
13290.079202	3904.965167	1517.790039	181.292297
13290.079202	3904.965167	1516.734375	377.167542
13290.079202	3904.965167	1515.677734	158.970551
13290.079202	3904.965167	1514.621094	271.216034
13290.079202	3904.965167	1513.564453	173.147888
13290.079202	3904.965167	1512.507813	149.816116
13290.079202	3904.965167	1511.450195	160.478348
13290.079202	3904.965167	1510.393555	-29.961983
13290.079202	3904.965167	1509.335938	30.601507
13290.079202	3904.965167	1508.278320	68.621078
13290.079202	3904.965167	1507.219727	61.517677
13290.079202	3904.965167	1506.162109	135.806458
13290.079202	3904.965167	1505.103516	11.420012
13290.079202	3904.965167	1504.044922	189.694565
13290.079202	3904.965167	1502.986328	130.960846
13290.079202	3904.965167	1501.926758	119.718727
13290.079202	3904.965167	1500.868164	126.611992
13290.079202	3904.965167	1499.808594	165.159866
13290.079202	3904.965167	1498.749023	72.952560
13290.079202	3904.965167	1497.688477	192.830078
13290.079202	3904.965167	1496.628906	188.738312
13290.079202	3904.965167	1495.568359	-47.452862
13290.079202	3904.965167	1494.507813	133.461685
13290.079202	3904.965167	1493.447266	-48.390041
13290.079202	3904.965167	1492.386719	69.531097
13290.079202	3904.965167	1491.325195	158.201721
13290.079202	3904.965167	1490.263672	91.534622
13290.079202	3904.965167	1489.202148	-53.828033
13290.079202	3904.965167	1488.140625	3.536633
13290.079202	3904.965167	1487.079102	81.212151
13290.079202	3904.965167	1486.016602	-192.082336
13290.079202	3904.965167	1484.954102	-22.005722
13290.079202	3904.965167	1483.891602	-7.112680
13290.079202	3904.965167	1482.829102	7.853141
13290.079202	3904.965167	1481.765625	49.866516
13290.079202	3904.965167	1480.702148	-27.193193
13290.079202	3904.965167	1479.638672	75.652504
13290.079202	3904.965167	1478.575195	68.425560
13290.079202	3904.965167	1477.511719	14.101528
13290.079202	3904.965167	1476.447266	56.482170
13290.079202	3904.965167	1475.382813	121.321930
13290.079202	3904.965167	1474.318359	134.619766
13290.079202	3904.965167	1473.253906	242.255508
13290.079202	3904.965167	1472.189453	89.645103
13290.079202	3904.965167	1471.124023	201.801575
13290.079202	3904.965167	1470.058594	231.174286
13290.079202	3904.965167	1468.993164	161.895447
13290.079202	3904.965167	1467.927734	150.981583
13290.079202	3904.965167	1466.861328	270.029480
13290.079202	3904.965167	1465.794922	368.743042
13290.079202	3904.965167	1464.728516	400.767151
13290.079202	3904.965167	1463.662109	329.473785
13290.079202	3904.965167	1462.594727	303.153839
13290.079202	3904.965167	1461.528320	315.211945
13290.079202	3904.965167	1460.460938	302.555847
13290.079202	3904.965167	1459.393555	386.381104
13290.079202	3904.965167	1458.326172	357.981018
13290.079202	3904.965167	1457.257813	164.671768
13290.079202	3904.965167	1456.189453	152.805435
13290.079202	3904.965167	1455.121094	305.479004
13290.079202	3904.965167	1454.052734	264.691315
13290.079202	3904.965167	1452.984375	250.402618
13290.079202	3904.965167	1451.915039	300.214996
13290.079202	3904.965167	1450.845703	159.671616
13290.079202	3904.965167	1449.776367	267.619873
13290.079202	3904.965167	1448.707031	257.985840
13290.079202	3904.965167	1447.636719	161.164352
13290.079202	3904.965167	1446.567383	112.335785
13290.079202	3904.965167	1445.497070	157.073334
13290.079202	3904.965167	1444.425781	182.907700
13290.079202	3904.965167	1443.355469	137.990524
13290.079202	3904.965167	1442.285156	225.114197
13290.079202	3904.965167	1441.213867	208.917603
13290.079202	3904.965167	1440.142578	288.322998
13290.079202	3904.965167	1439.070313	247.606583
13290.079202	3904.965167	1437.999023	-11.216518
13290.079202	3904.965167	1436.926758	100.501213
13290.079202	3904.965167	1435.854492	65.654358
13290.079202	3904.965167	1434.782227	-24.662182
13290.079202	3904.965167	1433.709961	-218.593735
13290.079202	3904.965167	1432.636719	-87.373001
13290.079202	3904.965167	1431.563477	-101.435272
13290.079202	3904.965167	1430.490234	-152.713501
13290.079202	3904.965167	1429.416992	-107.135765
13290.079202	3904.965167	1428.343750	113.918686
13290.079202	3904.965167	1427.269531	-65.829399
13290.079202	3904.965167	1426.195313	-199.757584
13290.079202	3904.965167	1425.121094	-19.717308
13290.079202	3904.965167	1424.046875	-118.727005
13290.079202	3904.965167	1422.971680	16.184307
13290.079202	3904.965167	1421.896484	-53.914932
13290.079202	3904.965167	1420.821289	-23.544147
13290.079202	3904.965167	1419.746094	65.908577
13290.079202	3904.965167	1418.669922	-16.445414
13290.079202	3904.965167	1417.594727	-90.778664
13290.079202	3904.965167	1416.518555	-15.791856
13290.079202	3904.965167	1415.442383	-57.323708
13290.079202	3904.965167	1414.365234	268.804749
13290.079202	3904.965167	1413.289063	177.678238
13290.079202	3904.965167	1412.211914	187.151245
13290.079202	3904.965167	1411.134766	266.658234
13290.079202	3904.965167	1410.057617	188.920959
13290.079202	3904.965167	1408.979492	15.109828
13290.079202	3904.965167	1407.902344	162.494522
13290.079202	3904.965167	1406.824219	84.074631
13290.079202	3904.965167	1405.746094	112.753517
13290.079202	3904.965167	1404.666992	103.994820
13290.079202	3904.965167	1403.588867	159.339676
13290.079202	3904.965167	1402.509766	148.066940
13290.079202	3904.965167	1401.430664	168.216431
13290.079202	3904.965167	1400.351563	218.609970
13290.079202	3904.965167	1399.271484	61.152832
13290.079202	3904.965167	1398.192383	229.311844
13290.079202	3904.965167	1397.112305	270.773651
13290.079202	3904.965167	1396.031250	106.523720
13290.079202	3904.965167	1394.951172	67.803467
13290.079202	3904.965167	1393.871094	264.894745
13290.079202	3904.965167	1392.790039	185.749039
13290.079202	3904.965167	1391.708984	5.858787
13290.079202	3904.965167	1390.626953	128.045715
13290.079202	3904.965167	1389.545898	-6.794593
13290.079202	3904.965167	1388.463867	53.263615
13290.079202	3904.965167	1387.381836	181.205200
13290.079202	3904.965167	1386.299805	83.408051
13290.079202	3904.965167	1385.217773	161.792053
13290.079202	3904.965167	1384.134766	34.008327
13290.079202	3904.965167	1383.051758	88.162109
13290.079202	3904.965167	1381.968750	91.018005
13290.079202	3904.965167	1380.885742	88.532501
13290.079202	3904.965167	1379.802734	29.577614
13290.079202	3904.965167	1378.718750	147.423828
13290.079202	3904.965167	1377.634766	108.185898
13290.079202	3904.965167	1376.550781	7.295387
13290.079202	3904.965167	1375.465820	202.572723
13290.079202	3904.965167	1374.381836	108.766563
13290.079202	3904.965167	1373.296875	-25.865459
13290.079202	3904.965167	1372.211914	144.722809
13290.079202	3904.965167	1371.126953	210.200714
13290.079202	3904.965167	1370.041016	26.692591
13290.079202	3904.965167	1368.955078	123.891907
13290.079202	3904.965167	1367.869141	-16.593996
13290.079202	3904.965167	1366.783203	143.990158
13290.079202	3904.965167	1365.697266	6.449460
13290.079202	3904.965167	1364.610352	119.394287
13290.079202	3904.965167	1363.523438	58.862110
13290.079202	3904.965167	1362.436523	65.035446
13290.079202	3904.965167	1361.349609	188.839508
13290.079202	3904.965167	1360.261719	113.615761
13290.079202	3904.965167	1359.174805	20.346027
13290.079202	3904.965167	1358.086914	-23.819792
13290.079202	3904.965167	1356.998047	158.302399
13290.079202	3904.965167	1355.910156	-43.159843
13290.079202	3904.965167	1354.821289	168.520279
13290.079202	3904.965167	1353.732422	127.976051
13290.079202	3904.965167	1352.643555	207.305023
13290.079202	3904.965167	1351.554688	116.194572
13290.079202	3904.965167	1350.464844	131.022156
13290.079202	3904.965167	1349.375000	210.057159
13290.079202	3904.965167	1348.285156	294.842407
13290.079202	3904.965167	1347.195313	383.694214
13290.079202	3904.965167	1346.105469	228.579224
13290.079202	3904.965167	1345.014648	389.018158
13290.079202	3904.965167	1343.923828	240.611237
13290.079202	3904.965167	1342.833008	334.204529
13290.079202	3904.965167	1341.741211	246.412582
13290.079202	3904.965167	1340.650391	270.534332
13290.079202	3904.965167	1339.558594	385.934204
13290.079202	3904.965167	1338.466797	318.259155
13290.079202	3904.965167	1337.374023	324.311371
13290.079202	3904.965167	1336.282227	390.880707
13290.079202	3904.965167	1335.189453	235.327011
13290.079202	3904.965167	1334.096680	89.174034
13290.079202	3904.965167	1333.003906	170.905075
13290.079202	3904.965167	1331.910156	319.605591
13290.079202	3904.965167	1330.817383	335.074036
13290.079202	3904.965167	1329.723633	221.912140
13290.079202	3904.965167	1328.629883	183.466843
13290.079202	3904.965167	1327.535156	79.770439
13290.079202	3904.965167	1326.441406	163.543594
13290.079202	3904.965167	1325.346680	180.376495
13290.079202	3904.965167	1324.251953	141.570557
13290.079202	3904.965167	1323.156250	122.013664
13290.079202	3904.965167	1322.061523	175.908203
13290.079202	3904.965167	1320.965820	109.309898
13290.079202	3904.965167	1319.870117	146.772995
13290.079202	3904.965167	1318.774414	123.883301
13290.079202	3904.965167	1317.678711	214.828705
13290.079202	3904.965167	1316.582031	213.793091
13290.079202	3904.965167	1315.485352	200.713943
13290.079202	3904.965167	1314.388672	221.882187
13290.079202	3904.965167	1313.291016	282.845520
13290.079202	3904.965167	1312.194336	414.936890
13290.079202	3904.965167	1311.096680	263.102936
13290.079202	3904.965167	1309.999023	423.045746
13290.079202	3904.965167	1308.901367	505.126007
13290.079202	3904.965167	1307.802734	409.825592
13290.079202	3904.965167	1306.705078	282.923157
13290.079202	3904.965167	1305.606445	418.982178
13290.079202	3904.965167	1304.506836	382.014282
13290.079202	3904.965167	1303.408203	422.590027
13290.079202	3904.965167	1302.308594	383.116211
13290.079202	3904.965167	1301.208984	509.068268
13290.079202	3904.965167	1300.109375	349.535889
13290.079202	3904.965167	1299.009766	561.849609
13290.079202	3904.965167	1297.909180	444.115875
13290.079202	3904.965167	1296.808594	413.433624
13290.079202	3904.965167	1295.708008	289.635742
13290.079202	3904.965167	1294.607422	295.298309
13290.079202	3904.965167	1293.506836	364.701050
13290.079202	3904.965167	1292.405273	126.161934
13290.079202	3904.965167	1291.303711	252.804718
13290.079202	3904.965167	1290.202148	273.310974
13290.079202	3904.965167	1289.099609	174.851212
13290.079202	3904.965167	1287.998047	212.644699
13290.079202	3904.965167	1286.895508	40.995983
13290.079202	3904.965167	1285.792969	77.604965
13290.079202	3904.965167	1284.689453	220.691055
13290.079202	3904.965167	1283.586914	148.320129
13290.079202	3904.965167	1282.483398	203.329025
13290.079202	3904.965167	1281.379883	241.813614
13290.079202	3904.965167	1280.276367	129.284134
13290.079202	3904.965167	1279.171875	78.298340
13290.079202	3904.965167	1278.067383	141.760269
13290.079202	3904.965167	1276.962891	165.529724
13290.079202	3904.965167	1275.858398	72.070045
13290.079202	3904.965167	1274.753906	136.578461
13290.079202	3904.965167	1273.648438	219.443802
13290.079202	3904.965167	1272.542969	180.760544
13290.079202	3904.965167	1271.437500	103.969582
13290.079202	3904.965167	1270.331055	124.870880
13290.079202	3904.965167	1269.225586	89.498665
13290.079202	3904.965167	1268.119141	160.455872
13290.079202	3904.965167	1267.012695	230.107483
13290.079202	3904.965167	1265.906250	68.387093
13290.079202	3904.965167	1264.798828	147.963318
13290.079202	3904.965167	1263.691406	159.233902
13290.079202	3904.965167	1262.583984	194.517212
13290.079202	3904.965167	1261.476563	128.120819
13290.079202	3904.965167	1260.368164	131.121094
13290.079202	3904.965167	1259.260742	214.827759
13290.079202	3904.965167	1258.152344	136.014542
13290.079202	3904.965167	1257.043945	9.152039
13290.079202	3904.965167	1255.934570	35.405884
13290.079202	3904.965167	1254.825195	104.694420
13290.079202	3904.965167	1253.716797	-6.480973
13290.079202	3904.965167	1252.606445	-40.984222
13290.079202	3904.965167	1251.497070	39.405098
13290.079202	3904.965167	1250.387695	41.517197
13290.079202	3904.965167	1249.277344	-38.618530
13290.079202	3904.965167	1248.166992	41.534008
13290.079202	3904.965167	1247.055664	118.087189
13290.079202	3904.965167	1245.945313	129.082001
13290.079202	3904.965167	1244.833984	4.983387
13290.079202	3904.965167	1243.722656	62.506218
13290.079202	3904.965167	1242.611328	122.977699
13290.079202	3904.965167	1241.499023	125.357338
13290.079202	3904.965167	1240.387695	109.257072
13290.079202	3904.965167	1239.275391	22.759890
13290.079202	3904.965167	1238.162109	100.269638
13290.079202	3904.965167	1237.049805	27.761150
13290.079202	3904.965167	1235.936523	-12.743694
13290.079202	3904.965167	1234.823242	118.402245
13290.079202	3904.965167	1233.709961	-50.656399
13290.079202	3904.965167	1232.596680	34.365616
13290.079202	3904.965167	1231.482422	-5.718791
13290.079202	3904.965167	1230.369141	35.982918
13290.079202	3904.965167	1229.253906	-1.040487
13290.079202	3904.965167	1228.139648	-46.859581
13290.079202	3904.965167	1227.025391	-1.323074
13290.079202	3904.965167	1225.910156	-54.425255
13290.079202	3904.965167	1224.794922	-26.886955
13290.079202	3904.965167	1223.679688	0.125946
13290.079202	3904.965167	1222.563477	11.280248
13290.079202	3904.965167	1221.447266	-4.811800
13290.079202	3904.965167	1220.331055	-7.693508
13290.079202	3904.965167	1219.214844	17.433128
13290.079202	3904.965167	1218.098633	-110.848236
13290.079202	3904.965167	1216.981445	27.536825
13290.079202	3904.965167	1215.864258	-73.598137
13290.079202	3904.965167	1214.747070	-6.878927
13290.079202	3904.965167	1213.629883	-27.618359
13290.079202	3904.965167	1212.511719	42.387321
13290.079202	3904.965167	1211.393555	-9.661999
13290.079202	3904.965167	1210.275391	19.220684
13290.079202	3904.965167	1209.157227	-6.488359
13290.079202	3904.965167	1208.038086	25.782715
13290.079202	3904.965167	1206.918945	38.690445
13290.079202	3904.965167	1205.799805	-71.092110
13290.079202	3904.965167	1204.680664	2.586148
13290.079202	3904.965167	1203.560547	-34.511616
13290.079202	3904.965167	1202.441406	87.263214
13290.079202	3904.965167	1201.321289	-11.130155
13290.079202	3904.965167	1200.200195	3.045745
13290.079202	3904.965167	1199.080078	-30.038342
13290.079202	3904.965167	1197.958984	108.315918
13290.079202	3904.965167	1196.837891	61.412796
13290.079202	3904.965167	1195.716797	-21.189844
13290.079202	3904.965167	1194.594727	28.121588
13290.079202	3904.965167	1193.473633	7.800352
13290.079202	3904.965167	1192.351563	48.953236
13290.079202	3904.965167	1191.229492	-6.847759
13290.079202	3904.965167	1190.106445	39.278931
13290.079202	3904.965167	1188.984375	-15.546695
13290.079202	3904.965167	1187.861328	-80.828400
13290.079202	3904.965167	1186.738281	-159.890533
13290.079202	3904.965167	1185.614258	-73.440010
13290.079202	3904.965167	1184.491211	-116.236465
13290.079202	3904.965167	1183.367188	-22.111502
13290.079202	3904.965167	1182.243164	-50.465031
13290.079202	3904.965167	1181.119141	-70.827011
13290.079202	3904.965167	1179.994141	54.882645
13290.079202	3904.965167	1178.869141	-24.751982
13290.079202	3904.965167	1177.744141	17.740139
13290.079202	3904.965167	1176.619141	-50.626007
13290.079202	3904.965167	1175.493164	-59.102951
13290.079202	3904.965167	1174.368164	-142.719299
13290.079202	3904.965167	1173.242188	-25.985849
13290.079202	3904.965167	1172.115234	-23.990213
13290.079202	3904.965167	1170.989258	-15.033774
13290.079202	3904.965167	1169.862305	58.695278
13290.079202	3904.965167	1168.735352	29.321363
13290.079202	3904.965167	1167.608398	65.453743
13290.079202	3904.965167	1166.481445	-20.795877
13290.079202	3904.965167	1165.353516	-95.535225
13290.079202	3904.965167	1164.225586	131.490616
13290.079202	3904.965167	1163.097656	-24.457682
13290.079202	3904.965167	1161.968750	9.101895
13290.079202	3904.965167	1160.840820	120.280678
13290.079202	3904.965167	1159.711914	-7.225762
13290.079202	3904.965167	1158.583008	-5.613480
13290.079202	3904.965167	1157.453125	-7.721838
13290.079202	3904.965167	1156.324219	40.154495
13290.079202	3904.965167	1155.194336	2.156194
13290.079202	3904.965167	1154.064453	23.734791
13290.079202	3904.965167	1152.933594	-43.898399
13290.079202	3904.965167	1151.803711	-101.822441
13290.079202	3904.965167	1150.672852	-73.401779
13290.079202	3904.965167	1149.541992	-136.999176
13290.079202	3904.965167	1148.411133	-184.672806
13290.079202	3904.965167	1147.279297	-68.756851
13290.079202	3904.965167	1146.147461	-101.701897
13290.079202	3904.965167	1145.015625	21.067234
13290.079202	3904.965167	1143.883789	-42.507568
13290.079202	3904.965167	1142.750977	-94.685455
13290.079202	3904.965167	1141.619141	-26.654251
13290.079202	3904.965167	1140.486328	-132.562622
13290.079202	3904.965167	1139.352539	-83.745628
13290.079202	3904.965167	1138.219727	45.563694
13290.079202	3904.965167	1137.085938	-7.796191
13290.079202	3904.965167	1135.952148	-98.725220
13290.079202	3904.965167	1134.818359	-47.633053
13290.079202	3904.965167	1133.683594	-39.748760
13290.079202	3904.965167	1132.549805	-15.235235
13290.079202	3904.965167	1131.415039	5.326268
13290.079202	3904.965167	1130.279297	55.018211
13290.079202	3904.965167	1129.144531	91.464531
13290.079202	3904.965167	1128.008789	132.169235
13290.079202	3904.965167	1126.873047	238.514404
13290.079202	3904.965167	1125.737305	87.696404
13290.079202	3904.965167	1124.601563	93.133224
13290.079202	3904.965167	1123.464844	114.476425
13290.079202	3904.965167	1122.328125	66.115532
13290.079202	3904.965167	1121.191406	107.619965
13290.079202	3904.965167	1120.054688	276.506378
13290.079202	3904.965167	1118.916992	259.437469
13290.079202	3904.965167	1117.779297	100.526978
13290.079202	3904.965167	1116.641602	226.777481
13290.079202	3904.965167	1115.503906	277.304291
13290.079202	3904.965167	1114.365234	197.313873
13290.079202	3904.965167	1113.226563	166.791306
13290.079202	3904.965167	1112.087891	190.566727
13290.079202	3904.965167	1110.949219	128.092911
13290.079202	3904.965167	1109.809570	52.036171
13290.079202	3904.965167	1108.669922	67.377792
13290.079202	3904.965167	1107.530273	176.454803
13290.079202	3904.965167	1106.390625	53.630100
13290.079202	3904.965167	1105.250000	187.213486
13290.079202	3904.965167	1104.109375	278.726410
13290.079202	3904.965167	1102.968750	213.675812
13290.079202	3904.965167	1101.828125	293.138000
13290.079202	3904.965167	1100.686523	302.182465
13290.079202	3904.965167	1099.544922	248.915192
13290.079202	3904.965167	1098.403320	323.968689
13290.079202	3904.965167	1097.261719	331.761047
13290.079202	3904.965167	1096.120117	365.321716
13290.079202	3904.965167	1094.977539	274.988068
13290.079202	3904.965167	1093.834961	266.168579
13290.079202	3904.965167	1092.691406	225.923233
13290.079202	3904.965167	1091.548828	144.977203
13290.079202	3904.965167	1090.405273	156.759872
13290.079202	3904.965167	1089.261719	210.163712
13290.079202	3904.965167	1088.118164	205.679611
13290.079202	3904.965167	1086.973633	112.546143
13290.079202	3904.965167	1085.829102	142.404404
13290.079202	3904.965167	1084.684570	128.924500
13290.079202	3904.965167	1083.540039	147.250137
13290.079202	3904.965167	1082.395508	37.374680
13290.079202	3904.965167	1081.250000	75.807564
13290.079202	3904.965167	1080.104492	67.032822
13290.079202	3904.965167	1078.958984	142.822601
13290.079202	3904.965167	1077.812500	155.617920
13290.079202	3904.965167	1076.666016	-40.664486
13290.079202	3904.965167	1075.519531	149.256821
13290.079202	3904.965167	1074.373047	107.549011
13290.079202	3904.965167	1073.226563	47.313866
13290.079202	3904.965167	1072.079102	74.133873
13290.079202	3904.965167	1070.931641	145.924911
13290.079202	3904.965167	1069.784180	242.501663
13290.079202	3904.965167	1068.635742	126.289810
13290.079202	3904.965167	1067.487305	96.532463
13290.079202	3904.965167	1066.338867	118.490097
13290.079202	3904.965167	1065.190430	56.787426
13290.079202	3904.965167	1064.041992	136.017441
13290.079202	3904.965167	1062.892578	69.862541
13290.079202	3904.965167	1061.743164	48.519604
13290.079202	3904.965167	1060.593750	21.267170
13290.079202	3904.965167	1059.443359	70.800270
13290.079202	3904.965167	1058.292969	82.986763
13290.079202	3904.965167	1057.142578	142.357132
13290.079202	3904.965167	1055.992188	21.389631
13290.079202	3904.965167	1054.841797	52.736824
13290.079202	3904.965167	1053.690430	172.254288
13290.079202	3904.965167	1052.539063	31.056568
13290.079202	3904.965167	1051.387695	53.342144
13290.079202	3904.965167	1050.235352	68.838585
13290.079202	3904.965167	1049.083984	68.231049
13290.079202	3904.965167	1047.931641	80.316734
13290.079202	3904.965167	1046.778320	81.156334
13290.079202	3904.965167	1045.625977	193.000092
13290.079202	3904.965167	1044.472656	-10.133245
13290.079202	3904.965167	1043.319336	150.741180
13290.079202	3904.965167	1042.166016	79.556694
13290.079202	3904.965167	1041.012695	68.483963
13290.079202	3904.965167	1039.858398	123.187859
13290.079202	3904.965167	1038.704102	20.681667
13290.079202	3904.965167	1037.549805	144.635529
13290.079202	3904.965167	1036.394531	147.405212
13290.079202	3904.965167	1035.239258	181.126602
13290.079202	3904.965167	1034.083984	116.433723
13290.079202	3904.965167	1032.928711	3.245269
13290.079202	3904.965167	1031.773438	-1.353560
13290.079202	3904.965167	1030.617188	-46.707310
13290.079202	3904.965167	1029.460938	173.611526
13290.079202	3904.965167	1028.304688	80.217918
13290.079202	3904.965167	1027.147461	-22.839170
13290.079202	3904.965167	1025.991211	-42.411346
13290.079202	3904.965167	1024.833984	51.678143
13290.079202	3904.965167	1023.675781	122.673615
13290.079202	3904.965167	1022.518555	32.122013
13290.079202	3904.965167	1021.360352	-59.392792
13290.079202	3904.965167	1020.202148	-89.548126
13290.079202	3904.965167	1019.043945	-92.203140
13290.079202	3904.965167	1017.884766	40.494694
13290.079202	3904.965167	1016.726563	25.280481
13290.079202	3904.965167	1015.567383	-4.509159
13290.079202	3904.965167	1014.407227	-38.698261
13290.079202	3904.965167	1013.248047	-137.852402
13290.079202	3904.965167	1012.087891	25.678905
13290.079202	3904.965167	1010.927734	-0.085738
13290.079202	3904.965167	1009.767578	-83.763290
13290.079202	3904.965167	1008.606445	56.251575
13290.079202	3904.965167	1007.446289	23.698112
13290.079202	3904.965167	1006.285156	7.432216
13290.079202	3904.965167	1005.123047	4.668424
13290.079202	3904.965167	1003.961914	66.444427
13290.079202	3904.965167	1002.799805	2.253238
13290.079202	3904.965167	1001.637695	17.459272
13290.079202	3904.965167	1000.475586	182.542740
13290.079202	3904.965167	999.312500	-71.443420
13290.079202	3904.965167	998.149414	-35.425262
13290.079202	3904.965167	996.986328	31.078875
13290.079202	3904.965167	995.823242	141.494019
13290.079202	3904.965167	994.659180	-23.740238
13290.079202	3904.965167	993.496094	61.095203
13290.079202	3904.965167	992.332031	34.250408
13290.079202	3904.965167	991.166992	-28.270550
13290.079202	3904.965167	990.002930	-10.203576
13290.079202	3904.965167	988.837891	73.901993
13290.079202	3904.965167	987.672852	3.460531
13290.079202	3904.965167	986.506836	-136.024979
13290.079202	3904.965167	985.341797	20.531425
13290.079202	3904.965167	984.175781	52.726780
13290.079202	3904.965167	983.009766	46.881275
13290.079202	3904.965167	981.843750	-43.915051
13290.079202	3904.965167	980.676758	-19.827248
13290.079202	3904.965167	979.509766	73.092819
13290.079202	3904.965167	978.342773	67.626114
13290.079202	3904.965167	977.175781	29.997915
13290.079202	3904.965167	976.007813	-24.238615
13290.079202	3904.965167	974.839844	71.518997
13290.079202	3904.965167	973.671875	45.575138
13290.079202	3904.965167	972.503906	-125.893738
13290.079202	3904.965167	971.334961	-13.661685
13290.079202	3904.965167	970.166016	-100.402550
13290.079202	3904.965167	968.997070	10.284718
13290.079202	3904.965167	967.828125	-22.670507
13290.079202	3904.965167	966.658203	24.654459
13290.079202	3904.965167	965.488281	88.216164
13290.079202	3904.965167	964.318359	15.640745
13290.079202	3904.965167	963.148438	32.861477
13290.079202	3904.965167	961.977539	58.441132
13290.079202	3904.965167	960.806641	-57.496235
13290.079202	3904.965167	959.635742	82.609589
13290.079202	3904.965167	958.463867	36.361874
13290.079202	3904.965167	957.292969	118.502777
13290.079202	3904.965167	956.121094	153.180069
13290.079202	3904.965167	954.948242	50.293293
13290.079202	3904.965167	953.776367	23.465500
13290.079202	3904.965167	952.603516	191.128098
13290.079202	3904.965167	951.430664	-5.647535
13290.079202	3904.965167	950.257813	148.300827
13290.079202	3904.965167	949.084961	132.393265
13290.079202	3904.965167	947.911133	130.207031
13290.079202	3904.965167	946.737305	-5.226001
13290.079202	3904.965167	945.563477	6.873079
13290.079202	3904.965167	944.388672	25.597164
13290.079202	3904.965167	943.213867	111.831619
13290.079202	3904.965167	942.039063	55.959854
13290.079202	3904.965167	940.864258	18.597219
13290.079202	3904.965167	939.688477	-109.776718
13290.079202	3904.965167	938.513672	32.939770
13290.079202	3904.965167	937.337891	-18.378292
13290.079202	3904.965167	936.161133	82.115852
13290.079202	3904.965167	934.985352	72.881882
13290.079202	3904.965167	933.808594	142.873383
13290.079202	3904.965167	932.631836	147.647141
13290.079202	3904.965167	931.454102	126.549835
13290.079202	3904.965167	930.277344	264.355164
13290.079202	3904.965167	929.099609	301.645508
13290.079202	3904.965167	927.921875	68.122253
13290.079202	3904.965167	926.743164	114.793152
13290.079202	3904.965167	925.565430	-11.278042
13290.079202	3904.965167	924.386719	-27.644699
13290.079202	3904.965167	923.208008	112.298332
13290.079202	3904.965167	922.028320	-25.403128
13290.079202	3904.965167	920.849609	-41.782940
13290.079202	3904.965167	919.669922	-40.771984
13290.079202	3904.965167	919.474609	-51.001770
13290.079202	3904.965167	918.309570	-74.392235
13290.079202	3904.965167	917.143555	67.709389
13290.079202	3904.965167	915.977539	65.264717
13290.079202	3904.965167	914.810547	102.423035
13290.079202	3904.965167	913.644531	-7.193717
13290.079202	3904.965167	912.477539	167.357513
13290.079202	3904.965167	911.310547	67.073517
13290.079202	3904.965167	910.143555	27.351271
13290.079202	3904.965167	908.975586	-68.221008
13290.079202	3904.965167	907.807617	-10.176808
13290.079202	3904.965167	906.639648	-61.510746
13290.079202	3904.965167	905.471680	-33.743809
13290.079202	3904.965167	904.303711	-1.343268
13290.079202	3904.965167	903.134766	-59.642349
13290.079202	3904.965167	901.965820	-29.587130
13290.079202	3904.965167	900.796875	49.257450
13290.079202	3904.965167	899.626953	-88.041473
13290.079202	3904.965167	898.457031	-37.108673
13290.079202	3904.965167	897.287109	48.638351
13290.079202	3904.965167	896.117188	-72.340446
13290.079202	3904.965167	894.947266	-0.565112
13290.079202	3904.965167	893.776367	-65.784950
13290.079202	3904.965167	892.605469	-28.866421
13290.079202	3904.965167	891.434570	-54.620598
13290.079202	3904.965167	890.262695	133.063538
13290.079202	3904.965167	889.091797	60.884266
13290.079202	3904.965167	887.919922	-62.289391
13290.079202	3904.965167	886.748047	178.586273
13290.079202	3904.965167	885.575195	-118.427094
13290.079202	3904.965167	884.403320	87.584167
13290.079202	3904.965167	883.230469	-7.716554
13290.079202	3904.965167	882.057617	36.011822
13290.079202	3904.965167	880.883789	-119.473282
13290.079202	3904.965167	879.710938	95.605095
13290.079202	3904.965167	878.537109	-18.169296
13290.079202	3904.965167	877.362305	81.050629
13290.079202	3904.965167	876.188477	-53.517715
13290.079202	3904.965167	875.013672	152.087311
13290.079202	3904.965167	873.839844	-12.528202
13290.079202	3904.965167	872.664063	137.462234
13290.079202	3904.965167	871.489258	-87.219200
13290.079202	3904.965167	870.313477	-25.142651
13290.079202	3904.965167	869.138672	-64.802078
13290.079202	3904.965167	867.962891	68.868065
13290.079202	3904.965167	866.786133	-30.881361
13290.079202	3904.965167	865.610352	-56.679039
13290.079202	3904.965167	864.433594	-20.117191
13290.079202	3904.965167	863.256836	-38.995319
13290.079202	3904.965167	862.079102	-175.611313
13290.079202	3904.965167	860.902344	31.726002
13290.079202	3904.965167	859.724609	79.744164
13290.079202	3904.965167	858.546875	-19.923687
13290.079202	3904.965167	857.368164	32.680855
13290.079202	3904.965167	856.190430	-96.935555
13290.079202	3904.965167	855.011719	84.766083
13290.079202	3904.965167	853.833008	24.331518
13290.079202	3904.965167	852.654297	-1.515743
13290.079202	3904.965167	851.474609	-133.359818
13290.079202	3904.965167	850.294922	-92.372231
13290.079202	3904.965167	849.115234	116.734489
13290.079202	3904.965167	847.935547	67.821548
13290.079202	3904.965167	846.754883	46.547440
13290.079202	3904.965167	845.575195	-6.955554
13290.079202	3904.965167	844.393555	-51.240467
13290.079202	3904.965167	843.212891	26.434410
13290.079202	3904.965167	842.032227	-102.980431
13290.079202	3904.965167	840.850586	-2.347520
13290.079202	3904.965167	839.668945	75.237350
13290.079202	3904.965167	838.486328	10.234382
13290.079202	3904.965167	837.304688	11.906806
13290.079202	3904.965167	836.122070	-46.184715
13290.079202	3904.965167	834.939453	-7.761423
13290.079202	3904.965167	833.756836	21.445570
13290.079202	3904.965167	832.573242	-6.790124
13290.079202	3904.965167	831.389648	15.491430
13290.079202	3904.965167	830.206055	-15.051725
13290.079202	3904.965167	829.022461	-41.004715
13290.079202	3904.965167	827.838867	-50.895538
13290.079202	3904.965167	826.654297	47.040573
13290.079202	3904.965167	825.469727	-1.886310
13290.079202	3904.965167	824.284180	-89.794746
13290.079202	3904.965167	823.099609	92.888298
13290.079202	3904.965167	821.914063	23.309147
13290.079202	3904.965167	820.728516	86.681725
13290.079202	3904.965167	819.542969	111.057625
13290.079202	3904.965167	818.356445	87.297211
13290.079202	3904.965167	817.169922	61.241398
13290.079202	3904.965167	815.983398	85.564812
13290.079202	3904.965167	814.796875	146.497253
13290.079202	3904.965167	813.609375	157.027954
13290.079202	3904.965167	812.422852	-75.063797
13290.079202	3904.965167	811.235352	-14.181207
13290.079202	3904.965167	810.046875	87.840057
13290.079202	3904.965167	808.859375	43.417526
13290.079202	3904.965167	807.670898	243.686020
13290.079202	3904.965167	806.482422	482.722870
13290.079202	3904.965167	805.293945	513.631409
13290.079202	3904.965167	804.104492	299.972992
13290.079202	3904.965167	802.915039	221.196609
13290.079202	3904.965167	801.725586	57.911457
13290.079202	3904.965167	800.536133	164.185699
13290.079202	3904.965167	799.345703	96.852150
13290.079202	3904.965167	798.155273	114.000946
13290.079202	3904.965167	796.964844	-21.806105
13290.079202	3904.965167	795.774414	-86.830894
13290.079202	3904.965167	794.583008	-58.300236
13290.079202	3904.965167	793.392578	27.228176
13290.079202	3904.965167	792.200195	-37.821262
13290.079202	3904.965167	791.008789	-48.137478
13290.079202	3904.965167	789.816406	-131.420059
13290.079202	3904.965167	788.625000	-34.626507
13290.079202	3904.965167	787.432617	-29.043369
13290.079202	3904.965167	786.239258	-23.482407
13290.079202	3904.965167	785.046875	54.947140
13290.079202	3904.965167	783.853516	-42.032597
13290.079202	3904.965167	782.660156	-123.053963
13290.079202	3904.965167	781.465820	-33.331226
13290.079202	3904.965167	780.272461	-64.290886
13290.079202	3904.965167	779.078125	45.820309
13290.079202	3904.965167	777.883789	60.315407
13290.079202	3904.965167	776.688477	-13.924229
13290.079202	3904.965167	775.494141	-35.850346
13290.079202	3904.965167	774.298828	-12.317728
13290.079202	3904.965167	773.103516	88.469154
13290.079202	3904.965167	771.907227	-58.525375
13290.079202	3904.965167	770.711914	105.806145
13290.079202	3904.965167	769.515625	-66.164139
13290.079202	3904.965167	768.318359	-60.930107
13290.079202	3904.965167	767.122070	141.834091
13290.079202	3904.965167	765.924805	19.841324
13290.079202	3904.965167	764.727539	-38.568810
13290.079202	3904.965167	763.530273	-135.556610
13290.079202	3904.965167	762.333008	-53.287781
13290.079202	3904.965167	761.134766	-7.370893
13290.079202	3904.965167	759.936523	90.665092
13290.079202	3904.965167	758.738281	38.985062
13290.079202	3904.965167	757.540039	39.442879
13290.079202	3904.965167	756.340820	-3.187789
13290.079202	3904.965167	755.141602	67.476295
13290.079202	3904.965167	753.942383	33.871510
13290.079202	3904.965167	752.742188	45.556633
13290.079202	3904.965167	751.541992	75.328545
13290.079202	3904.965167	750.341797	161.667099
13290.079202	3904.965167	749.141602	37.423717
13290.079202	3904.965167	747.941406	-66.424660
13290.079202	3904.965167	746.740234	71.855453
13290.079202	3904.965167	745.539063	29.072767
13290.079202	3904.965167	744.337891	-18.241579
13290.079202	3904.965167	743.135742	54.286480
13290.079202	3904.965167	741.933594	20.498922
13290.079202	3904.965167	740.731445	54.510395
13290.079202	3904.965167	739.529297	-38.072269
13290.079202	3904.965167	738.326172	61.407150
13290.079202	3904.965167	737.124023	-71.851898
13290.079202	3904.965167	735.919922	84.001244
13290.079202	3904.965167	734.716797	72.670914
13290.079202	3904.965167	733.513672	-1.891734
13290.079202	3904.965167	732.309570	156.025589
13290.079202	3904.965167	731.105469	-65.256416
13290.079202	3904.965167	729.900391	-40.557213
13290.079202	3904.965167	728.696289	103.654503
13290.079202	3904.965167	727.491211	17.750090
13290.079202	3904.965167	726.286133	-68.145447
13290.079202	3904.965167	725.080078	114.219643
13290.079202	3904.965167	723.874023	-3.268347
13290.079202	3904.965167	722.668945	-17.082891
13290.079202	3904.965167	721.461914	124.522919
13290.079202	3904.965167	720.255859	43.060890
13290.079202	3904.965167	719.048828	-2.365474
13290.079202	3904.965167	717.841797	-29.789669
13290.079202	3904.965167	716.634766	68.821487
13290.079202	3904.965167	715.427734	-5.920689
13290.079202	3904.965167	714.219727	-98.661095
13290.079202	3904.965167	713.011719	6.566874
13290.079202	3904.965167	711.803711	-140.169876
13290.079202	3904.965167	710.594727	21.179497
13290.079202	3904.965167	709.385742	49.795559
13290.079202	3904.965167	708.176758	49.152939
13290.079202	3904.965167	706.967773	-126.795715
13290.079202	3904.965167	705.758789	45.538006
13290.079202	3904.965167	704.548828	-63.007042
13290.079202	3904.965167	703.338867	82.234703
13290.079202	3904.965167	702.127930	9.594735
13290.079202	3904.965167	700.917969	-31.614248
13290.079202	3904.965167	699.707031	86.512398
13290.079202	3904.965167	698.496094	-33.286892
13290.079202	3904.965167	697.285156	69.031387
13290.079202	3904.965167	696.073242	139.876297
13290.079202	3904.965167	694.861328	208.421417
13290.079202	3904.965167	693.649414	117.730278
13290.079202	3904.965167	692.436523	132.398438
13290.079202	3904.965167	691.224609	147.034866
13290.079202	3904.965167	690.011719	40.645962
13290.079202	3904.965167	688.798828	261.327301
13290.079202	3904.965167	687.584961	105.630920
13290.079202	3904.965167	686.372070	97.758255
13290.079202	3904.965167	685.158203	94.337639
13290.079202	3904.965167	683.943359	111.033699
13290.079202	3904.965167	682.729492	159.026047
13290.079202	3904.965167	681.514648	256.189514
13290.079202	3904.965167	680.299805	236.971893
13290.079202	3904.965167	679.084961	141.701477
13290.079202	3904.965167	677.869141	86.687965
13290.079202	3904.965167	676.653320	264.151245
13290.079202	3904.965167	675.437500	202.378082
13290.079202	3904.965167	674.221680	66.869164
13290.079202	3904.965167	673.004883	177.126053
13290.079202	3904.965167	671.789063	168.937180
13290.079202	3904.965167	670.571289	154.023590
13290.079202	3904.965167	669.354492	273.046509
13290.079202	3904.965167	668.136719	-9.782768
13290.079202	3904.965167	666.919922	193.976273
13290.079202	3904.965167	665.701172	156.657272
13290.079202	3904.965167	664.483398	192.943649
13290.079202	3904.965167	663.264648	88.685776
13290.079202	3904.965167	662.045898	-44.538254
13290.079202	3904.965167	660.827148	161.117996
13290.079202	3904.965167	659.608398	154.928711
13290.079202	3904.965167	658.388672	23.930468
13290.079202	3904.965167	657.168945	80.104271
13290.079202	3904.965167	655.949219	93.911819
13290.079202	3904.965167	654.728516	156.680191
13290.079202	3904.965167	653.507813	65.776199
13290.079202	3904.965167	652.287109	72.831009
13290.079202	3904.965167	651.066406	59.831722
13290.079202	3904.965167	649.844727	2.313878
13290.079202	3904.965167	648.623047	-86.344383
13290.079202	3904.965167	647.401367	-123.831711
13290.079202	3904.965167	646.179688	-25.683418
13290.079202	3904.965167	644.957031	12.376218
13290.079202	3904.965167	643.734375	88.185387
13290.079202	3904.965167	642.511719	57.277153
13290.079202	3904.965167	641.289063	68.576172
13290.079202	3904.965167	640.065430	-86.745850
13290.079202	3904.965167	638.841797	-17.720284
13290.079202	3904.965167	637.618164	55.698658
13290.079202	3904.965167	636.393555	42.491722
13290.079202	3904.965167	635.168945	118.049004
13290.079202	3904.965167	633.944336	126.989532
13290.079202	3904.965167	632.719727	64.919174
13290.079202	3904.965167	631.494141	89.357712
13290.079202	3904.965167	630.269531	-21.494970
13290.079202	3904.965167	629.042969	178.063248
13290.079202	3904.965167	627.817383	140.352051
13290.079202	3904.965167	626.590820	84.911087
13290.079202	3904.965167	625.365234	47.206951
13290.079202	3904.965167	624.137695	-61.385010
13290.079202	3904.965167	622.911133	53.741180
13290.079202	3904.965167	621.683594	197.587997
13290.079202	3904.965167	620.456055	2.658035
13290.079202	3904.965167	619.228516	-23.992111
13290.079202	3904.965167	618.000977	73.274239
13290.079202	3904.965167	616.772461	115.177521
13290.079202	3904.965167	615.543945	35.399082
13290.079202	3904.965167	614.314453	99.382492
13290.079202	3904.965167	613.085938	247.346985
13290.079202	3904.965167	611.856445	87.982941
13290.079202	3904.965167	610.626953	12.657310
13290.079202	3904.965167	609.397461	118.535614
13290.079202	3904.965167	608.166992	29.962290
13290.079202	3904.965167	606.936523	-25.452524
13290.079202	3904.965167	605.706055	-100.723473
13290.079202	3904.965167	604.474609	-109.742455
13290.079202	3904.965167	603.244141	55.605400
13290.079202	3904.965167	602.012695	-6.414877
13290.079202	3904.965167	600.780273	-11.055224
13290.079202	3904.965167	599.548828	-185.538651
13290.079202	3904.965167	598.316406	-77.676788
13290.079202	3904.965167	597.083984	23.520931
13290.079202	3904.965167	595.851563	10.046233
13290.079202	3904.965167	594.618164	-25.466398
13290.079202	3904.965167	593.384766	-47.745628
13290.079202	3904.965167	592.151367	-144.916916
13290.079202	3904.965167	590.917969	-160.556412
13290.079202	3904.965167	589.683594	21.989450
13290.079202	3904.965167	588.449219	-0.286336
13290.079202	3904.965167	587.214844	78.697815
13290.079202	3904.965167	585.979492	-18.401617
13290.079202	3904.965167	584.745117	-163.858414
13290.079202	3904.965167	583.509766	-87.087189
13290.079202	3904.965167	582.273438	-3.750496
13290.079202	3904.965167	581.038086	4.799254
13290.079202	3904.965167	579.801758	17.743172
13290.079202	3904.965167	578.565430	-22.060513
13290.079202	3904.965167	577.329102	-57.448185
13290.079202	3904.965167	576.091797	100.505219
13290.079202	3904.965167	574.854492	93.668655
13290.079202	3904.965167	573.617188	-88.831863
13290.079202	3904.965167	572.378906	73.434601
13290.079202	3904.965167	571.141602	77.604301
13290.079202	3904.965167	569.903320	130.056198
13290.079202	3904.965167	568.664063	77.178032
13290.079202	3904.965167	567.425781	90.141144
13290.079202	3904.965167	566.186523	-8.742352
13290.079202	3904.965167	564.947266	-59.335518
13290.079202	3904.965167	563.708008	-55.092442
13290.079202	3904.965167	562.467773	100.385147
13290.079202	3904.965167	561.227539	119.950958
13290.079202	3904.965167	559.987305	32.173351
13290.079202	3904.965167	558.747070	69.293030
13290.079202	3904.965167	557.505859	69.179985
13290.079202	3904.965167	556.264648	-90.742325
13290.079202	3904.965167	555.023438	-29.504198
13290.079202	3904.965167	553.781250	33.907928
13290.079202	3904.965167	552.539063	25.105452
13290.079202	3904.965167	551.296875	42.572212
13290.079202	3904.965167	550.054688	0.998101
13290.079202	3904.965167	548.811523	88.462135
13290.079202	3904.965167	547.569336	125.627876
13290.079202	3904.965167	546.325195	-29.544321
13290.079202	3904.965167	545.082031	5.478200
13290.079202	3904.965167	543.837891	-9.746528
13290.079202	3904.965167	542.593750	-51.156597
13290.079202	3904.965167	541.349609	73.434402
13290.079202	3904.965167	540.105469	128.126450
13290.079202	3904.965167	538.860352	-37.651302
13290.079202	3904.965167	537.615234	56.360710
13290.079202	3904.965167	536.369141	71.802597
13290.079202	3904.965167	535.124023	-19.627811
13290.079202	3904.965167	533.877930	-36.848389
13290.079202	3904.965167	532.631836	13.554120
13290.079202	3904.965167	531.384766	57.414669
13290.079202	3904.965167	530.138672	-29.491959
13290.079202	3904.965167	528.891602	73.237747
13290.079202	3904.965167	527.643555	43.048916
13290.079202	3904.965167	526.396484	-61.158840
13290.079202	3904.965167	525.148438	-84.727051
13290.079202	3904.965167	523.900391	-1.579605
13290.079202	3904.965167	522.652344	40.197727
13290.079202	3904.965167	521.403320	-74.712883
13290.079202	3904.965167	520.154297	-178.671005
13290.079202	3904.965167	518.905273	-30.222878
13290.079202	3904.965167	517.656250	-103.650146
13290.079202	3904.965167	516.406250	57.810905
13290.079202	3904.965167	515.156250	-76.427948
13290.079202	3904.965167	513.906250	108.914116
13290.079202	3904.965167	512.655273	116.013390
13290.079202	3904.965167	511.404297	-9.390324
13290.079202	3904.965167	510.153320	123.759590
13290.079202	3904.965167	508.902344	-110.123322
13290.079202	3904.965167	507.650391	-87.689911
13290.079202	3904.965167	506.398438	-91.289909
13290.079202	3904.965167	505.146484	-110.055756
13290.079202	3904.965167	503.893555	-65.869255
13290.079202	3904.965167	502.641602	86.787224
13290.079202	3904.965167	501.388672	-75.075432
13290.079202	3904.965167	500.134766	-30.855320
13290.079202	3904.965167	498.881836	19.874176
13290.079202	3904.965167	497.627930	27.255329
13290.079202	3904.965167	496.374023	32.489304
13290.079202	3904.965167	495.119141	33.409084
13290.079202	3904.965167	493.865234	21.356056
13290.079202	3904.965167	492.610352	128.432983
13290.079202	3904.965167	491.355469	5.988289
13290.079202	3904.965167	490.099609	67.606384
13290.079202	3904.965167	488.843750	25.340672
13290.079202	3904.965167	487.587891	95.623283
13290.079202	3904.965167	486.332031	111.815987
13290.079202	3904.965167	485.075195	73.950386
13290.079202	3904.965167	483.818359	150.719833
13290.079202	3904.965167	482.561523	99.928383
13290.079202	3904.965167	481.304688	72.950371
13290.079202	3904.965167	480.046875	-27.470774
13290.079202	3904.965167	478.789063	86.047554
13290.079202	3904.965167	477.531250	-61.820618
13290.079202	3904.965167	476.272461	40.886818
13290.079202	3904.965167	475.013672	67.998100
13290.079202	3904.965167	473.754883	-8.499862
13290.079202	3904.965167	472.496094	-56.898041
13290.079202	3904.965167	471.236328	-79.374588
13290.079202	3904.965167	469.976563	68.582130
13290.079202	3904.965167	468.716797	-111.331192
13290.079202	3904.965167	467.456055	27.958656
13290.079202	3904.965167	466.196289	3.359543
13290.079202	3904.965167	464.935547	-53.554344
13290.079202	3904.965167	463.673828	-151.382370
13290.079202	3904.965167	462.413086	11.512177
13290.079202	3904.965167	461.151367	-8.743412
13290.079202	3904.965167	459.889648	-91.440163
13290.079202	3904.965167	458.626953	-40.619919
13290.079202	3904.965167	457.364258	165.154221
13290.079202	3904.965167	456.101563	17.903185
13290.079202	3904.965167	454.838867	-23.863848
13290.079202	3904.965167	453.575195	84.955109
13290.079202	3904.965167	452.312500	88.338158
13290.079202	3904.965167	451.047852	-17.952488
13290.079202	3904.965167	449.784180	-29.622002
13290.079202	3904.965167	448.519531	74.756142
13290.079202	3904.965167	447.254883	-10.018752
13290.079202	3904.965167	445.990234	-79.737701
13290.079202	3904.965167	444.725586	-27.019905
13290.079202	3904.965167	443.459961	6.324468
13290.079202	3904.965167	442.194336	-33.364941
13290.079202	3904.965167	440.927734	-12.965364
13290.079202	3904.965167	439.662109	106.112335
13290.079202	3904.965167	438.395508	-2.318846
13290.079202	3904.965167	437.127930	101.621475
13290.079202	3904.965167	435.861328	162.590240
13290.079202	3904.965167	434.593750	-14.506127
13290.079202	3904.965167	433.326172	12.080412
13290.079202	3904.965167	432.058594	19.322325
13290.079202	3904.965167	430.790039	32.941250
13290.079202	3904.965167	429.521484	89.349174
13290.079202	3904.965167	428.252930	235.636032
13290.079202	3904.965167	426.984375	111.995232
13290.079202	3904.965167	425.714844	29.023918
13290.079202	3904.965167	424.445313	83.013359
13290.079202	3904.965167	423.174805	70.573654
13290.079202	3904.965167	421.905273	77.329117
13290.079202	3904.965167	420.634766	75.452103
13290.079202	3904.965167	419.364258	171.874390
13290.079202	3904.965167	418.092773	289.555145
13290.079202	3904.965167	416.822266	221.131531
13290.079202	3904.965167	415.550781	188.981674
13290.079202	3904.965167	414.278320	103.336586
13290.079202	3904.965167	413.006836	186.400452
13290.079202	3904.965167	411.734375	145.454071
13290.079202	3904.965167	410.461914	253.896378
13290.079202	3904.965167	409.188477	281.059509
13290.079202	3904.965167	407.916016	34.903320
13290.079202	3904.965167	406.642578	145.102646
13290.079202	3904.965167	405.368164	148.460144
13290.079202	3904.965167	404.094727	173.027191
13290.079202	3904.965167	402.820313	146.273270
13290.079202	3904.965167	401.545898	123.663200
13290.079202	3904.965167	400.270508	7.133326
13290.079202	3904.965167	398.996094	195.270126
13290.079202	3904.965167	397.720703	-15.261291
13290.079202	3904.965167	396.444336	8.468438
13290.079202	3904.965167	395.168945	130.004669
13290.079202	3904.965167	393.892578	100.143364
13290.079202	3904.965167	392.616211	119.092094
13290.079202	3904.965167	391.339844	112.320709
13290.079202	3904.965167	390.062500	143.673035
13290.079202	3904.965167	388.785156	76.966080
13290.079202	3904.965167	387.507813	-21.804228
13290.079202	3904.965167	386.229492	149.337021
13290.079202	3904.965167	384.951172	-45.477604
13290.079202	3904.965167	383.672852	-17.226631
13290.079202	3904.965167	382.394531	223.313004
13290.079202	3904.965167	381.115234	125.701607
13290.079202	3904.965167	379.835938	21.535772
13290.079202	3904.965167	378.556641	138.052887
13290.079202	3904.965167	377.277344	48.323238
13290.079202	3904.965167	375.997070	183.401596
13290.079202	3904.965167	374.716797	-40.509254
13290.079202	3904.965167	373.435547	153.426590
13290.079202	3904.965167	372.155273	1.224944
13290.079202	3904.965167	370.874023	111.811417
13290.079202	3904.965167	369.591797	194.496216
13290.079202	3904.965167	368.310547	58.499668
13290.079202	3904.965167	367.028320	-37.467125
13290.079202	3904.965167	365.746094	124.838768
13290.079202	3904.965167	364.463867	64.304382
13290.079202	3904.965167	363.180664	45.834194
13290.079202	3904.965167	361.897461	-13.191335
13290.079202	3904.965167	360.614258	-0.537396
13290.079202	3904.965167	359.330078	79.498199
13290.079202	3904.965167	358.045898	51.213261
13290.079202	3904.965167	356.761719	5.654230
13290.079202	3904.965167	355.477539	112.058853
13290.079202	3904.965167	354.192383	-16.732136
13290.079202	3904.965167	352.907227	-59.158176
13290.079202	3904.965167	351.622070	16.427265
13290.079202	3904.965167	350.336914	152.869827
13290.079202	3904.965167	349.050781	208.529526
13290.079202	3904.965167	347.764648	-2.454314
13290.079202	3904.965167	346.477539	62.909241
13290.079202	3904.965167	345.191406	-83.361572
13290.079202	3904.965167	343.904297	59.214497
13290.079202	3904.965167	342.616211	28.164848
13290.079202	3904.965167	341.329102	-64.531181
13290.079202	3904.965167	340.041016	-123.924126
13290.079202	3904.965167	338.752930	50.364491
13290.079202	3904.965167	337.463867	-66.981552
13290.079202	3904.965167	336.175781	-64.590424
13290.079202	3904.965167	334.886719	25.798292
13290.079202	3904.965167	333.596680	-2.430243
13290.079202	3904.965167	332.307617	126.857010
13290.079202	3904.965167	331.017578	17.457178
13290.079202	3904.965167	329.727539	-18.747147
13290.079202	3904.965167	328.436523	152.935181
13290.079202	3904.965167	327.146484	-44.463032
13290.079202	3904.965167	325.855469	31.231712
13290.079202	3904.965167	324.563477	-72.616615
13290.079202	3904.965167	323.272461	29.154003
13290.079202	3904.965167	321.980469	-90.646973
13290.079202	3904.965167	320.688477	45.516464
13290.079202	3904.965167	319.395508	44.265198
13290.079202	3904.965167	318.103516	-157.344360
13290.079202	3904.965167	316.810547	-29.625454
13290.079202	3904.965167	315.516602	-26.660646
13290.079202	3904.965167	314.223633	-22.296175
13290.079202	3904.965167	312.929688	19.114012
13290.079202	3904.965167	311.635742	24.061003
13290.079202	3904.965167	310.340820	-49.456333
13290.079202	3904.965167	309.045898	-165.695648
13290.079202	3904.965167	307.750977	-26.668093
13290.079202	3904.965167	306.456055	-3.894222
13290.079202	3904.965167	305.160156	-2.951415
13290.079202	3904.965167	303.865234	7.668672
13290.079202	3904.965167	302.568359	65.601280
13290.079202	3904.965167	301.272461	82.845695
13290.079202	3904.965167	299.975586	210.244553
13290.079202	3904.965167	298.678711	227.741013
