#X		#Y		#Wave		#Intensity
3055.664628	5958.782833	1999.980469	-7.349355
3055.664628	5958.782833	1999.016602	-102.845459
3055.664628	5958.782833	1998.052734	-124.451653
3055.664628	5958.782833	1997.087891	-20.055689
3055.664628	5958.782833	1996.123047	93.828941
3055.664628	5958.782833	1995.158203	26.464937
3055.664628	5958.782833	1994.193359	-108.102089
3055.664628	5958.782833	1993.228516	-96.861008
3055.664628	5958.782833	1992.262695	196.293243
3055.664628	5958.782833	1991.297852	236.529068
3055.664628	5958.782833	1990.332031	127.951157
3055.664628	5958.782833	1989.366211	11.694976
3055.664628	5958.782833	1988.399414	90.646492
3055.664628	5958.782833	1987.433594	-90.426918
3055.664628	5958.782833	1986.466797	215.503754
3055.664628	5958.782833	1985.500977	177.374359
3055.664628	5958.782833	1984.534180	139.019974
3055.664628	5958.782833	1983.567383	16.413069
3055.664628	5958.782833	1982.599609	116.043007
3055.664628	5958.782833	1981.632813	128.947144
3055.664628	5958.782833	1980.665039	252.810211
3055.664628	5958.782833	1979.697266	45.472824
3055.664628	5958.782833	1978.729492	102.256554
3055.664628	5958.782833	1977.761719	-70.767242
3055.664628	5958.782833	1976.792969	126.380417
3055.664628	5958.782833	1975.825195	194.959366
3055.664628	5958.782833	1974.856445	110.373451
3055.664628	5958.782833	1973.887695	-272.843689
3055.664628	5958.782833	1972.918945	-175.054459
3055.664628	5958.782833	1971.949219	48.347214
3055.664628	5958.782833	1970.980469	-199.409760
3055.664628	5958.782833	1970.010742	-10.833169
3055.664628	5958.782833	1969.041016	-27.013767
3055.664628	5958.782833	1968.071289	185.898834
3055.664628	5958.782833	1967.101563	90.651321
3055.664628	5958.782833	1966.130859	148.084244
3055.664628	5958.782833	1965.161133	-99.994385
3055.664628	5958.782833	1964.190430	16.397474
3055.664628	5958.782833	1963.219727	-44.592274
3055.664628	5958.782833	1962.249023	56.842617
3055.664628	5958.782833	1961.277344	185.252365
3055.664628	5958.782833	1960.306641	141.313873
3055.664628	5958.782833	1959.334961	109.641411
3055.664628	5958.782833	1958.363281	-109.007355
3055.664628	5958.782833	1957.391602	193.764740
3055.664628	5958.782833	1956.419922	147.227707
3055.664628	5958.782833	1955.447266	68.715637
3055.664628	5958.782833	1954.474609	263.040405
3055.664628	5958.782833	1953.501953	96.015450
3055.664628	5958.782833	1952.529297	211.594757
3055.664628	5958.782833	1951.556641	-38.917324
3055.664628	5958.782833	1950.583984	-230.401138
3055.664628	5958.782833	1949.610352	142.981216
3055.664628	5958.782833	1948.636719	-1.833201
3055.664628	5958.782833	1947.663086	-227.604111
3055.664628	5958.782833	1946.689453	214.280685
3055.664628	5958.782833	1945.715820	-8.989556
3055.664628	5958.782833	1944.741211	0.897946
3055.664628	5958.782833	1943.767578	182.497009
3055.664628	5958.782833	1942.792969	207.077881
3055.664628	5958.782833	1941.818359	55.116669
3055.664628	5958.782833	1940.842773	-192.388763
3055.664628	5958.782833	1939.868164	99.461441
3055.664628	5958.782833	1938.892578	38.323879
3055.664628	5958.782833	1937.916992	-140.380615
3055.664628	5958.782833	1936.941406	134.204971
3055.664628	5958.782833	1935.965820	153.984390
3055.664628	5958.782833	1934.990234	41.543903
3055.664628	5958.782833	1934.013672	161.763519
3055.664628	5958.782833	1933.037109	17.588772
3055.664628	5958.782833	1932.060547	57.054821
3055.664628	5958.782833	1931.083984	-1.346263
3055.664628	5958.782833	1930.107422	16.146034
3055.664628	5958.782833	1929.129883	-22.600382
3055.664628	5958.782833	1928.153320	21.850489
3055.664628	5958.782833	1927.175781	-73.061287
3055.664628	5958.782833	1926.198242	-346.372528
3055.664628	5958.782833	1925.219727	-89.146255
3055.664628	5958.782833	1924.242188	-3.049641
3055.664628	5958.782833	1923.263672	-185.723785
3055.664628	5958.782833	1922.285156	210.668015
3055.664628	5958.782833	1921.306641	-40.304985
3055.664628	5958.782833	1920.328125	65.378510
3055.664628	5958.782833	1919.349609	119.779770
3055.664628	5958.782833	1918.370117	-89.445854
3055.664628	5958.782833	1917.391602	-56.940212
3055.664628	5958.782833	1916.412109	153.714066
3055.664628	5958.782833	1915.431641	-201.696411
3055.664628	5958.782833	1914.452148	-44.699612
3055.664628	5958.782833	1913.472656	-24.306536
3055.664628	5958.782833	1912.492188	98.514862
3055.664628	5958.782833	1911.511719	62.853039
3055.664628	5958.782833	1910.531250	-65.391563
3055.664628	5958.782833	1909.550781	33.075001
3055.664628	5958.782833	1908.569336	285.027771
3055.664628	5958.782833	1907.588867	42.388111
3055.664628	5958.782833	1906.607422	94.568375
3055.664628	5958.782833	1905.625977	68.823479
3055.664628	5958.782833	1904.644531	99.105278
3055.664628	5958.782833	1903.662109	88.009911
3055.664628	5958.782833	1902.680664	-78.827888
3055.664628	5958.782833	1901.698242	-116.621796
3055.664628	5958.782833	1900.715820	-147.090912
3055.664628	5958.782833	1899.733398	48.680237
3055.664628	5958.782833	1898.750000	69.283707
3055.664628	5958.782833	1897.767578	-26.822905
3055.664628	5958.782833	1896.784180	22.974728
3055.664628	5958.782833	1895.800781	-109.536903
3055.664628	5958.782833	1894.817383	-256.576355
3055.664628	5958.782833	1893.833984	89.670998
3055.664628	5958.782833	1892.850586	-54.920692
3055.664628	5958.782833	1891.866211	-104.738136
3055.664628	5958.782833	1890.881836	-101.117134
3055.664628	5958.782833	1889.897461	-85.365280
3055.664628	5958.782833	1888.913086	-93.900558
3055.664628	5958.782833	1887.927734	40.747593
3055.664628	5958.782833	1886.943359	44.301968
3055.664628	5958.782833	1885.958008	-194.767059
3055.664628	5958.782833	1884.972656	165.363724
3055.664628	5958.782833	1883.987305	-100.349754
3055.664628	5958.782833	1883.001953	-60.471161
3055.664628	5958.782833	1882.015625	-13.358323
3055.664628	5958.782833	1881.029297	208.225037
3055.664628	5958.782833	1880.042969	-127.670547
3055.664628	5958.782833	1879.056641	-56.424236
3055.664628	5958.782833	1878.070313	43.833801
3055.664628	5958.782833	1877.083984	156.129654
3055.664628	5958.782833	1876.096680	-65.825493
3055.664628	5958.782833	1875.109375	135.953720
3055.664628	5958.782833	1874.122070	-6.112137
3055.664628	5958.782833	1873.134766	-99.764648
3055.664628	5958.782833	1872.146484	142.911285
3055.664628	5958.782833	1871.159180	-204.850235
3055.664628	5958.782833	1870.170898	-102.633781
3055.664628	5958.782833	1869.182617	-15.019256
3055.664628	5958.782833	1868.194336	-89.491447
3055.664628	5958.782833	1867.205078	135.768738
3055.664628	5958.782833	1866.216797	211.032974
3055.664628	5958.782833	1865.227539	114.630188
3055.664628	5958.782833	1864.238281	445.846924
3055.664628	5958.782833	1863.249023	32.856560
3055.664628	5958.782833	1862.259766	-53.998539
3055.664628	5958.782833	1861.269531	-32.232708
3055.664628	5958.782833	1860.279297	-119.191986
3055.664628	5958.782833	1859.290039	177.605011
3055.664628	5958.782833	1858.298828	10.840319
3055.664628	5958.782833	1857.308594	259.080078
3055.664628	5958.782833	1856.318359	31.886967
3055.664628	5958.782833	1855.327148	14.536239
3055.664628	5958.782833	1854.335938	26.040709
3055.664628	5958.782833	1853.344727	-107.217216
3055.664628	5958.782833	1852.353516	24.653662
3055.664628	5958.782833	1851.362305	221.453735
3055.664628	5958.782833	1850.370117	80.714668
3055.664628	5958.782833	1849.377930	57.981976
3055.664628	5958.782833	1848.385742	162.822678
3055.664628	5958.782833	1847.393555	137.465897
3055.664628	5958.782833	1846.401367	68.667152
3055.664628	5958.782833	1845.408203	153.859024
3055.664628	5958.782833	1844.415039	-81.227875
3055.664628	5958.782833	1843.421875	18.171787
3055.664628	5958.782833	1842.428711	57.262787
3055.664628	5958.782833	1841.435547	178.012619
3055.664628	5958.782833	1840.441406	-11.682783
3055.664628	5958.782833	1839.448242	190.549850
3055.664628	5958.782833	1838.454102	-30.583403
3055.664628	5958.782833	1837.459961	212.182205
3055.664628	5958.782833	1836.464844	192.748978
3055.664628	5958.782833	1835.470703	24.210991
3055.664628	5958.782833	1834.475586	88.638618
3055.664628	5958.782833	1833.480469	133.687790
3055.664628	5958.782833	1832.485352	135.351547
3055.664628	5958.782833	1831.490234	160.882721
3055.664628	5958.782833	1830.495117	15.812466
3055.664628	5958.782833	1829.499023	300.285492
3055.664628	5958.782833	1828.502930	344.525818
3055.664628	5958.782833	1827.506836	146.264954
3055.664628	5958.782833	1826.510742	144.634689
3055.664628	5958.782833	1825.513672	104.468666
3055.664628	5958.782833	1824.517578	88.147446
3055.664628	5958.782833	1823.520508	102.835220
3055.664628	5958.782833	1822.523438	220.429932
3055.664628	5958.782833	1821.526367	7.085031
3055.664628	5958.782833	1820.529297	78.799690
3055.664628	5958.782833	1819.531250	-7.804174
3055.664628	5958.782833	1818.533203	-87.358185
3055.664628	5958.782833	1817.535156	347.832245
3055.664628	5958.782833	1816.537109	330.153076
3055.664628	5958.782833	1815.539063	218.943466
3055.664628	5958.782833	1814.540039	-38.408730
3055.664628	5958.782833	1813.541992	-99.606117
3055.664628	5958.782833	1812.542969	-172.931091
3055.664628	5958.782833	1811.543945	16.722391
3055.664628	5958.782833	1810.543945	-6.743774
3055.664628	5958.782833	1809.544922	113.095306
3055.664628	5958.782833	1808.544922	12.745006
3055.664628	5958.782833	1807.544922	-18.434879
3055.664628	5958.782833	1806.544922	-16.335409
3055.664628	5958.782833	1805.544922	348.760773
3055.664628	5958.782833	1804.544922	116.292793
3055.664628	5958.782833	1803.543945	17.464170
3055.664628	5958.782833	1802.542969	145.341827
3055.664628	5958.782833	1801.541992	115.394218
3055.664628	5958.782833	1800.541016	128.228516
3055.664628	5958.782833	1799.539063	174.262527
3055.664628	5958.782833	1798.538086	74.529007
3055.664628	5958.782833	1797.536133	-25.378588
3055.664628	5958.782833	1796.534180	139.319870
3055.664628	5958.782833	1795.532227	-13.436235
3055.664628	5958.782833	1794.529297	124.548370
3055.664628	5958.782833	1793.527344	155.006805
3055.664628	5958.782833	1792.524414	-5.446795
3055.664628	5958.782833	1791.521484	12.681725
3055.664628	5958.782833	1790.518555	309.360199
3055.664628	5958.782833	1789.514648	76.862244
3055.664628	5958.782833	1788.511719	30.027546
3055.664628	5958.782833	1787.507813	102.048538
3055.664628	5958.782833	1786.503906	30.979118
3055.664628	5958.782833	1785.500000	138.249207
3055.664628	5958.782833	1784.496094	-21.285431
3055.664628	5958.782833	1783.491211	216.379196
3055.664628	5958.782833	1782.486328	-181.457916
3055.664628	5958.782833	1781.481445	153.233856
3055.664628	5958.782833	1780.476563	230.744019
3055.664628	5958.782833	1779.471680	46.465588
3055.664628	5958.782833	1778.465820	80.723976
3055.664628	5958.782833	1777.460938	-42.102036
3055.664628	5958.782833	1776.455078	29.740288
3055.664628	5958.782833	1775.449219	65.696136
3055.664628	5958.782833	1774.442383	75.270897
3055.664628	5958.782833	1773.436523	56.135174
3055.664628	5958.782833	1772.429688	-176.935394
3055.664628	5958.782833	1771.422852	-4.180212
3055.664628	5958.782833	1770.416016	-213.862183
3055.664628	5958.782833	1769.409180	-195.867218
3055.664628	5958.782833	1768.402344	-90.314621
3055.664628	5958.782833	1767.394531	-25.370159
3055.664628	5958.782833	1766.386719	143.682098
3055.664628	5958.782833	1765.378906	-29.027990
3055.664628	5958.782833	1764.371094	-16.968231
3055.664628	5958.782833	1763.362305	-59.676182
3055.664628	5958.782833	1762.354492	-29.106112
3055.664628	5958.782833	1761.345703	-157.550110
3055.664628	5958.782833	1760.336914	-243.527115
3055.664628	5958.782833	1759.328125	-114.152199
3055.664628	5958.782833	1758.318359	-46.643486
3055.664628	5958.782833	1757.308594	-183.011353
3055.664628	5958.782833	1756.299805	-281.656921
3055.664628	5958.782833	1755.290039	-84.655838
3055.664628	5958.782833	1754.279297	-155.375610
3055.664628	5958.782833	1753.269531	-212.078888
3055.664628	5958.782833	1752.258789	-53.746815
3055.664628	5958.782833	1751.249023	-4.469284
3055.664628	5958.782833	1750.238281	-87.872711
3055.664628	5958.782833	1749.226563	-280.239471
3055.664628	5958.782833	1748.215820	-4.726433
3055.664628	5958.782833	1747.204102	-218.751236
3055.664628	5958.782833	1746.193359	89.277176
3055.664628	5958.782833	1745.181641	-203.084946
3055.664628	5958.782833	1744.168945	-176.727203
3055.664628	5958.782833	1743.157227	-112.796478
3055.664628	5958.782833	1742.144531	-13.717144
3055.664628	5958.782833	1741.132813	-54.144970
3055.664628	5958.782833	1740.120117	-54.677933
3055.664628	5958.782833	1739.106445	-189.951553
3055.664628	5958.782833	1738.093750	-136.634949
3055.664628	5958.782833	1737.080078	41.433540
3055.664628	5958.782833	1736.067383	-261.846954
3055.664628	5958.782833	1735.053711	-124.338921
3055.664628	5958.782833	1734.040039	126.056236
3055.664628	5958.782833	1733.025391	112.141479
3055.664628	5958.782833	1732.011719	-64.552460
3055.664628	5958.782833	1730.997070	13.033296
3055.664628	5958.782833	1729.982422	111.578369
3055.664628	5958.782833	1728.967773	-68.029404
3055.664628	5958.782833	1727.952148	-68.848213
3055.664628	5958.782833	1726.937500	-95.745651
3055.664628	5958.782833	1725.921875	136.048279
3055.664628	5958.782833	1724.906250	-187.835495
3055.664628	5958.782833	1723.890625	158.766418
3055.664628	5958.782833	1722.875000	116.882645
3055.664628	5958.782833	1721.858398	98.305611
3055.664628	5958.782833	1720.841797	-47.448135
3055.664628	5958.782833	1719.825195	168.717529
3055.664628	5958.782833	1718.808594	-160.741882
3055.664628	5958.782833	1717.791992	195.975845
3055.664628	5958.782833	1716.774414	101.187775
3055.664628	5958.782833	1715.756836	46.178093
3055.664628	5958.782833	1714.739258	225.877045
3055.664628	5958.782833	1713.721680	104.723671
3055.664628	5958.782833	1712.704102	6.904130
3055.664628	5958.782833	1711.685547	-23.017221
3055.664628	5958.782833	1710.667969	50.180283
3055.664628	5958.782833	1709.649414	-3.579477
3055.664628	5958.782833	1708.630859	31.649256
3055.664628	5958.782833	1707.611328	47.887310
3055.664628	5958.782833	1706.592773	146.048203
3055.664628	5958.782833	1705.573242	-30.376091
3055.664628	5958.782833	1704.553711	168.180115
3055.664628	5958.782833	1703.534180	94.594574
3055.664628	5958.782833	1702.513672	77.074959
3055.664628	5958.782833	1701.494141	410.863647
3055.664628	5958.782833	1700.473633	521.782227
3055.664628	5958.782833	1699.453125	133.627701
3055.664628	5958.782833	1698.432617	344.907898
3055.664628	5958.782833	1697.412109	448.247772
3055.664628	5958.782833	1696.390625	310.257568
3055.664628	5958.782833	1695.369141	69.186150
3055.664628	5958.782833	1694.347656	455.119537
3055.664628	5958.782833	1693.326172	244.204300
3055.664628	5958.782833	1692.304688	150.161209
3055.664628	5958.782833	1691.282227	294.490540
3055.664628	5958.782833	1690.260742	466.699768
3055.664628	5958.782833	1689.238281	411.914276
3055.664628	5958.782833	1688.214844	193.372086
3055.664628	5958.782833	1687.192383	409.419464
3055.664628	5958.782833	1686.168945	412.610687
3055.664628	5958.782833	1685.146484	168.097229
3055.664628	5958.782833	1684.123047	278.473969
3055.664628	5958.782833	1683.099609	456.382263
3055.664628	5958.782833	1682.075195	524.335144
3055.664628	5958.782833	1681.051758	643.506531
3055.664628	5958.782833	1680.027344	209.420120
3055.664628	5958.782833	1679.002930	461.295990
3055.664628	5958.782833	1677.978516	367.720398
3055.664628	5958.782833	1676.953125	336.989105
3055.664628	5958.782833	1675.928711	282.861267
3055.664628	5958.782833	1674.903320	128.355637
3055.664628	5958.782833	1673.877930	127.626480
3055.664628	5958.782833	1672.852539	194.361740
3055.664628	5958.782833	1671.826172	568.475891
3055.664628	5958.782833	1670.800781	599.932190
3055.664628	5958.782833	1669.774414	577.664673
3055.664628	5958.782833	1668.748047	532.013611
3055.664628	5958.782833	1667.721680	563.104492
3055.664628	5958.782833	1666.694336	428.779266
3055.664628	5958.782833	1665.667969	534.146606
3055.664628	5958.782833	1664.640625	674.243286
3055.664628	5958.782833	1663.613281	865.370972
3055.664628	5958.782833	1662.585938	930.733398
3055.664628	5958.782833	1661.557617	935.484619
3055.664628	5958.782833	1660.530273	1244.753784
3055.664628	5958.782833	1659.501953	977.297485
3055.664628	5958.782833	1658.473633	1158.412231
3055.664628	5958.782833	1657.444336	1367.226318
3055.664628	5958.782833	1656.416016	1311.070679
3055.664628	5958.782833	1655.386719	994.679993
3055.664628	5958.782833	1654.358398	1212.500732
3055.664628	5958.782833	1653.328125	1307.041382
3055.664628	5958.782833	1652.298828	1401.511475
3055.664628	5958.782833	1651.269531	1681.557007
3055.664628	5958.782833	1650.239258	1826.806030
3055.664628	5958.782833	1649.208984	1804.897339
3055.664628	5958.782833	1648.178711	1611.286621
3055.664628	5958.782833	1647.148438	1584.677856
3055.664628	5958.782833	1646.117188	1877.972290
3055.664628	5958.782833	1645.086914	1906.857666
3055.664628	5958.782833	1644.055664	1979.688599
3055.664628	5958.782833	1643.024414	2047.811523
3055.664628	5958.782833	1641.992188	2044.008301
3055.664628	5958.782833	1640.960938	2355.240234
3055.664628	5958.782833	1639.928711	2791.346680
3055.664628	5958.782833	1638.896484	2525.634277
3055.664628	5958.782833	1637.864258	3010.090576
3055.664628	5958.782833	1636.832031	3260.550049
3055.664628	5958.782833	1635.798828	3344.226563
3055.664628	5958.782833	1634.766602	3527.376465
3055.664628	5958.782833	1633.733398	3291.688232
3055.664628	5958.782833	1632.699219	3842.416504
3055.664628	5958.782833	1631.666016	4041.462402
3055.664628	5958.782833	1630.632813	3969.918213
3055.664628	5958.782833	1629.598633	4245.083984
3055.664628	5958.782833	1628.564453	4323.696777
3055.664628	5958.782833	1627.530273	4369.927246
3055.664628	5958.782833	1626.495117	4727.975586
3055.664628	5958.782833	1625.460938	4654.003906
3055.664628	5958.782833	1624.425781	4670.091797
3055.664628	5958.782833	1623.390625	4388.339844
3055.664628	5958.782833	1622.355469	4762.289063
3055.664628	5958.782833	1621.319336	4568.317871
3055.664628	5958.782833	1620.284180	4674.446289
3055.664628	5958.782833	1619.248047	5052.745605
3055.664628	5958.782833	1618.211914	5271.763184
3055.664628	5958.782833	1617.174805	5186.275879
3055.664628	5958.782833	1616.138672	5587.381348
3055.664628	5958.782833	1615.101563	5448.901367
3055.664628	5958.782833	1614.065430	5739.229980
3055.664628	5958.782833	1613.027344	6022.499023
3055.664628	5958.782833	1611.990234	6577.587891
3055.664628	5958.782833	1610.953125	6330.902832
3055.664628	5958.782833	1609.915039	6464.314453
3055.664628	5958.782833	1608.876953	6715.150391
3055.664628	5958.782833	1607.838867	6636.735840
3055.664628	5958.782833	1606.800781	6339.747559
3055.664628	5958.782833	1605.761719	6160.253418
3055.664628	5958.782833	1604.723633	5824.468750
3055.664628	5958.782833	1603.684570	5803.980957
3055.664628	5958.782833	1602.644531	6179.105469
3055.664628	5958.782833	1601.605469	5813.771484
3055.664628	5958.782833	1600.566406	5549.801758
3055.664628	5958.782833	1599.526367	5173.344727
3055.664628	5958.782833	1598.486328	4925.798340
3055.664628	5958.782833	1597.446289	5121.862305
3055.664628	5958.782833	1596.405273	5049.125000
3055.664628	5958.782833	1595.365234	4923.707031
3055.664628	5958.782833	1594.324219	4791.497070
3055.664628	5958.782833	1593.283203	4670.905762
3055.664628	5958.782833	1592.242188	4823.598633
3055.664628	5958.782833	1591.200195	4554.023438
3055.664628	5958.782833	1590.159180	4954.666992
3055.664628	5958.782833	1589.117188	5034.055176
3055.664628	5958.782833	1588.075195	4819.933594
3055.664628	5958.782833	1587.032227	4812.345215
3055.664628	5958.782833	1585.990234	4960.797852
3055.664628	5958.782833	1584.947266	4962.567383
3055.664628	5958.782833	1583.904297	5136.326660
3055.664628	5958.782833	1582.861328	5468.232910
3055.664628	5958.782833	1581.818359	5309.874512
3055.664628	5958.782833	1580.775391	5268.507813
3055.664628	5958.782833	1579.731445	5637.152344
3055.664628	5958.782833	1578.687500	5465.444336
3055.664628	5958.782833	1577.643555	5493.077637
3055.664628	5958.782833	1576.598633	5859.517090
3055.664628	5958.782833	1575.554688	5784.351563
3055.664628	5958.782833	1574.509766	5764.224121
3055.664628	5958.782833	1573.464844	6199.410645
3055.664628	5958.782833	1572.419922	6570.530762
3055.664628	5958.782833	1571.374023	6349.438477
3055.664628	5958.782833	1570.329102	6448.637695
3055.664628	5958.782833	1569.283203	5974.252930
3055.664628	5958.782833	1568.237305	5872.663086
3055.664628	5958.782833	1567.191406	5654.749023
3055.664628	5958.782833	1566.144531	5158.375488
3055.664628	5958.782833	1565.098633	4808.537109
3055.664628	5958.782833	1564.051758	4680.439453
3055.664628	5958.782833	1563.004883	4180.453125
3055.664628	5958.782833	1561.957031	4014.021484
3055.664628	5958.782833	1560.910156	3786.236816
3055.664628	5958.782833	1559.862305	3672.751709
3055.664628	5958.782833	1558.814453	3559.480469
3055.664628	5958.782833	1557.766602	3503.437256
3055.664628	5958.782833	1556.718750	3272.020264
3055.664628	5958.782833	1555.669922	3366.836670
3055.664628	5958.782833	1554.621094	3252.104492
3055.664628	5958.782833	1553.573242	3399.683350
3055.664628	5958.782833	1552.523438	2934.459229
3055.664628	5958.782833	1551.474609	3073.271240
3055.664628	5958.782833	1550.424805	3326.058594
3055.664628	5958.782833	1549.375000	3103.046387
3055.664628	5958.782833	1548.325195	2989.583984
3055.664628	5958.782833	1547.275391	2648.751709
3055.664628	5958.782833	1546.225586	2483.473389
3055.664628	5958.782833	1545.174805	2664.261719
3055.664628	5958.782833	1544.124023	2647.274170
3055.664628	5958.782833	1543.073242	2678.254883
3055.664628	5958.782833	1542.022461	2586.639648
3055.664628	5958.782833	1540.970703	2654.376953
3055.664628	5958.782833	1539.919922	2349.559326
3055.664628	5958.782833	1538.868164	2263.204102
3055.664628	5958.782833	1537.815430	2204.335205
3055.664628	5958.782833	1536.763672	2241.135254
3055.664628	5958.782833	1535.710938	2112.318115
3055.664628	5958.782833	1534.659180	2251.735352
3055.664628	5958.782833	1533.606445	2182.430176
3055.664628	5958.782833	1532.552734	2256.348145
3055.664628	5958.782833	1531.500000	2337.292480
3055.664628	5958.782833	1530.446289	2066.721680
3055.664628	5958.782833	1529.393555	2175.344482
3055.664628	5958.782833	1528.338867	2120.807617
3055.664628	5958.782833	1527.285156	2213.940430
3055.664628	5958.782833	1526.231445	2162.169922
3055.664628	5958.782833	1525.176758	2090.231934
3055.664628	5958.782833	1524.122070	2079.746094
3055.664628	5958.782833	1523.067383	1983.403320
3055.664628	5958.782833	1522.012695	2199.953369
3055.664628	5958.782833	1520.957031	2149.380127
3055.664628	5958.782833	1519.901367	1775.253662
3055.664628	5958.782833	1518.845703	1582.640137
3055.664628	5958.782833	1517.790039	1691.400024
3055.664628	5958.782833	1516.734375	1648.736084
3055.664628	5958.782833	1515.677734	1807.692017
3055.664628	5958.782833	1514.621094	1530.231201
3055.664628	5958.782833	1513.564453	1196.589233
3055.664628	5958.782833	1512.507813	1464.839722
3055.664628	5958.782833	1511.450195	1249.396606
3055.664628	5958.782833	1510.393555	1271.654785
3055.664628	5958.782833	1509.335938	1393.583740
3055.664628	5958.782833	1508.278320	1011.851868
3055.664628	5958.782833	1507.219727	915.155334
3055.664628	5958.782833	1506.162109	814.260254
3055.664628	5958.782833	1505.103516	514.930603
3055.664628	5958.782833	1504.044922	572.705139
3055.664628	5958.782833	1502.986328	436.598633
3055.664628	5958.782833	1501.926758	558.073853
3055.664628	5958.782833	1500.868164	287.175476
3055.664628	5958.782833	1499.808594	643.787170
3055.664628	5958.782833	1498.749023	156.977524
3055.664628	5958.782833	1497.688477	60.737591
3055.664628	5958.782833	1496.628906	160.975159
3055.664628	5958.782833	1495.568359	211.841446
3055.664628	5958.782833	1494.507813	-18.750338
3055.664628	5958.782833	1493.447266	-70.965347
3055.664628	5958.782833	1492.386719	-316.623047
3055.664628	5958.782833	1491.325195	-64.148933
3055.664628	5958.782833	1490.263672	114.191292
3055.664628	5958.782833	1489.202148	-6.701196
3055.664628	5958.782833	1488.140625	-167.782684
3055.664628	5958.782833	1487.079102	6.816720
3055.664628	5958.782833	1486.016602	-142.399567
3055.664628	5958.782833	1484.954102	208.152893
3055.664628	5958.782833	1483.891602	572.347778
3055.664628	5958.782833	1482.829102	441.959229
3055.664628	5958.782833	1481.765625	345.630249
3055.664628	5958.782833	1480.702148	326.071106
3055.664628	5958.782833	1479.638672	115.817459
3055.664628	5958.782833	1478.575195	-60.325424
3055.664628	5958.782833	1477.511719	374.861694
3055.664628	5958.782833	1476.447266	527.228271
3055.664628	5958.782833	1475.382813	131.963425
3055.664628	5958.782833	1474.318359	406.206329
3055.664628	5958.782833	1473.253906	534.740540
3055.664628	5958.782833	1472.189453	746.484497
3055.664628	5958.782833	1471.124023	662.243835
3055.664628	5958.782833	1470.058594	1186.069580
3055.664628	5958.782833	1468.993164	1023.848816
3055.664628	5958.782833	1467.927734	1178.394287
3055.664628	5958.782833	1466.861328	1288.182739
3055.664628	5958.782833	1465.794922	1489.849731
3055.664628	5958.782833	1464.728516	1336.051758
3055.664628	5958.782833	1463.662109	1669.929810
3055.664628	5958.782833	1462.594727	1789.379395
3055.664628	5958.782833	1461.528320	1462.096313
3055.664628	5958.782833	1460.460938	1758.893433
3055.664628	5958.782833	1459.393555	1188.305054
3055.664628	5958.782833	1458.326172	1450.446411
3055.664628	5958.782833	1457.257813	1456.474365
3055.664628	5958.782833	1456.189453	888.258057
3055.664628	5958.782833	1455.121094	1085.061279
3055.664628	5958.782833	1454.052734	1022.534241
3055.664628	5958.782833	1452.984375	1106.389893
3055.664628	5958.782833	1451.915039	963.382019
3055.664628	5958.782833	1450.845703	1130.313721
3055.664628	5958.782833	1449.776367	1043.915527
3055.664628	5958.782833	1448.707031	1074.757568
3055.664628	5958.782833	1447.636719	1384.451904
3055.664628	5958.782833	1446.567383	1674.217407
3055.664628	5958.782833	1445.497070	1409.069824
3055.664628	5958.782833	1444.425781	1601.257690
3055.664628	5958.782833	1443.355469	1757.375122
3055.664628	5958.782833	1442.285156	2216.370605
3055.664628	5958.782833	1441.213867	1711.225098
3055.664628	5958.782833	1440.142578	2009.519897
3055.664628	5958.782833	1439.070313	1965.879150
3055.664628	5958.782833	1437.999023	2161.794189
3055.664628	5958.782833	1436.926758	1891.929810
3055.664628	5958.782833	1435.854492	1884.637695
3055.664628	5958.782833	1434.782227	1851.999268
3055.664628	5958.782833	1433.709961	1759.014282
3055.664628	5958.782833	1432.636719	1950.858765
3055.664628	5958.782833	1431.563477	1618.242920
3055.664628	5958.782833	1430.490234	1936.336060
3055.664628	5958.782833	1429.416992	1392.287964
3055.664628	5958.782833	1428.343750	1340.717163
3055.664628	5958.782833	1427.269531	1558.439941
3055.664628	5958.782833	1426.195313	1190.109985
3055.664628	5958.782833	1425.121094	1388.884888
3055.664628	5958.782833	1424.046875	1363.412598
3055.664628	5958.782833	1422.971680	1234.254028
3055.664628	5958.782833	1421.896484	1509.403931
3055.664628	5958.782833	1420.821289	1443.890869
3055.664628	5958.782833	1419.746094	1474.124146
3055.664628	5958.782833	1418.669922	1276.533081
3055.664628	5958.782833	1417.594727	1203.272583
3055.664628	5958.782833	1416.518555	1412.505005
3055.664628	5958.782833	1415.442383	1418.467407
3055.664628	5958.782833	1414.365234	1297.115479
3055.664628	5958.782833	1413.289063	1372.714966
3055.664628	5958.782833	1412.211914	1403.006714
3055.664628	5958.782833	1411.134766	1530.630859
3055.664628	5958.782833	1410.057617	1485.892944
3055.664628	5958.782833	1408.979492	1752.566284
3055.664628	5958.782833	1407.902344	2140.458984
3055.664628	5958.782833	1406.824219	2447.720703
3055.664628	5958.782833	1405.746094	2510.565918
3055.664628	5958.782833	1404.666992	2454.292725
3055.664628	5958.782833	1403.588867	2714.776855
3055.664628	5958.782833	1402.509766	2531.857910
3055.664628	5958.782833	1401.430664	2790.305664
3055.664628	5958.782833	1400.351563	2882.506104
3055.664628	5958.782833	1399.271484	2764.882813
3055.664628	5958.782833	1398.192383	2830.627930
3055.664628	5958.782833	1397.112305	2503.920654
3055.664628	5958.782833	1396.031250	2434.768555
3055.664628	5958.782833	1394.951172	2735.535400
3055.664628	5958.782833	1393.871094	2804.047852
3055.664628	5958.782833	1392.790039	2629.512939
3055.664628	5958.782833	1391.708984	2417.895264
3055.664628	5958.782833	1390.626953	2236.212891
3055.664628	5958.782833	1389.545898	2241.208252
3055.664628	5958.782833	1388.463867	2543.079590
3055.664628	5958.782833	1387.381836	2625.348145
3055.664628	5958.782833	1386.299805	2662.775879
3055.664628	5958.782833	1385.217773	2554.502197
3055.664628	5958.782833	1384.134766	2783.930908
3055.664628	5958.782833	1383.051758	2955.688965
3055.664628	5958.782833	1381.968750	2954.972168
3055.664628	5958.782833	1380.885742	2621.810303
3055.664628	5958.782833	1379.802734	2559.211914
3055.664628	5958.782833	1378.718750	2610.948486
3055.664628	5958.782833	1377.634766	2329.595703
3055.664628	5958.782833	1376.550781	2266.965820
3055.664628	5958.782833	1375.465820	2383.707031
3055.664628	5958.782833	1374.381836	1935.421753
3055.664628	5958.782833	1373.296875	2076.459717
3055.664628	5958.782833	1372.211914	2253.135010
3055.664628	5958.782833	1371.126953	2276.037842
3055.664628	5958.782833	1370.041016	2095.617432
3055.664628	5958.782833	1368.955078	2009.289063
3055.664628	5958.782833	1367.869141	2298.660156
3055.664628	5958.782833	1366.783203	2246.026123
3055.664628	5958.782833	1365.697266	2091.734863
3055.664628	5958.782833	1364.610352	1912.021851
3055.664628	5958.782833	1363.523438	1777.814575
3055.664628	5958.782833	1362.436523	1497.386719
3055.664628	5958.782833	1361.349609	1029.754150
3055.664628	5958.782833	1360.261719	1136.690186
3055.664628	5958.782833	1359.174805	782.566895
3055.664628	5958.782833	1358.086914	1107.034546
3055.664628	5958.782833	1356.998047	911.045044
3055.664628	5958.782833	1355.910156	920.043335
3055.664628	5958.782833	1354.821289	1019.253113
3055.664628	5958.782833	1353.732422	766.375305
3055.664628	5958.782833	1352.643555	777.941284
3055.664628	5958.782833	1351.554688	650.949219
3055.664628	5958.782833	1350.464844	732.277649
3055.664628	5958.782833	1349.375000	1046.159912
3055.664628	5958.782833	1348.285156	1051.031616
3055.664628	5958.782833	1347.195313	1104.355591
3055.664628	5958.782833	1346.105469	1175.661377
3055.664628	5958.782833	1345.014648	1165.357544
3055.664628	5958.782833	1343.923828	1067.947876
3055.664628	5958.782833	1342.833008	1185.764648
3055.664628	5958.782833	1341.741211	1167.406250
3055.664628	5958.782833	1340.650391	1249.328003
3055.664628	5958.782833	1339.558594	1361.760498
3055.664628	5958.782833	1338.466797	1123.165771
3055.664628	5958.782833	1337.374023	1117.549316
3055.664628	5958.782833	1336.282227	936.597107
3055.664628	5958.782833	1335.189453	1045.682007
3055.664628	5958.782833	1334.096680	1035.413574
3055.664628	5958.782833	1333.003906	1087.219482
3055.664628	5958.782833	1331.910156	709.498535
3055.664628	5958.782833	1330.817383	657.751587
3055.664628	5958.782833	1329.723633	804.901917
3055.664628	5958.782833	1328.629883	1156.126343
3055.664628	5958.782833	1327.535156	1225.207520
3055.664628	5958.782833	1326.441406	1041.939575
3055.664628	5958.782833	1325.346680	1142.807617
3055.664628	5958.782833	1324.251953	1337.167725
3055.664628	5958.782833	1323.156250	1545.603516
3055.664628	5958.782833	1322.061523	1686.392578
3055.664628	5958.782833	1320.965820	1392.593262
3055.664628	5958.782833	1319.870117	1528.834473
3055.664628	5958.782833	1318.774414	1651.248779
3055.664628	5958.782833	1317.678711	1419.541138
3055.664628	5958.782833	1316.582031	1541.063721
3055.664628	5958.782833	1315.485352	1576.413330
3055.664628	5958.782833	1314.388672	1784.941650
3055.664628	5958.782833	1313.291016	2201.227539
3055.664628	5958.782833	1312.194336	2275.016846
3055.664628	5958.782833	1311.096680	2412.526367
3055.664628	5958.782833	1309.999023	2541.688477
3055.664628	5958.782833	1308.901367	2513.462158
3055.664628	5958.782833	1307.802734	2680.911133
3055.664628	5958.782833	1306.705078	2476.098633
3055.664628	5958.782833	1305.606445	1989.636841
3055.664628	5958.782833	1304.506836	1885.338745
3055.664628	5958.782833	1303.408203	1574.291870
3055.664628	5958.782833	1302.308594	1446.904419
3055.664628	5958.782833	1301.208984	1497.314819
3055.664628	5958.782833	1300.109375	1475.815674
3055.664628	5958.782833	1299.009766	1318.879517
3055.664628	5958.782833	1297.909180	1436.946289
3055.664628	5958.782833	1296.808594	1510.743774
3055.664628	5958.782833	1295.708008	1447.404419
3055.664628	5958.782833	1294.607422	1753.611572
3055.664628	5958.782833	1293.506836	1364.119019
3055.664628	5958.782833	1292.405273	1283.205200
3055.664628	5958.782833	1291.303711	1385.069702
3055.664628	5958.782833	1290.202148	1359.696777
3055.664628	5958.782833	1289.099609	1294.048706
3055.664628	5958.782833	1287.998047	1406.919067
3055.664628	5958.782833	1286.895508	1500.648682
3055.664628	5958.782833	1285.792969	1266.989624
3055.664628	5958.782833	1284.689453	1190.080322
3055.664628	5958.782833	1283.586914	1207.799683
3055.664628	5958.782833	1282.483398	1142.813354
3055.664628	5958.782833	1281.379883	921.152466
3055.664628	5958.782833	1280.276367	962.047119
3055.664628	5958.782833	1279.171875	1236.269043
3055.664628	5958.782833	1278.067383	1305.569702
3055.664628	5958.782833	1276.962891	1180.394165
3055.664628	5958.782833	1275.858398	1225.101563
3055.664628	5958.782833	1274.753906	1210.011963
3055.664628	5958.782833	1273.648438	1484.469604
3055.664628	5958.782833	1272.542969	1187.405273
3055.664628	5958.782833	1271.437500	1282.246704
3055.664628	5958.782833	1270.331055	1383.959106
3055.664628	5958.782833	1269.225586	1332.952881
3055.664628	5958.782833	1268.119141	1108.645508
3055.664628	5958.782833	1267.012695	1033.406982
3055.664628	5958.782833	1265.906250	1000.250977
3055.664628	5958.782833	1264.798828	921.623535
3055.664628	5958.782833	1263.691406	907.716858
3055.664628	5958.782833	1262.583984	674.673340
3055.664628	5958.782833	1261.476563	1010.115784
3055.664628	5958.782833	1260.368164	983.234802
3055.664628	5958.782833	1259.260742	985.074646
3055.664628	5958.782833	1258.152344	1192.979370
3055.664628	5958.782833	1257.043945	1220.219116
3055.664628	5958.782833	1255.934570	1215.123169
3055.664628	5958.782833	1254.825195	1249.758545
3055.664628	5958.782833	1253.716797	1238.834473
3055.664628	5958.782833	1252.606445	1134.777100
3055.664628	5958.782833	1251.497070	1046.902222
3055.664628	5958.782833	1250.387695	643.332275
3055.664628	5958.782833	1249.277344	686.312805
3055.664628	5958.782833	1248.166992	620.861694
3055.664628	5958.782833	1247.055664	585.496094
3055.664628	5958.782833	1245.945313	425.564331
3055.664628	5958.782833	1244.833984	217.698364
3055.664628	5958.782833	1243.722656	427.117249
3055.664628	5958.782833	1242.611328	369.391235
3055.664628	5958.782833	1241.499023	316.367523
3055.664628	5958.782833	1240.387695	66.021446
3055.664628	5958.782833	1239.275391	304.971344
3055.664628	5958.782833	1238.162109	64.338287
3055.664628	5958.782833	1237.049805	323.892487
3055.664628	5958.782833	1235.936523	207.182007
3055.664628	5958.782833	1234.823242	324.902557
3055.664628	5958.782833	1233.709961	243.776718
3055.664628	5958.782833	1232.596680	403.646362
3055.664628	5958.782833	1231.482422	-22.633459
3055.664628	5958.782833	1230.369141	5.496644
3055.664628	5958.782833	1229.253906	206.172272
3055.664628	5958.782833	1228.139648	47.246174
3055.664628	5958.782833	1227.025391	136.261002
3055.664628	5958.782833	1225.910156	-25.492620
3055.664628	5958.782833	1224.794922	251.218231
3055.664628	5958.782833	1223.679688	-0.789962
3055.664628	5958.782833	1222.563477	126.468735
3055.664628	5958.782833	1221.447266	56.018322
3055.664628	5958.782833	1220.331055	264.669464
3055.664628	5958.782833	1219.214844	86.535561
3055.664628	5958.782833	1218.098633	124.310127
3055.664628	5958.782833	1216.981445	219.934097
3055.664628	5958.782833	1215.864258	298.017578
3055.664628	5958.782833	1214.747070	210.349823
3055.664628	5958.782833	1213.629883	225.085297
3055.664628	5958.782833	1212.511719	156.910950
3055.664628	5958.782833	1211.393555	231.864792
3055.664628	5958.782833	1210.275391	291.290833
3055.664628	5958.782833	1209.157227	413.859192
3055.664628	5958.782833	1208.038086	565.844604
3055.664628	5958.782833	1206.918945	547.775513
3055.664628	5958.782833	1205.799805	295.253784
3055.664628	5958.782833	1204.680664	488.842194
3055.664628	5958.782833	1203.560547	556.010620
3055.664628	5958.782833	1202.441406	421.470581
3055.664628	5958.782833	1201.321289	448.569733
3055.664628	5958.782833	1200.200195	751.161804
3055.664628	5958.782833	1199.080078	751.091370
3055.664628	5958.782833	1197.958984	490.575012
3055.664628	5958.782833	1196.837891	598.885864
3055.664628	5958.782833	1195.716797	580.000854
3055.664628	5958.782833	1194.594727	450.022430
3055.664628	5958.782833	1193.473633	386.963745
3055.664628	5958.782833	1192.351563	304.663971
3055.664628	5958.782833	1191.229492	289.351624
3055.664628	5958.782833	1190.106445	154.119171
3055.664628	5958.782833	1188.984375	74.232300
3055.664628	5958.782833	1187.861328	-131.726166
3055.664628	5958.782833	1186.738281	-109.548866
3055.664628	5958.782833	1185.614258	-287.168945
3055.664628	5958.782833	1184.491211	-214.314224
3055.664628	5958.782833	1183.367188	-63.923893
3055.664628	5958.782833	1182.243164	-161.469910
3055.664628	5958.782833	1181.119141	-192.910675
3055.664628	5958.782833	1179.994141	-76.613213
3055.664628	5958.782833	1178.869141	-35.379330
3055.664628	5958.782833	1177.744141	-283.763062
3055.664628	5958.782833	1176.619141	-211.564560
3055.664628	5958.782833	1175.493164	-172.815125
3055.664628	5958.782833	1174.368164	-12.653275
3055.664628	5958.782833	1173.242188	27.465025
3055.664628	5958.782833	1172.115234	103.192589
3055.664628	5958.782833	1170.989258	157.061401
3055.664628	5958.782833	1169.862305	32.374775
3055.664628	5958.782833	1168.735352	151.763412
3055.664628	5958.782833	1167.608398	229.651947
3055.664628	5958.782833	1166.481445	189.086060
3055.664628	5958.782833	1165.353516	231.430328
3055.664628	5958.782833	1164.225586	126.608772
3055.664628	5958.782833	1163.097656	89.721886
3055.664628	5958.782833	1161.968750	10.258954
3055.664628	5958.782833	1160.840820	139.732193
3055.664628	5958.782833	1159.711914	199.826324
3055.664628	5958.782833	1158.583008	-61.205952
3055.664628	5958.782833	1157.453125	119.436867
3055.664628	5958.782833	1156.324219	33.088135
3055.664628	5958.782833	1155.194336	6.185760
3055.664628	5958.782833	1154.064453	154.969254
3055.664628	5958.782833	1152.933594	-114.174301
3055.664628	5958.782833	1151.803711	-46.766155
3055.664628	5958.782833	1150.672852	-40.818336
3055.664628	5958.782833	1149.541992	-175.243225
3055.664628	5958.782833	1148.411133	-70.465538
3055.664628	5958.782833	1147.279297	-12.518494
3055.664628	5958.782833	1146.147461	-120.859055
3055.664628	5958.782833	1145.015625	-31.593525
3055.664628	5958.782833	1143.883789	70.456985
3055.664628	5958.782833	1142.750977	-132.862198
3055.664628	5958.782833	1141.619141	-113.492241
3055.664628	5958.782833	1140.486328	202.678146
3055.664628	5958.782833	1139.352539	248.356903
3055.664628	5958.782833	1138.219727	251.209030
3055.664628	5958.782833	1137.085938	96.552238
3055.664628	5958.782833	1135.952148	318.245148
3055.664628	5958.782833	1134.818359	389.955048
3055.664628	5958.782833	1133.683594	607.341003
3055.664628	5958.782833	1132.549805	695.996887
3055.664628	5958.782833	1131.415039	946.286316
3055.664628	5958.782833	1130.279297	1321.882202
3055.664628	5958.782833	1129.144531	1416.748413
3055.664628	5958.782833	1128.008789	1468.025024
3055.664628	5958.782833	1126.873047	1350.245728
3055.664628	5958.782833	1125.737305	1300.886475
3055.664628	5958.782833	1124.601563	1402.684937
3055.664628	5958.782833	1123.464844	1247.815063
3055.664628	5958.782833	1122.328125	1105.939697
3055.664628	5958.782833	1121.191406	999.765381
3055.664628	5958.782833	1120.054688	1070.381592
3055.664628	5958.782833	1118.916992	1026.229126
3055.664628	5958.782833	1117.779297	764.829041
3055.664628	5958.782833	1116.641602	908.093018
3055.664628	5958.782833	1115.503906	809.547913
3055.664628	5958.782833	1114.365234	606.443054
3055.664628	5958.782833	1113.226563	756.776245
3055.664628	5958.782833	1112.087891	623.314819
3055.664628	5958.782833	1110.949219	565.845581
3055.664628	5958.782833	1109.809570	644.287231
3055.664628	5958.782833	1108.669922	820.452698
3055.664628	5958.782833	1107.530273	684.507690
3055.664628	5958.782833	1106.390625	784.524353
3055.664628	5958.782833	1105.250000	654.622009
3055.664628	5958.782833	1104.109375	888.038086
3055.664628	5958.782833	1102.968750	650.256714
3055.664628	5958.782833	1101.828125	939.178101
3055.664628	5958.782833	1100.686523	763.946777
3055.664628	5958.782833	1099.544922	901.130554
3055.664628	5958.782833	1098.403320	1146.858276
3055.664628	5958.782833	1097.261719	1119.989258
3055.664628	5958.782833	1096.120117	1011.874878
3055.664628	5958.782833	1094.977539	933.668884
3055.664628	5958.782833	1093.834961	1010.037598
3055.664628	5958.782833	1092.691406	813.325806
3055.664628	5958.782833	1091.548828	965.206909
3055.664628	5958.782833	1090.405273	890.516968
3055.664628	5958.782833	1089.261719	869.585083
3055.664628	5958.782833	1088.118164	885.612305
3055.664628	5958.782833	1086.973633	994.144226
3055.664628	5958.782833	1085.829102	1041.506348
3055.664628	5958.782833	1084.684570	933.927124
3055.664628	5958.782833	1083.540039	855.270020
3055.664628	5958.782833	1082.395508	961.062500
3055.664628	5958.782833	1081.250000	977.411987
3055.664628	5958.782833	1080.104492	777.015808
3055.664628	5958.782833	1078.958984	824.863281
3055.664628	5958.782833	1077.812500	722.487366
3055.664628	5958.782833	1076.666016	856.440247
3055.664628	5958.782833	1075.519531	1246.334351
3055.664628	5958.782833	1074.373047	1337.466919
3055.664628	5958.782833	1073.226563	1526.661255
3055.664628	5958.782833	1072.079102	1398.588501
3055.664628	5958.782833	1070.931641	1132.011475
3055.664628	5958.782833	1069.784180	1129.349365
3055.664628	5958.782833	1068.635742	1212.350098
3055.664628	5958.782833	1067.487305	1235.594238
3055.664628	5958.782833	1066.338867	1090.213013
3055.664628	5958.782833	1065.190430	1025.138306
3055.664628	5958.782833	1064.041992	949.095093
3055.664628	5958.782833	1062.892578	1027.996826
3055.664628	5958.782833	1061.743164	1227.438354
3055.664628	5958.782833	1060.593750	1048.528564
3055.664628	5958.782833	1059.443359	946.358154
3055.664628	5958.782833	1058.292969	1001.485413
3055.664628	5958.782833	1057.142578	996.032776
3055.664628	5958.782833	1055.992188	980.212646
3055.664628	5958.782833	1054.841797	1067.313477
3055.664628	5958.782833	1053.690430	990.408203
3055.664628	5958.782833	1052.539063	782.068115
3055.664628	5958.782833	1051.387695	484.511627
3055.664628	5958.782833	1050.235352	285.657837
3055.664628	5958.782833	1049.083984	360.612244
3055.664628	5958.782833	1047.931641	396.614899
3055.664628	5958.782833	1046.778320	169.049789
3055.664628	5958.782833	1045.625977	331.802460
3055.664628	5958.782833	1044.472656	393.973572
3055.664628	5958.782833	1043.319336	290.835876
3055.664628	5958.782833	1042.166016	432.485687
3055.664628	5958.782833	1041.012695	515.403076
3055.664628	5958.782833	1039.858398	470.742554
3055.664628	5958.782833	1038.704102	613.389709
3055.664628	5958.782833	1037.549805	543.807007
3055.664628	5958.782833	1036.394531	419.096069
3055.664628	5958.782833	1035.239258	454.285309
3055.664628	5958.782833	1034.083984	405.265991
3055.664628	5958.782833	1032.928711	813.741943
3055.664628	5958.782833	1031.773438	730.269531
3055.664628	5958.782833	1030.617188	704.094299
3055.664628	5958.782833	1029.460938	710.159363
3055.664628	5958.782833	1028.304688	859.009338
3055.664628	5958.782833	1027.147461	698.230408
3055.664628	5958.782833	1025.991211	747.397522
3055.664628	5958.782833	1024.833984	714.658630
3055.664628	5958.782833	1023.675781	730.973145
3055.664628	5958.782833	1022.518555	562.998779
3055.664628	5958.782833	1021.360352	390.898499
3055.664628	5958.782833	1020.202148	329.901459
3055.664628	5958.782833	1019.043945	491.798523
3055.664628	5958.782833	1017.884766	28.503143
3055.664628	5958.782833	1016.726563	228.402557
3055.664628	5958.782833	1015.567383	243.220322
3055.664628	5958.782833	1014.407227	142.514572
3055.664628	5958.782833	1013.248047	196.988586
3055.664628	5958.782833	1012.087891	106.862404
3055.664628	5958.782833	1010.927734	334.922729
3055.664628	5958.782833	1009.767578	275.116669
3055.664628	5958.782833	1008.606445	214.948807
3055.664628	5958.782833	1007.446289	333.646820
3055.664628	5958.782833	1006.285156	566.040222
3055.664628	5958.782833	1005.123047	212.750717
3055.664628	5958.782833	1003.961914	509.878601
3055.664628	5958.782833	1002.799805	442.841705
3055.664628	5958.782833	1001.637695	449.887512
3055.664628	5958.782833	1000.475586	530.909424
3055.664628	5958.782833	999.312500	422.592072
3055.664628	5958.782833	998.149414	651.310059
3055.664628	5958.782833	996.986328	535.081909
3055.664628	5958.782833	995.823242	574.618530
3055.664628	5958.782833	994.659180	409.914612
3055.664628	5958.782833	993.496094	345.933472
3055.664628	5958.782833	992.332031	390.219360
3055.664628	5958.782833	991.166992	202.749512
3055.664628	5958.782833	990.002930	229.420349
3055.664628	5958.782833	988.837891	272.976776
3055.664628	5958.782833	987.672852	346.406586
3055.664628	5958.782833	986.506836	145.633713
3055.664628	5958.782833	985.341797	74.758324
3055.664628	5958.782833	984.175781	160.380203
3055.664628	5958.782833	983.009766	211.640778
3055.664628	5958.782833	981.843750	-36.850605
3055.664628	5958.782833	980.676758	-104.036613
3055.664628	5958.782833	979.509766	2.829893
3055.664628	5958.782833	978.342773	-18.913216
3055.664628	5958.782833	977.175781	122.484032
3055.664628	5958.782833	976.007813	115.358948
3055.664628	5958.782833	974.839844	99.458015
3055.664628	5958.782833	973.671875	83.076126
3055.664628	5958.782833	972.503906	21.063841
3055.664628	5958.782833	971.334961	92.624413
3055.664628	5958.782833	970.166016	179.596405
3055.664628	5958.782833	968.997070	101.650681
3055.664628	5958.782833	967.828125	371.756958
3055.664628	5958.782833	966.658203	36.618198
3055.664628	5958.782833	965.488281	337.264648
3055.664628	5958.782833	964.318359	323.090820
3055.664628	5958.782833	963.148438	376.303741
3055.664628	5958.782833	961.977539	258.842407
3055.664628	5958.782833	960.806641	309.648468
3055.664628	5958.782833	959.635742	562.673096
3055.664628	5958.782833	958.463867	506.767181
3055.664628	5958.782833	957.292969	401.311707
3055.664628	5958.782833	956.121094	598.048584
3055.664628	5958.782833	954.948242	587.551819
3055.664628	5958.782833	953.776367	557.480042
3055.664628	5958.782833	952.603516	520.518127
3055.664628	5958.782833	951.430664	342.531128
3055.664628	5958.782833	950.257813	332.911469
3055.664628	5958.782833	949.084961	356.250946
3055.664628	5958.782833	947.911133	350.043549
3055.664628	5958.782833	946.737305	362.587006
3055.664628	5958.782833	945.563477	414.953552
3055.664628	5958.782833	944.388672	505.677032
3055.664628	5958.782833	943.213867	460.664734
3055.664628	5958.782833	942.039063	512.944946
3055.664628	5958.782833	940.864258	463.080017
3055.664628	5958.782833	939.688477	531.933716
3055.664628	5958.782833	938.513672	636.738220
3055.664628	5958.782833	937.337891	717.054016
3055.664628	5958.782833	936.161133	569.600525
3055.664628	5958.782833	934.985352	531.305603
3055.664628	5958.782833	933.808594	839.876831
3055.664628	5958.782833	932.631836	879.939758
3055.664628	5958.782833	931.454102	858.091003
3055.664628	5958.782833	930.277344	1047.568359
3055.664628	5958.782833	929.099609	982.955139
3055.664628	5958.782833	927.921875	960.976379
3055.664628	5958.782833	926.743164	891.469910
3055.664628	5958.782833	925.565430	1009.450134
3055.664628	5958.782833	924.386719	1056.179565
3055.664628	5958.782833	923.208008	718.577026
3055.664628	5958.782833	922.028320	696.484924
3055.664628	5958.782833	920.849609	1127.266479
3055.664628	5958.782833	919.669922	1134.109741
3055.664628	5958.782833	919.474609	857.232910
3055.664628	5958.782833	918.309570	941.586426
3055.664628	5958.782833	917.143555	947.666321
3055.664628	5958.782833	915.977539	1178.786987
3055.664628	5958.782833	914.810547	1206.061157
3055.664628	5958.782833	913.644531	1157.491943
3055.664628	5958.782833	912.477539	1021.300293
3055.664628	5958.782833	911.310547	1098.188232
3055.664628	5958.782833	910.143555	727.667297
3055.664628	5958.782833	908.975586	643.599792
3055.664628	5958.782833	907.807617	419.941986
3055.664628	5958.782833	906.639648	335.899597
3055.664628	5958.782833	905.471680	296.791626
3055.664628	5958.782833	904.303711	226.926331
3055.664628	5958.782833	903.134766	381.640533
3055.664628	5958.782833	901.965820	179.369095
3055.664628	5958.782833	900.796875	244.169220
3055.664628	5958.782833	899.626953	311.279022
3055.664628	5958.782833	898.457031	260.227142
3055.664628	5958.782833	897.287109	353.221161
3055.664628	5958.782833	896.117188	573.647400
3055.664628	5958.782833	894.947266	782.149902
3055.664628	5958.782833	893.776367	697.886597
3055.664628	5958.782833	892.605469	767.006226
3055.664628	5958.782833	891.434570	805.399963
3055.664628	5958.782833	890.262695	430.984375
3055.664628	5958.782833	889.091797	563.704163
3055.664628	5958.782833	887.919922	635.047180
3055.664628	5958.782833	886.748047	569.614380
3055.664628	5958.782833	885.575195	638.522461
3055.664628	5958.782833	884.403320	617.833435
3055.664628	5958.782833	883.230469	524.101257
3055.664628	5958.782833	882.057617	510.465179
3055.664628	5958.782833	880.883789	805.299438
3055.664628	5958.782833	879.710938	504.330261
3055.664628	5958.782833	878.537109	528.300903
3055.664628	5958.782833	877.362305	512.235046
3055.664628	5958.782833	876.188477	637.323059
3055.664628	5958.782833	875.013672	167.175995
3055.664628	5958.782833	873.839844	459.227386
3055.664628	5958.782833	872.664063	821.690613
3055.664628	5958.782833	871.489258	314.112610
3055.664628	5958.782833	870.313477	297.981445
3055.664628	5958.782833	869.138672	342.932739
3055.664628	5958.782833	867.962891	524.122375
3055.664628	5958.782833	866.786133	601.862976
3055.664628	5958.782833	865.610352	447.036530
3055.664628	5958.782833	864.433594	743.094482
3055.664628	5958.782833	863.256836	595.309021
3055.664628	5958.782833	862.079102	384.196411
3055.664628	5958.782833	860.902344	410.159149
3055.664628	5958.782833	859.724609	377.441620
3055.664628	5958.782833	858.546875	511.263123
3055.664628	5958.782833	857.368164	272.124298
3055.664628	5958.782833	856.190430	326.152283
3055.664628	5958.782833	855.011719	237.143982
3055.664628	5958.782833	853.833008	248.935974
3055.664628	5958.782833	852.654297	279.449219
3055.664628	5958.782833	851.474609	197.482056
3055.664628	5958.782833	850.294922	106.159103
3055.664628	5958.782833	849.115234	35.932598
3055.664628	5958.782833	847.935547	17.225414
3055.664628	5958.782833	846.754883	-137.259003
3055.664628	5958.782833	845.575195	-88.087662
3055.664628	5958.782833	844.393555	96.768593
3055.664628	5958.782833	843.212891	-97.464523
3055.664628	5958.782833	842.032227	-235.500641
3055.664628	5958.782833	840.850586	-48.446037
3055.664628	5958.782833	839.668945	42.654060
3055.664628	5958.782833	838.486328	-214.587936
3055.664628	5958.782833	837.304688	49.412468
3055.664628	5958.782833	836.122070	-277.861084
3055.664628	5958.782833	834.939453	-196.204788
3055.664628	5958.782833	833.756836	-149.636368
3055.664628	5958.782833	832.573242	-208.182205
3055.664628	5958.782833	831.389648	-285.401215
3055.664628	5958.782833	830.206055	-201.551361
3055.664628	5958.782833	829.022461	-57.081066
3055.664628	5958.782833	827.838867	-73.680969
3055.664628	5958.782833	826.654297	79.996376
3055.664628	5958.782833	825.469727	-365.793427
3055.664628	5958.782833	824.284180	-95.568230
3055.664628	5958.782833	823.099609	-163.515747
3055.664628	5958.782833	821.914063	92.527740
3055.664628	5958.782833	820.728516	106.091278
3055.664628	5958.782833	819.542969	80.020279
3055.664628	5958.782833	818.356445	77.234230
3055.664628	5958.782833	817.169922	-193.394043
3055.664628	5958.782833	815.983398	281.150726
3055.664628	5958.782833	814.796875	124.612358
3055.664628	5958.782833	813.609375	598.850647
3055.664628	5958.782833	812.422852	744.765930
3055.664628	5958.782833	811.235352	592.812561
3055.664628	5958.782833	810.046875	540.917786
3055.664628	5958.782833	808.859375	158.793579
3055.664628	5958.782833	807.670898	132.531769
3055.664628	5958.782833	806.482422	-19.269171
3055.664628	5958.782833	805.293945	-15.323569
3055.664628	5958.782833	804.104492	2.537655
3055.664628	5958.782833	802.915039	-91.144615
3055.664628	5958.782833	801.725586	-15.266383
3055.664628	5958.782833	800.536133	-78.776375
3055.664628	5958.782833	799.345703	89.879097
3055.664628	5958.782833	798.155273	-152.413330
3055.664628	5958.782833	796.964844	-297.167847
3055.664628	5958.782833	795.774414	73.195045
3055.664628	5958.782833	794.583008	9.585375
3055.664628	5958.782833	793.392578	-40.118362
3055.664628	5958.782833	792.200195	-13.308236
3055.664628	5958.782833	791.008789	326.423279
3055.664628	5958.782833	789.816406	174.606461
3055.664628	5958.782833	788.625000	-32.801849
3055.664628	5958.782833	787.432617	74.935562
3055.664628	5958.782833	786.239258	-14.296287
3055.664628	5958.782833	785.046875	-20.159573
3055.664628	5958.782833	783.853516	124.446960
3055.664628	5958.782833	782.660156	194.877930
3055.664628	5958.782833	781.465820	200.438416
3055.664628	5958.782833	780.272461	217.523056
3055.664628	5958.782833	779.078125	449.719177
3055.664628	5958.782833	777.883789	138.219360
3055.664628	5958.782833	776.688477	252.315796
3055.664628	5958.782833	775.494141	255.340912
3055.664628	5958.782833	774.298828	71.086746
3055.664628	5958.782833	773.103516	138.773361
3055.664628	5958.782833	771.907227	88.549217
3055.664628	5958.782833	770.711914	-0.974714
3055.664628	5958.782833	769.515625	73.479637
3055.664628	5958.782833	768.318359	-27.639380
3055.664628	5958.782833	767.122070	111.338020
3055.664628	5958.782833	765.924805	-149.110168
3055.664628	5958.782833	764.727539	-84.109383
3055.664628	5958.782833	763.530273	-28.415295
3055.664628	5958.782833	762.333008	-196.552139
3055.664628	5958.782833	761.134766	13.561718
3055.664628	5958.782833	759.936523	87.492363
3055.664628	5958.782833	758.738281	-101.468033
3055.664628	5958.782833	757.540039	133.686539
3055.664628	5958.782833	756.340820	105.991608
3055.664628	5958.782833	755.141602	138.153076
3055.664628	5958.782833	753.942383	-25.546690
3055.664628	5958.782833	752.742188	130.873001
3055.664628	5958.782833	751.541992	-44.383789
3055.664628	5958.782833	750.341797	116.459450
3055.664628	5958.782833	749.141602	-74.953598
3055.664628	5958.782833	747.941406	-266.348389
3055.664628	5958.782833	746.740234	-112.645882
3055.664628	5958.782833	745.539063	63.930492
3055.664628	5958.782833	744.337891	120.790039
3055.664628	5958.782833	743.135742	78.702065
3055.664628	5958.782833	741.933594	-30.094799
3055.664628	5958.782833	740.731445	26.550926
3055.664628	5958.782833	739.529297	71.617874
3055.664628	5958.782833	738.326172	268.210083
3055.664628	5958.782833	737.124023	313.068024
3055.664628	5958.782833	735.919922	472.648865
3055.664628	5958.782833	734.716797	535.669495
3055.664628	5958.782833	733.513672	554.980957
3055.664628	5958.782833	732.309570	610.927185
3055.664628	5958.782833	731.105469	203.329391
3055.664628	5958.782833	729.900391	247.707214
3055.664628	5958.782833	728.696289	122.283356
3055.664628	5958.782833	727.491211	223.827423
3055.664628	5958.782833	726.286133	89.135429
3055.664628	5958.782833	725.080078	149.233612
3055.664628	5958.782833	723.874023	-102.407066
3055.664628	5958.782833	722.668945	243.910187
3055.664628	5958.782833	721.461914	278.498810
3055.664628	5958.782833	720.255859	333.600342
3055.664628	5958.782833	719.048828	349.672943
3055.664628	5958.782833	717.841797	111.573639
3055.664628	5958.782833	716.634766	292.290863
3055.664628	5958.782833	715.427734	413.356049
3055.664628	5958.782833	714.219727	463.368103
3055.664628	5958.782833	713.011719	545.290833
3055.664628	5958.782833	711.803711	661.388977
3055.664628	5958.782833	710.594727	907.658813
3055.664628	5958.782833	709.385742	1137.734253
3055.664628	5958.782833	708.176758	1008.847900
3055.664628	5958.782833	706.967773	756.548767
3055.664628	5958.782833	705.758789	581.924988
3055.664628	5958.782833	704.548828	226.864990
3055.664628	5958.782833	703.338867	310.245300
3055.664628	5958.782833	702.127930	240.546997
3055.664628	5958.782833	700.917969	314.567383
3055.664628	5958.782833	699.707031	126.048569
3055.664628	5958.782833	698.496094	51.578362
3055.664628	5958.782833	697.285156	88.802551
3055.664628	5958.782833	696.073242	-61.081326
3055.664628	5958.782833	694.861328	48.906391
3055.664628	5958.782833	693.649414	-57.799400
3055.664628	5958.782833	692.436523	-59.730873
3055.664628	5958.782833	691.224609	-105.055183
3055.664628	5958.782833	690.011719	38.609230
3055.664628	5958.782833	688.798828	-61.585617
3055.664628	5958.782833	687.584961	-86.702454
3055.664628	5958.782833	686.372070	-27.680172
3055.664628	5958.782833	685.158203	-27.967907
3055.664628	5958.782833	683.943359	26.249950
3055.664628	5958.782833	682.729492	68.963760
3055.664628	5958.782833	681.514648	125.196587
3055.664628	5958.782833	680.299805	28.929260
3055.664628	5958.782833	679.084961	191.793121
3055.664628	5958.782833	677.869141	-61.520206
3055.664628	5958.782833	676.653320	28.344412
3055.664628	5958.782833	675.437500	61.253738
3055.664628	5958.782833	674.221680	134.930008
3055.664628	5958.782833	673.004883	251.616318
3055.664628	5958.782833	671.789063	175.124039
3055.664628	5958.782833	670.571289	166.655670
3055.664628	5958.782833	669.354492	112.682831
3055.664628	5958.782833	668.136719	201.588211
3055.664628	5958.782833	666.919922	374.293365
3055.664628	5958.782833	665.701172	133.952881
3055.664628	5958.782833	664.483398	319.975128
3055.664628	5958.782833	663.264648	288.124908
3055.664628	5958.782833	662.045898	349.118103
3055.664628	5958.782833	660.827148	298.911530
3055.664628	5958.782833	659.608398	341.516693
3055.664628	5958.782833	658.388672	282.035278
3055.664628	5958.782833	657.168945	412.728424
3055.664628	5958.782833	655.949219	459.459351
3055.664628	5958.782833	654.728516	481.144867
3055.664628	5958.782833	653.507813	640.785767
3055.664628	5958.782833	652.287109	707.452393
3055.664628	5958.782833	651.066406	615.586060
3055.664628	5958.782833	649.844727	675.204956
3055.664628	5958.782833	648.623047	985.732178
3055.664628	5958.782833	647.401367	484.223511
3055.664628	5958.782833	646.179688	670.082336
3055.664628	5958.782833	644.957031	489.574524
3055.664628	5958.782833	643.734375	589.241943
3055.664628	5958.782833	642.511719	442.482117
3055.664628	5958.782833	641.289063	575.765991
3055.664628	5958.782833	640.065430	496.583893
3055.664628	5958.782833	638.841797	403.769958
3055.664628	5958.782833	637.618164	565.968079
3055.664628	5958.782833	636.393555	317.212250
3055.664628	5958.782833	635.168945	472.351715
3055.664628	5958.782833	633.944336	198.672012
3055.664628	5958.782833	632.719727	200.165695
3055.664628	5958.782833	631.494141	151.926102
3055.664628	5958.782833	630.269531	315.526520
3055.664628	5958.782833	629.042969	147.580948
3055.664628	5958.782833	627.817383	110.307396
3055.664628	5958.782833	626.590820	70.677002
3055.664628	5958.782833	625.365234	107.545097
3055.664628	5958.782833	624.137695	-89.951805
3055.664628	5958.782833	622.911133	-35.283001
3055.664628	5958.782833	621.683594	84.530869
3055.664628	5958.782833	620.456055	136.659775
3055.664628	5958.782833	619.228516	-52.121155
3055.664628	5958.782833	618.000977	191.025726
3055.664628	5958.782833	616.772461	-38.399654
3055.664628	5958.782833	615.543945	69.486992
3055.664628	5958.782833	614.314453	49.057545
3055.664628	5958.782833	613.085938	-113.079697
3055.664628	5958.782833	611.856445	115.785950
3055.664628	5958.782833	610.626953	83.805832
3055.664628	5958.782833	609.397461	-60.586464
3055.664628	5958.782833	608.166992	-20.859152
3055.664628	5958.782833	606.936523	214.105286
3055.664628	5958.782833	605.706055	85.177017
3055.664628	5958.782833	604.474609	36.998066
3055.664628	5958.782833	603.244141	206.420410
3055.664628	5958.782833	602.012695	187.204529
3055.664628	5958.782833	600.780273	300.234161
3055.664628	5958.782833	599.548828	-6.242657
3055.664628	5958.782833	598.316406	-61.572247
3055.664628	5958.782833	597.083984	152.026840
3055.664628	5958.782833	595.851563	385.613495
3055.664628	5958.782833	594.618164	224.635101
3055.664628	5958.782833	593.384766	397.430023
3055.664628	5958.782833	592.151367	305.771149
3055.664628	5958.782833	590.917969	19.245798
3055.664628	5958.782833	589.683594	-126.207588
3055.664628	5958.782833	588.449219	-144.098877
3055.664628	5958.782833	587.214844	99.761932
3055.664628	5958.782833	585.979492	-16.788424
3055.664628	5958.782833	584.745117	280.464905
3055.664628	5958.782833	583.509766	34.053234
3055.664628	5958.782833	582.273438	-87.126442
3055.664628	5958.782833	581.038086	66.640144
3055.664628	5958.782833	579.801758	171.089188
3055.664628	5958.782833	578.565430	-182.655655
3055.664628	5958.782833	577.329102	46.763786
3055.664628	5958.782833	576.091797	34.782700
3055.664628	5958.782833	574.854492	60.701744
3055.664628	5958.782833	573.617188	155.755157
3055.664628	5958.782833	572.378906	-41.715717
3055.664628	5958.782833	571.141602	-13.757275
3055.664628	5958.782833	569.903320	-79.590958
3055.664628	5958.782833	568.664063	-45.082176
3055.664628	5958.782833	567.425781	-126.607094
3055.664628	5958.782833	566.186523	-85.525024
3055.664628	5958.782833	564.947266	-135.914627
3055.664628	5958.782833	563.708008	54.377468
3055.664628	5958.782833	562.467773	182.136826
3055.664628	5958.782833	561.227539	69.187302
3055.664628	5958.782833	559.987305	147.793655
3055.664628	5958.782833	558.747070	3.635661
3055.664628	5958.782833	557.505859	-116.021637
3055.664628	5958.782833	556.264648	133.840164
3055.664628	5958.782833	555.023438	-72.662582
3055.664628	5958.782833	553.781250	-263.546112
3055.664628	5958.782833	552.539063	306.403442
3055.664628	5958.782833	551.296875	75.424515
3055.664628	5958.782833	550.054688	64.649200
3055.664628	5958.782833	548.811523	22.719421
3055.664628	5958.782833	547.569336	245.284607
3055.664628	5958.782833	546.325195	52.173420
3055.664628	5958.782833	545.082031	30.203209
3055.664628	5958.782833	543.837891	19.320694
3055.664628	5958.782833	542.593750	-22.661432
3055.664628	5958.782833	541.349609	-317.745819
3055.664628	5958.782833	540.105469	-193.180237
3055.664628	5958.782833	538.860352	-64.247559
3055.664628	5958.782833	537.615234	-146.162384
3055.664628	5958.782833	536.369141	-126.013237
3055.664628	5958.782833	535.124023	-81.467911
3055.664628	5958.782833	533.877930	-138.949829
3055.664628	5958.782833	532.631836	-103.294724
3055.664628	5958.782833	531.384766	165.065170
3055.664628	5958.782833	530.138672	-29.807541
3055.664628	5958.782833	528.891602	-40.712227
3055.664628	5958.782833	527.643555	105.655121
3055.664628	5958.782833	526.396484	-95.697685
3055.664628	5958.782833	525.148438	-106.549438
3055.664628	5958.782833	523.900391	-150.581696
3055.664628	5958.782833	522.652344	-97.197586
3055.664628	5958.782833	521.403320	-110.202362
3055.664628	5958.782833	520.154297	-78.933937
3055.664628	5958.782833	518.905273	-156.024979
3055.664628	5958.782833	517.656250	-27.411913
3055.664628	5958.782833	516.406250	227.179138
3055.664628	5958.782833	515.156250	33.012604
3055.664628	5958.782833	513.906250	221.256485
3055.664628	5958.782833	512.655273	115.609451
3055.664628	5958.782833	511.404297	98.400223
3055.664628	5958.782833	510.153320	129.822083
3055.664628	5958.782833	508.902344	8.930582
3055.664628	5958.782833	507.650391	-21.370506
3055.664628	5958.782833	506.398438	-14.093598
3055.664628	5958.782833	505.146484	-61.933266
3055.664628	5958.782833	503.893555	108.680267
3055.664628	5958.782833	502.641602	-210.341629
3055.664628	5958.782833	501.388672	-30.844545
3055.664628	5958.782833	500.134766	-32.152012
3055.664628	5958.782833	498.881836	-28.985918
3055.664628	5958.782833	497.627930	-166.803055
3055.664628	5958.782833	496.374023	-44.532639
3055.664628	5958.782833	495.119141	132.804230
3055.664628	5958.782833	493.865234	105.331703
3055.664628	5958.782833	492.610352	110.951500
3055.664628	5958.782833	491.355469	220.090393
3055.664628	5958.782833	490.099609	234.606110
3055.664628	5958.782833	488.843750	315.189789
3055.664628	5958.782833	487.587891	222.020966
3055.664628	5958.782833	486.332031	555.632568
3055.664628	5958.782833	485.075195	416.402802
3055.664628	5958.782833	483.818359	673.014343
3055.664628	5958.782833	482.561523	854.854370
3055.664628	5958.782833	481.304688	1131.177124
3055.664628	5958.782833	480.046875	1255.850952
3055.664628	5958.782833	478.789063	1545.279541
3055.664628	5958.782833	477.531250	2131.117188
3055.664628	5958.782833	476.272461	2106.400879
3055.664628	5958.782833	475.013672	2325.418701
3055.664628	5958.782833	473.754883	2151.578613
3055.664628	5958.782833	472.496094	1944.971802
3055.664628	5958.782833	471.236328	1554.246460
3055.664628	5958.782833	469.976563	1543.180054
3055.664628	5958.782833	468.716797	1170.388062
3055.664628	5958.782833	467.456055	1234.072754
3055.664628	5958.782833	466.196289	1030.407349
3055.664628	5958.782833	464.935547	1212.555298
3055.664628	5958.782833	463.673828	888.600342
3055.664628	5958.782833	462.413086	845.218506
3055.664628	5958.782833	461.151367	885.124023
3055.664628	5958.782833	459.889648	631.689453
3055.664628	5958.782833	458.626953	566.662354
3055.664628	5958.782833	457.364258	573.935425
3055.664628	5958.782833	456.101563	449.977844
3055.664628	5958.782833	454.838867	520.811340
3055.664628	5958.782833	453.575195	281.094116
3055.664628	5958.782833	452.312500	349.835052
3055.664628	5958.782833	451.047852	589.088379
3055.664628	5958.782833	449.784180	362.744293
3055.664628	5958.782833	448.519531	549.515991
3055.664628	5958.782833	447.254883	557.092896
3055.664628	5958.782833	445.990234	538.481628
3055.664628	5958.782833	444.725586	650.920959
3055.664628	5958.782833	443.459961	889.950439
3055.664628	5958.782833	442.194336	860.404968
3055.664628	5958.782833	440.927734	634.464172
3055.664628	5958.782833	439.662109	284.262115
3055.664628	5958.782833	438.395508	335.572693
3055.664628	5958.782833	437.127930	210.189911
3055.664628	5958.782833	435.861328	150.264557
3055.664628	5958.782833	434.593750	373.728912
3055.664628	5958.782833	433.326172	200.400391
3055.664628	5958.782833	432.058594	358.318848
3055.664628	5958.782833	430.790039	213.302200
3055.664628	5958.782833	429.521484	194.623016
3055.664628	5958.782833	428.252930	489.464783
3055.664628	5958.782833	426.984375	470.605408
3055.664628	5958.782833	425.714844	144.762695
3055.664628	5958.782833	424.445313	434.833069
3055.664628	5958.782833	423.174805	448.360657
3055.664628	5958.782833	421.905273	657.556152
3055.664628	5958.782833	420.634766	464.206757
3055.664628	5958.782833	419.364258	675.234070
3055.664628	5958.782833	418.092773	677.339600
3055.664628	5958.782833	416.822266	659.743958
3055.664628	5958.782833	415.550781	513.788757
3055.664628	5958.782833	414.278320	319.925568
3055.664628	5958.782833	413.006836	178.097229
3055.664628	5958.782833	411.734375	279.329803
3055.664628	5958.782833	410.461914	85.053604
3055.664628	5958.782833	409.188477	68.611794
3055.664628	5958.782833	407.916016	219.042419
3055.664628	5958.782833	406.642578	147.850906
3055.664628	5958.782833	405.368164	167.514938
3055.664628	5958.782833	404.094727	182.559601
3055.664628	5958.782833	402.820313	99.722099
3055.664628	5958.782833	401.545898	85.970779
3055.664628	5958.782833	400.270508	368.792419
3055.664628	5958.782833	398.996094	304.470825
3055.664628	5958.782833	397.720703	66.495041
3055.664628	5958.782833	396.444336	189.915192
3055.664628	5958.782833	395.168945	191.627441
3055.664628	5958.782833	393.892578	309.804016
3055.664628	5958.782833	392.616211	124.466080
3055.664628	5958.782833	391.339844	75.068626
3055.664628	5958.782833	390.062500	-39.712173
3055.664628	5958.782833	388.785156	54.855003
3055.664628	5958.782833	387.507813	73.157944
3055.664628	5958.782833	386.229492	125.475243
3055.664628	5958.782833	384.951172	2.099032
3055.664628	5958.782833	383.672852	-87.251770
3055.664628	5958.782833	382.394531	-140.465332
3055.664628	5958.782833	381.115234	-107.922783
3055.664628	5958.782833	379.835938	-101.994965
3055.664628	5958.782833	378.556641	63.000217
3055.664628	5958.782833	377.277344	71.752953
3055.664628	5958.782833	375.997070	-58.415836
3055.664628	5958.782833	374.716797	-59.858189
3055.664628	5958.782833	373.435547	73.765572
3055.664628	5958.782833	372.155273	38.251869
3055.664628	5958.782833	370.874023	148.476578
3055.664628	5958.782833	369.591797	20.553082
3055.664628	5958.782833	368.310547	133.160355
3055.664628	5958.782833	367.028320	-7.432866
3055.664628	5958.782833	365.746094	-101.594208
3055.664628	5958.782833	364.463867	-2.913616
3055.664628	5958.782833	363.180664	29.989014
3055.664628	5958.782833	361.897461	238.293640
3055.664628	5958.782833	360.614258	-34.714344
3055.664628	5958.782833	359.330078	16.130875
3055.664628	5958.782833	358.045898	-69.864922
3055.664628	5958.782833	356.761719	51.547752
3055.664628	5958.782833	355.477539	343.627258
3055.664628	5958.782833	354.192383	75.078560
3055.664628	5958.782833	352.907227	30.947704
3055.664628	5958.782833	351.622070	204.596603
3055.664628	5958.782833	350.336914	125.224083
3055.664628	5958.782833	349.050781	72.208244
3055.664628	5958.782833	347.764648	88.479240
3055.664628	5958.782833	346.477539	-126.749596
3055.664628	5958.782833	345.191406	32.165287
3055.664628	5958.782833	343.904297	176.317581
3055.664628	5958.782833	342.616211	78.175995
3055.664628	5958.782833	341.329102	-133.335846
3055.664628	5958.782833	340.041016	-67.862389
3055.664628	5958.782833	338.752930	-25.859934
3055.664628	5958.782833	337.463867	-15.993300
3055.664628	5958.782833	336.175781	-162.541687
3055.664628	5958.782833	334.886719	-92.632118
3055.664628	5958.782833	333.596680	99.246811
3055.664628	5958.782833	332.307617	-11.133121
3055.664628	5958.782833	331.017578	-42.484966
3055.664628	5958.782833	329.727539	15.832028
3055.664628	5958.782833	328.436523	-255.995743
3055.664628	5958.782833	327.146484	-209.130692
3055.664628	5958.782833	325.855469	-263.421021
3055.664628	5958.782833	324.563477	-281.941620
3055.664628	5958.782833	323.272461	-275.355072
3055.664628	5958.782833	321.980469	-139.094131
3055.664628	5958.782833	320.688477	39.085224
3055.664628	5958.782833	319.395508	-91.578789
3055.664628	5958.782833	318.103516	-52.075123
3055.664628	5958.782833	316.810547	142.294250
3055.664628	5958.782833	315.516602	-55.547062
3055.664628	5958.782833	314.223633	-81.410500
3055.664628	5958.782833	312.929688	233.035217
3055.664628	5958.782833	311.635742	91.252312
3055.664628	5958.782833	310.340820	150.757385
3055.664628	5958.782833	309.045898	157.477295
3055.664628	5958.782833	307.750977	77.221878
3055.664628	5958.782833	306.456055	189.379395
3055.664628	5958.782833	305.160156	461.633911
3055.664628	5958.782833	303.865234	149.897507
3055.664628	5958.782833	302.568359	206.963745
3055.664628	5958.782833	301.272461	117.073059
3055.664628	5958.782833	299.975586	244.344421
3055.664628	5958.782833	298.678711	222.245087
