#X		#Y		#Wave		#Intensity
13309.119043	3903.741000	1999.980469	-7.457216
13309.119043	3903.741000	1999.016602	-10.945848
13309.119043	3903.741000	1998.052734	268.870453
13309.119043	3903.741000	1997.087891	141.942719
13309.119043	3903.741000	1996.123047	-180.897186
13309.119043	3903.741000	1995.158203	147.671631
13309.119043	3903.741000	1994.193359	-81.359146
13309.119043	3903.741000	1993.228516	100.557152
13309.119043	3903.741000	1992.262695	84.146667
13309.119043	3903.741000	1991.297852	-66.118950
13309.119043	3903.741000	1990.332031	-30.890064
13309.119043	3903.741000	1989.366211	31.369267
13309.119043	3903.741000	1988.399414	-109.430038
13309.119043	3903.741000	1987.433594	63.796875
13309.119043	3903.741000	1986.466797	29.065668
13309.119043	3903.741000	1985.500977	98.044586
13309.119043	3903.741000	1984.534180	142.132172
13309.119043	3903.741000	1983.567383	-43.804333
13309.119043	3903.741000	1982.599609	32.146263
13309.119043	3903.741000	1981.632813	110.409683
13309.119043	3903.741000	1980.665039	-73.332954
13309.119043	3903.741000	1979.697266	-2.729968
13309.119043	3903.741000	1978.729492	65.264320
13309.119043	3903.741000	1977.761719	212.131485
13309.119043	3903.741000	1976.792969	-6.496012
13309.119043	3903.741000	1975.825195	177.148056
13309.119043	3903.741000	1974.856445	0.364329
13309.119043	3903.741000	1973.887695	43.129475
13309.119043	3903.741000	1972.918945	184.459167
13309.119043	3903.741000	1971.949219	-155.252960
13309.119043	3903.741000	1970.980469	-28.890701
13309.119043	3903.741000	1970.010742	-99.871147
13309.119043	3903.741000	1969.041016	38.616253
13309.119043	3903.741000	1968.071289	149.879105
13309.119043	3903.741000	1967.101563	246.256195
13309.119043	3903.741000	1966.130859	39.534161
13309.119043	3903.741000	1965.161133	86.524200
13309.119043	3903.741000	1964.190430	66.957283
13309.119043	3903.741000	1963.219727	76.895180
13309.119043	3903.741000	1962.249023	-122.452255
13309.119043	3903.741000	1961.277344	67.096420
13309.119043	3903.741000	1960.306641	3.085783
13309.119043	3903.741000	1959.334961	-38.794636
13309.119043	3903.741000	1958.363281	7.861414
13309.119043	3903.741000	1957.391602	15.121728
13309.119043	3903.741000	1956.419922	120.708298
13309.119043	3903.741000	1955.447266	39.391209
13309.119043	3903.741000	1954.474609	-2.589041
13309.119043	3903.741000	1953.501953	-5.251919
13309.119043	3903.741000	1952.529297	68.238487
13309.119043	3903.741000	1951.556641	43.424061
13309.119043	3903.741000	1950.583984	-77.181229
13309.119043	3903.741000	1949.610352	79.738998
13309.119043	3903.741000	1948.636719	-13.838813
13309.119043	3903.741000	1947.663086	74.265572
13309.119043	3903.741000	1946.689453	-9.467384
13309.119043	3903.741000	1945.715820	29.521303
13309.119043	3903.741000	1944.741211	279.487091
13309.119043	3903.741000	1943.767578	109.910683
13309.119043	3903.741000	1942.792969	50.762009
13309.119043	3903.741000	1941.818359	-113.796478
13309.119043	3903.741000	1940.842773	-50.292789
13309.119043	3903.741000	1939.868164	-65.238213
13309.119043	3903.741000	1938.892578	64.418961
13309.119043	3903.741000	1937.916992	-21.579014
13309.119043	3903.741000	1936.941406	-127.130318
13309.119043	3903.741000	1935.965820	159.256470
13309.119043	3903.741000	1934.990234	305.968201
13309.119043	3903.741000	1934.013672	190.663956
13309.119043	3903.741000	1933.037109	156.200409
13309.119043	3903.741000	1932.060547	38.553085
13309.119043	3903.741000	1931.083984	38.424995
13309.119043	3903.741000	1930.107422	57.887756
13309.119043	3903.741000	1929.129883	-10.696581
13309.119043	3903.741000	1928.153320	343.861237
13309.119043	3903.741000	1927.175781	50.334797
13309.119043	3903.741000	1926.198242	-167.273849
13309.119043	3903.741000	1925.219727	3.859151
13309.119043	3903.741000	1924.242188	174.951981
13309.119043	3903.741000	1923.263672	121.214661
13309.119043	3903.741000	1922.285156	-42.408600
13309.119043	3903.741000	1921.306641	-66.727531
13309.119043	3903.741000	1920.328125	77.484718
13309.119043	3903.741000	1919.349609	60.526249
13309.119043	3903.741000	1918.370117	-22.310518
13309.119043	3903.741000	1917.391602	63.313004
13309.119043	3903.741000	1916.412109	29.360790
13309.119043	3903.741000	1915.431641	75.956032
13309.119043	3903.741000	1914.452148	7.915552
13309.119043	3903.741000	1913.472656	-23.491837
13309.119043	3903.741000	1912.492188	-57.301445
13309.119043	3903.741000	1911.511719	-147.144562
13309.119043	3903.741000	1910.531250	4.377600
13309.119043	3903.741000	1909.550781	238.725311
13309.119043	3903.741000	1908.569336	-48.406303
13309.119043	3903.741000	1907.588867	3.208585
13309.119043	3903.741000	1906.607422	3.680082
13309.119043	3903.741000	1905.625977	9.045467
13309.119043	3903.741000	1904.644531	-109.737114
13309.119043	3903.741000	1903.662109	-174.898392
13309.119043	3903.741000	1902.680664	-171.866241
13309.119043	3903.741000	1901.698242	152.388931
13309.119043	3903.741000	1900.715820	-24.630524
13309.119043	3903.741000	1899.733398	-14.264490
13309.119043	3903.741000	1898.750000	59.350510
13309.119043	3903.741000	1897.767578	42.991783
13309.119043	3903.741000	1896.784180	-21.962355
13309.119043	3903.741000	1895.800781	-47.982483
13309.119043	3903.741000	1894.817383	110.717377
13309.119043	3903.741000	1893.833984	169.759109
13309.119043	3903.741000	1892.850586	-60.285721
13309.119043	3903.741000	1891.866211	23.087431
13309.119043	3903.741000	1890.881836	111.301315
13309.119043	3903.741000	1889.897461	192.215027
13309.119043	3903.741000	1888.913086	-74.010605
13309.119043	3903.741000	1887.927734	-27.042940
13309.119043	3903.741000	1886.943359	-33.463242
13309.119043	3903.741000	1885.958008	-73.834480
13309.119043	3903.741000	1884.972656	-111.753166
13309.119043	3903.741000	1883.987305	-108.419891
13309.119043	3903.741000	1883.001953	18.581440
13309.119043	3903.741000	1882.015625	14.634177
13309.119043	3903.741000	1881.029297	168.243256
13309.119043	3903.741000	1880.042969	-155.598602
13309.119043	3903.741000	1879.056641	-4.426092
13309.119043	3903.741000	1878.070313	32.839417
13309.119043	3903.741000	1877.083984	53.141254
13309.119043	3903.741000	1876.096680	80.702568
13309.119043	3903.741000	1875.109375	45.307457
13309.119043	3903.741000	1874.122070	-147.414734
13309.119043	3903.741000	1873.134766	148.809341
13309.119043	3903.741000	1872.146484	-39.022301
13309.119043	3903.741000	1871.159180	143.360672
13309.119043	3903.741000	1870.170898	-54.080822
13309.119043	3903.741000	1869.182617	96.789764
13309.119043	3903.741000	1868.194336	-81.236664
13309.119043	3903.741000	1867.205078	57.482342
13309.119043	3903.741000	1866.216797	123.631195
13309.119043	3903.741000	1865.227539	-114.737518
13309.119043	3903.741000	1864.238281	23.881910
13309.119043	3903.741000	1863.249023	58.565971
13309.119043	3903.741000	1862.259766	28.014208
13309.119043	3903.741000	1861.269531	21.607250
13309.119043	3903.741000	1860.279297	-11.369407
13309.119043	3903.741000	1859.290039	131.859543
13309.119043	3903.741000	1858.298828	4.719893
13309.119043	3903.741000	1857.308594	-47.590504
13309.119043	3903.741000	1856.318359	-66.126137
13309.119043	3903.741000	1855.327148	-41.259434
13309.119043	3903.741000	1854.335938	84.860603
13309.119043	3903.741000	1853.344727	104.821671
13309.119043	3903.741000	1852.353516	23.503927
13309.119043	3903.741000	1851.362305	-2.375049
13309.119043	3903.741000	1850.370117	-35.500317
13309.119043	3903.741000	1849.377930	-90.324478
13309.119043	3903.741000	1848.385742	102.952545
13309.119043	3903.741000	1847.393555	40.837391
13309.119043	3903.741000	1846.401367	10.017362
13309.119043	3903.741000	1845.408203	101.957153
13309.119043	3903.741000	1844.415039	34.964554
13309.119043	3903.741000	1843.421875	32.939270
13309.119043	3903.741000	1842.428711	88.624763
13309.119043	3903.741000	1841.435547	283.781097
13309.119043	3903.741000	1840.441406	202.224838
13309.119043	3903.741000	1839.448242	214.444321
13309.119043	3903.741000	1838.454102	19.848246
13309.119043	3903.741000	1837.459961	70.475624
13309.119043	3903.741000	1836.464844	17.693182
13309.119043	3903.741000	1835.470703	159.526199
13309.119043	3903.741000	1834.475586	236.391357
13309.119043	3903.741000	1833.480469	176.262939
13309.119043	3903.741000	1832.485352	10.439596
13309.119043	3903.741000	1831.490234	7.907038
13309.119043	3903.741000	1830.495117	65.341888
13309.119043	3903.741000	1829.499023	50.695053
13309.119043	3903.741000	1828.502930	131.991837
13309.119043	3903.741000	1827.506836	280.385925
13309.119043	3903.741000	1826.510742	-55.904495
13309.119043	3903.741000	1825.513672	77.965317
13309.119043	3903.741000	1824.517578	-56.843937
13309.119043	3903.741000	1823.520508	-19.040594
13309.119043	3903.741000	1822.523438	21.085577
13309.119043	3903.741000	1821.526367	118.655609
13309.119043	3903.741000	1820.529297	211.333984
13309.119043	3903.741000	1819.531250	169.753784
13309.119043	3903.741000	1818.533203	44.290512
13309.119043	3903.741000	1817.535156	48.129711
13309.119043	3903.741000	1816.537109	27.958370
13309.119043	3903.741000	1815.539063	168.118774
13309.119043	3903.741000	1814.540039	40.089897
13309.119043	3903.741000	1813.541992	24.513369
13309.119043	3903.741000	1812.542969	248.125900
13309.119043	3903.741000	1811.543945	-23.581730
13309.119043	3903.741000	1810.543945	113.711044
13309.119043	3903.741000	1809.544922	97.844673
13309.119043	3903.741000	1808.544922	-23.284487
13309.119043	3903.741000	1807.544922	-156.394302
13309.119043	3903.741000	1806.544922	21.149620
13309.119043	3903.741000	1805.544922	28.903530
13309.119043	3903.741000	1804.544922	62.854862
13309.119043	3903.741000	1803.543945	-37.042469
13309.119043	3903.741000	1802.542969	25.404249
13309.119043	3903.741000	1801.541992	221.452499
13309.119043	3903.741000	1800.541016	97.469185
13309.119043	3903.741000	1799.539063	128.582245
13309.119043	3903.741000	1798.538086	135.742325
13309.119043	3903.741000	1797.536133	11.594765
13309.119043	3903.741000	1796.534180	30.528624
13309.119043	3903.741000	1795.532227	-88.951454
13309.119043	3903.741000	1794.529297	-51.104561
13309.119043	3903.741000	1793.527344	70.084297
13309.119043	3903.741000	1792.524414	14.754834
13309.119043	3903.741000	1791.521484	-54.939255
13309.119043	3903.741000	1790.518555	3.965241
13309.119043	3903.741000	1789.514648	-61.118744
13309.119043	3903.741000	1788.511719	-42.904808
13309.119043	3903.741000	1787.507813	-29.554783
13309.119043	3903.741000	1786.503906	95.596748
13309.119043	3903.741000	1785.500000	84.927635
13309.119043	3903.741000	1784.496094	181.265427
13309.119043	3903.741000	1783.491211	87.111984
13309.119043	3903.741000	1782.486328	185.599930
13309.119043	3903.741000	1781.481445	-44.284920
13309.119043	3903.741000	1780.476563	180.039948
13309.119043	3903.741000	1779.471680	9.493947
13309.119043	3903.741000	1778.465820	14.823695
13309.119043	3903.741000	1777.460938	-1.331699
13309.119043	3903.741000	1776.455078	-53.226685
13309.119043	3903.741000	1775.449219	51.605122
13309.119043	3903.741000	1774.442383	94.533051
13309.119043	3903.741000	1773.436523	-85.893791
13309.119043	3903.741000	1772.429688	-93.018425
13309.119043	3903.741000	1771.422852	-131.102554
13309.119043	3903.741000	1770.416016	-31.604507
13309.119043	3903.741000	1769.409180	-126.842010
13309.119043	3903.741000	1768.402344	-84.528259
13309.119043	3903.741000	1767.394531	-111.132347
13309.119043	3903.741000	1766.386719	179.990814
13309.119043	3903.741000	1765.378906	-57.907051
13309.119043	3903.741000	1764.371094	33.737274
13309.119043	3903.741000	1763.362305	-12.247783
13309.119043	3903.741000	1762.354492	100.477242
13309.119043	3903.741000	1761.345703	130.115265
13309.119043	3903.741000	1760.336914	71.982979
13309.119043	3903.741000	1759.328125	23.244272
13309.119043	3903.741000	1758.318359	40.721317
13309.119043	3903.741000	1757.308594	122.017273
13309.119043	3903.741000	1756.299805	165.307953
13309.119043	3903.741000	1755.290039	165.868469
13309.119043	3903.741000	1754.279297	-75.054497
13309.119043	3903.741000	1753.269531	-93.585388
13309.119043	3903.741000	1752.258789	-1.044377
13309.119043	3903.741000	1751.249023	-154.599442
13309.119043	3903.741000	1750.238281	-45.740074
13309.119043	3903.741000	1749.226563	39.324474
13309.119043	3903.741000	1748.215820	10.801858
13309.119043	3903.741000	1747.204102	29.442297
13309.119043	3903.741000	1746.193359	156.664810
13309.119043	3903.741000	1745.181641	-28.100061
13309.119043	3903.741000	1744.168945	-16.873047
13309.119043	3903.741000	1743.157227	-211.190536
13309.119043	3903.741000	1742.144531	-126.953583
13309.119043	3903.741000	1741.132813	-167.952087
13309.119043	3903.741000	1740.120117	-152.406784
13309.119043	3903.741000	1739.106445	68.305229
13309.119043	3903.741000	1738.093750	-72.116013
13309.119043	3903.741000	1737.080078	-38.050999
13309.119043	3903.741000	1736.067383	10.054232
13309.119043	3903.741000	1735.053711	-125.882332
13309.119043	3903.741000	1734.040039	-70.922874
13309.119043	3903.741000	1733.025391	-70.307808
13309.119043	3903.741000	1732.011719	-13.232340
13309.119043	3903.741000	1730.997070	116.745232
13309.119043	3903.741000	1729.982422	13.367860
13309.119043	3903.741000	1728.967773	18.262827
13309.119043	3903.741000	1727.952148	96.038940
13309.119043	3903.741000	1726.937500	53.626045
13309.119043	3903.741000	1725.921875	201.773560
13309.119043	3903.741000	1724.906250	46.183983
13309.119043	3903.741000	1723.890625	36.429981
13309.119043	3903.741000	1722.875000	181.839142
13309.119043	3903.741000	1721.858398	162.442627
13309.119043	3903.741000	1720.841797	131.195343
13309.119043	3903.741000	1719.825195	-31.798725
13309.119043	3903.741000	1718.808594	84.892540
13309.119043	3903.741000	1717.791992	72.180771
13309.119043	3903.741000	1716.774414	24.119247
13309.119043	3903.741000	1715.756836	133.378220
13309.119043	3903.741000	1714.739258	24.056862
13309.119043	3903.741000	1713.721680	95.505356
13309.119043	3903.741000	1712.704102	138.653946
13309.119043	3903.741000	1711.685547	137.077042
13309.119043	3903.741000	1710.667969	191.743759
13309.119043	3903.741000	1709.649414	171.193817
13309.119043	3903.741000	1708.630859	59.057194
13309.119043	3903.741000	1707.611328	92.290787
13309.119043	3903.741000	1706.592773	19.893785
13309.119043	3903.741000	1705.573242	111.553711
13309.119043	3903.741000	1704.553711	149.167526
13309.119043	3903.741000	1703.534180	170.267181
13309.119043	3903.741000	1702.513672	149.074860
13309.119043	3903.741000	1701.494141	280.105316
13309.119043	3903.741000	1700.473633	223.582382
13309.119043	3903.741000	1699.453125	115.465057
13309.119043	3903.741000	1698.432617	154.824417
13309.119043	3903.741000	1697.412109	107.457123
13309.119043	3903.741000	1696.390625	57.667988
13309.119043	3903.741000	1695.369141	61.638016
13309.119043	3903.741000	1694.347656	114.657097
13309.119043	3903.741000	1693.326172	167.571747
13309.119043	3903.741000	1692.304688	103.435555
13309.119043	3903.741000	1691.282227	18.181902
13309.119043	3903.741000	1690.260742	119.933807
13309.119043	3903.741000	1689.238281	102.335464
13309.119043	3903.741000	1688.214844	-188.793106
13309.119043	3903.741000	1687.192383	-159.752258
13309.119043	3903.741000	1686.168945	107.480713
13309.119043	3903.741000	1685.146484	-78.594406
13309.119043	3903.741000	1684.123047	120.639565
13309.119043	3903.741000	1683.099609	-23.505468
13309.119043	3903.741000	1682.075195	2.728570
13309.119043	3903.741000	1681.051758	-181.166763
13309.119043	3903.741000	1680.027344	-68.719299
13309.119043	3903.741000	1679.002930	29.613661
13309.119043	3903.741000	1677.978516	-72.770409
13309.119043	3903.741000	1676.953125	-98.236748
13309.119043	3903.741000	1675.928711	-102.763809
13309.119043	3903.741000	1674.903320	-4.795062
13309.119043	3903.741000	1673.877930	135.022141
13309.119043	3903.741000	1672.852539	-268.260376
13309.119043	3903.741000	1671.826172	-61.024681
13309.119043	3903.741000	1670.800781	-44.937103
13309.119043	3903.741000	1669.774414	96.833771
13309.119043	3903.741000	1668.748047	31.243464
13309.119043	3903.741000	1667.721680	184.461029
13309.119043	3903.741000	1666.694336	188.572906
13309.119043	3903.741000	1665.667969	-44.740925
13309.119043	3903.741000	1664.640625	189.647339
13309.119043	3903.741000	1663.613281	102.851723
13309.119043	3903.741000	1662.585938	302.118469
13309.119043	3903.741000	1661.557617	103.587547
13309.119043	3903.741000	1660.530273	195.718735
13309.119043	3903.741000	1659.501953	83.185318
13309.119043	3903.741000	1658.473633	347.147491
13309.119043	3903.741000	1657.444336	315.838806
13309.119043	3903.741000	1656.416016	409.960663
13309.119043	3903.741000	1655.386719	394.811981
13309.119043	3903.741000	1654.358398	305.323853
13309.119043	3903.741000	1653.328125	313.312439
13309.119043	3903.741000	1652.298828	516.264709
13309.119043	3903.741000	1651.269531	480.037231
13309.119043	3903.741000	1650.239258	515.700256
13309.119043	3903.741000	1649.208984	548.988647
13309.119043	3903.741000	1648.178711	765.472900
13309.119043	3903.741000	1647.148438	745.280273
13309.119043	3903.741000	1646.117188	738.953552
13309.119043	3903.741000	1645.086914	758.109131
13309.119043	3903.741000	1644.055664	784.160339
13309.119043	3903.741000	1643.024414	958.478149
13309.119043	3903.741000	1641.992188	905.621704
13309.119043	3903.741000	1640.960938	878.251648
13309.119043	3903.741000	1639.928711	1089.394531
13309.119043	3903.741000	1638.896484	1122.128174
13309.119043	3903.741000	1637.864258	807.553650
13309.119043	3903.741000	1636.832031	1023.133118
13309.119043	3903.741000	1635.798828	1178.417969
13309.119043	3903.741000	1634.766602	1199.435181
13309.119043	3903.741000	1633.733398	1201.899536
13309.119043	3903.741000	1632.699219	1125.687378
13309.119043	3903.741000	1631.666016	1331.615845
13309.119043	3903.741000	1630.632813	1169.841675
13309.119043	3903.741000	1629.598633	1359.447510
13309.119043	3903.741000	1628.564453	1456.521484
13309.119043	3903.741000	1627.530273	1380.244385
13309.119043	3903.741000	1626.495117	1334.000610
13309.119043	3903.741000	1625.460938	1518.749023
13309.119043	3903.741000	1624.425781	1567.152588
13309.119043	3903.741000	1623.390625	1592.437988
13309.119043	3903.741000	1622.355469	1816.226563
13309.119043	3903.741000	1621.319336	1876.040405
13309.119043	3903.741000	1620.284180	1552.799438
13309.119043	3903.741000	1619.248047	1771.816772
13309.119043	3903.741000	1618.211914	1448.697266
13309.119043	3903.741000	1617.174805	1432.402222
13309.119043	3903.741000	1616.138672	1785.038086
13309.119043	3903.741000	1615.101563	1775.598755
13309.119043	3903.741000	1614.065430	1858.372314
13309.119043	3903.741000	1613.027344	1772.869507
13309.119043	3903.741000	1611.990234	1747.320557
13309.119043	3903.741000	1610.953125	1795.497437
13309.119043	3903.741000	1609.915039	1721.588379
13309.119043	3903.741000	1608.876953	1709.886353
13309.119043	3903.741000	1607.838867	1831.719849
13309.119043	3903.741000	1606.800781	1573.744507
13309.119043	3903.741000	1605.761719	1759.998169
13309.119043	3903.741000	1604.723633	1833.472778
13309.119043	3903.741000	1603.684570	1952.923096
13309.119043	3903.741000	1602.644531	1743.450317
13309.119043	3903.741000	1601.605469	2049.158447
13309.119043	3903.741000	1600.566406	2113.376221
13309.119043	3903.741000	1599.526367	2186.768555
13309.119043	3903.741000	1598.486328	2179.721191
13309.119043	3903.741000	1597.446289	2478.283447
13309.119043	3903.741000	1596.405273	2625.124756
13309.119043	3903.741000	1595.365234	2496.343506
13309.119043	3903.741000	1594.324219	2668.435791
13309.119043	3903.741000	1593.283203	2631.570557
13309.119043	3903.741000	1592.242188	2615.407471
13309.119043	3903.741000	1591.200195	2491.405518
13309.119043	3903.741000	1590.159180	2298.665039
13309.119043	3903.741000	1589.117188	2408.830566
13309.119043	3903.741000	1588.075195	2379.079102
13309.119043	3903.741000	1587.032227	2349.362549
13309.119043	3903.741000	1585.990234	2475.610840
13309.119043	3903.741000	1584.947266	2363.442383
13309.119043	3903.741000	1583.904297	2512.622070
13309.119043	3903.741000	1582.861328	2240.179688
13309.119043	3903.741000	1581.818359	2313.809814
13309.119043	3903.741000	1580.775391	2547.786133
13309.119043	3903.741000	1579.731445	2367.214844
13309.119043	3903.741000	1578.687500	2367.634766
13309.119043	3903.741000	1577.643555	2365.812988
13309.119043	3903.741000	1576.598633	2119.143066
13309.119043	3903.741000	1575.554688	2236.457031
13309.119043	3903.741000	1574.509766	2056.356689
13309.119043	3903.741000	1573.464844	2157.717285
13309.119043	3903.741000	1572.419922	1813.157715
13309.119043	3903.741000	1571.374023	1775.152954
13309.119043	3903.741000	1570.329102	1936.111816
13309.119043	3903.741000	1569.283203	1742.799805
13309.119043	3903.741000	1568.237305	1794.123535
13309.119043	3903.741000	1567.191406	1660.434937
13309.119043	3903.741000	1566.144531	1538.268433
13309.119043	3903.741000	1565.098633	1448.198486
13309.119043	3903.741000	1564.051758	1776.052368
13309.119043	3903.741000	1563.004883	1199.849121
13309.119043	3903.741000	1561.957031	1320.047974
13309.119043	3903.741000	1560.910156	1483.637939
13309.119043	3903.741000	1559.862305	1658.626709
13309.119043	3903.741000	1558.814453	1673.945801
13309.119043	3903.741000	1557.766602	1488.641357
13309.119043	3903.741000	1556.718750	1465.371582
13309.119043	3903.741000	1555.669922	1663.301514
13309.119043	3903.741000	1554.621094	1480.597778
13309.119043	3903.741000	1553.573242	1489.472290
13309.119043	3903.741000	1552.523438	1692.055176
13309.119043	3903.741000	1551.474609	1842.257568
13309.119043	3903.741000	1550.424805	1605.305542
13309.119043	3903.741000	1549.375000	1730.569092
13309.119043	3903.741000	1548.325195	1687.401978
13309.119043	3903.741000	1547.275391	1439.486816
13309.119043	3903.741000	1546.225586	1601.370728
13309.119043	3903.741000	1545.174805	1551.671509
13309.119043	3903.741000	1544.124023	1495.253906
13309.119043	3903.741000	1543.073242	1511.725464
13309.119043	3903.741000	1542.022461	1496.444702
13309.119043	3903.741000	1540.970703	1615.380371
13309.119043	3903.741000	1539.919922	1472.981812
13309.119043	3903.741000	1538.868164	1587.513794
13309.119043	3903.741000	1537.815430	1745.251953
13309.119043	3903.741000	1536.763672	1612.268188
13309.119043	3903.741000	1535.710938	1772.400024
13309.119043	3903.741000	1534.659180	1923.495239
13309.119043	3903.741000	1533.606445	1840.779419
13309.119043	3903.741000	1532.552734	2085.038086
13309.119043	3903.741000	1531.500000	1811.894531
13309.119043	3903.741000	1530.446289	1856.597656
13309.119043	3903.741000	1529.393555	1749.408203
13309.119043	3903.741000	1528.338867	1631.003174
13309.119043	3903.741000	1527.285156	1617.066650
13309.119043	3903.741000	1526.231445	1430.939575
13309.119043	3903.741000	1525.176758	1410.448364
13309.119043	3903.741000	1524.122070	1154.384888
13309.119043	3903.741000	1523.067383	984.629578
13309.119043	3903.741000	1522.012695	1089.155151
13309.119043	3903.741000	1520.957031	987.635193
13309.119043	3903.741000	1519.901367	845.505310
13309.119043	3903.741000	1518.845703	898.245911
13309.119043	3903.741000	1517.790039	754.150757
13309.119043	3903.741000	1516.734375	730.168823
13309.119043	3903.741000	1515.677734	742.504456
13309.119043	3903.741000	1514.621094	843.174927
13309.119043	3903.741000	1513.564453	733.579346
13309.119043	3903.741000	1512.507813	624.143250
13309.119043	3903.741000	1511.450195	630.162231
13309.119043	3903.741000	1510.393555	812.618774
13309.119043	3903.741000	1509.335938	407.523285
13309.119043	3903.741000	1508.278320	567.586548
13309.119043	3903.741000	1507.219727	644.112305
13309.119043	3903.741000	1506.162109	501.652405
13309.119043	3903.741000	1505.103516	307.425201
13309.119043	3903.741000	1504.044922	278.211212
13309.119043	3903.741000	1502.986328	310.079468
13309.119043	3903.741000	1501.926758	267.576477
13309.119043	3903.741000	1500.868164	378.657135
13309.119043	3903.741000	1499.808594	316.104340
13309.119043	3903.741000	1498.749023	346.178497
13309.119043	3903.741000	1497.688477	250.078918
13309.119043	3903.741000	1496.628906	314.228180
13309.119043	3903.741000	1495.568359	407.778351
13309.119043	3903.741000	1494.507813	197.170868
13309.119043	3903.741000	1493.447266	392.362366
13309.119043	3903.741000	1492.386719	229.410965
13309.119043	3903.741000	1491.325195	3.584051
13309.119043	3903.741000	1490.263672	61.718060
13309.119043	3903.741000	1489.202148	151.481461
13309.119043	3903.741000	1488.140625	155.804413
13309.119043	3903.741000	1487.079102	-13.034299
13309.119043	3903.741000	1486.016602	-6.168087
13309.119043	3903.741000	1484.954102	18.826687
13309.119043	3903.741000	1483.891602	-57.267319
13309.119043	3903.741000	1482.829102	237.849136
13309.119043	3903.741000	1481.765625	0.128071
13309.119043	3903.741000	1480.702148	-46.285770
13309.119043	3903.741000	1479.638672	-213.891022
13309.119043	3903.741000	1478.575195	5.171082
13309.119043	3903.741000	1477.511719	147.880402
13309.119043	3903.741000	1476.447266	90.870163
13309.119043	3903.741000	1475.382813	271.944611
13309.119043	3903.741000	1474.318359	423.881348
13309.119043	3903.741000	1473.253906	863.147583
13309.119043	3903.741000	1472.189453	878.434875
13309.119043	3903.741000	1471.124023	934.121338
13309.119043	3903.741000	1470.058594	1101.999634
13309.119043	3903.741000	1468.993164	1164.733154
13309.119043	3903.741000	1467.927734	1225.155151
13309.119043	3903.741000	1466.861328	1227.505493
13309.119043	3903.741000	1465.794922	1079.671875
13309.119043	3903.741000	1464.728516	972.600830
13309.119043	3903.741000	1463.662109	1019.797546
13309.119043	3903.741000	1462.594727	781.074463
13309.119043	3903.741000	1461.528320	540.285767
13309.119043	3903.741000	1460.460938	456.660858
13309.119043	3903.741000	1459.393555	428.405182
13309.119043	3903.741000	1458.326172	436.832275
13309.119043	3903.741000	1457.257813	628.095154
13309.119043	3903.741000	1456.189453	698.960327
13309.119043	3903.741000	1455.121094	442.173859
13309.119043	3903.741000	1454.052734	747.044495
13309.119043	3903.741000	1452.984375	569.579102
13309.119043	3903.741000	1451.915039	698.486023
13309.119043	3903.741000	1450.845703	496.782806
13309.119043	3903.741000	1449.776367	768.492065
13309.119043	3903.741000	1448.707031	619.270996
13309.119043	3903.741000	1447.636719	588.870300
13309.119043	3903.741000	1446.567383	533.411682
13309.119043	3903.741000	1445.497070	733.656555
13309.119043	3903.741000	1444.425781	641.360168
13309.119043	3903.741000	1443.355469	733.249756
13309.119043	3903.741000	1442.285156	514.467834
13309.119043	3903.741000	1441.213867	582.055969
13309.119043	3903.741000	1440.142578	460.702271
13309.119043	3903.741000	1439.070313	160.353760
13309.119043	3903.741000	1437.999023	484.991150
13309.119043	3903.741000	1436.926758	366.015564
13309.119043	3903.741000	1435.854492	403.074493
13309.119043	3903.741000	1434.782227	617.664795
13309.119043	3903.741000	1433.709961	568.171143
13309.119043	3903.741000	1432.636719	615.996338
13309.119043	3903.741000	1431.563477	582.699402
13309.119043	3903.741000	1430.490234	600.924561
13309.119043	3903.741000	1429.416992	695.524231
13309.119043	3903.741000	1428.343750	870.268677
13309.119043	3903.741000	1427.269531	736.108276
13309.119043	3903.741000	1426.195313	632.206604
13309.119043	3903.741000	1425.121094	775.898438
13309.119043	3903.741000	1424.046875	993.464783
13309.119043	3903.741000	1422.971680	1110.059570
13309.119043	3903.741000	1421.896484	952.145691
13309.119043	3903.741000	1420.821289	1074.415161
13309.119043	3903.741000	1419.746094	940.740845
13309.119043	3903.741000	1418.669922	1120.093506
13309.119043	3903.741000	1417.594727	933.786438
13309.119043	3903.741000	1416.518555	940.871155
13309.119043	3903.741000	1415.442383	853.471802
13309.119043	3903.741000	1414.365234	857.861450
13309.119043	3903.741000	1413.289063	710.087646
13309.119043	3903.741000	1412.211914	638.975342
13309.119043	3903.741000	1411.134766	522.499695
13309.119043	3903.741000	1410.057617	589.253113
13309.119043	3903.741000	1408.979492	561.522827
13309.119043	3903.741000	1407.902344	713.422485
13309.119043	3903.741000	1406.824219	507.926666
13309.119043	3903.741000	1405.746094	566.116272
13309.119043	3903.741000	1404.666992	561.469604
13309.119043	3903.741000	1403.588867	567.081543
13309.119043	3903.741000	1402.509766	304.803650
13309.119043	3903.741000	1401.430664	545.075623
13309.119043	3903.741000	1400.351563	724.289612
13309.119043	3903.741000	1399.271484	742.197754
13309.119043	3903.741000	1398.192383	450.740356
13309.119043	3903.741000	1397.112305	511.799530
13309.119043	3903.741000	1396.031250	500.381897
13309.119043	3903.741000	1394.951172	653.488525
13309.119043	3903.741000	1393.871094	603.557373
13309.119043	3903.741000	1392.790039	695.959473
13309.119043	3903.741000	1391.708984	629.643188
13309.119043	3903.741000	1390.626953	579.774658
13309.119043	3903.741000	1389.545898	554.227722
13309.119043	3903.741000	1388.463867	784.155762
13309.119043	3903.741000	1387.381836	773.232239
13309.119043	3903.741000	1386.299805	765.994507
13309.119043	3903.741000	1385.217773	670.182068
13309.119043	3903.741000	1384.134766	768.050781
13309.119043	3903.741000	1383.051758	829.884644
13309.119043	3903.741000	1381.968750	478.527740
13309.119043	3903.741000	1380.885742	612.380737
13309.119043	3903.741000	1379.802734	575.071777
13309.119043	3903.741000	1378.718750	532.916687
13309.119043	3903.741000	1377.634766	600.490051
13309.119043	3903.741000	1376.550781	678.162109
13309.119043	3903.741000	1375.465820	859.552795
13309.119043	3903.741000	1374.381836	856.105713
13309.119043	3903.741000	1373.296875	975.716675
13309.119043	3903.741000	1372.211914	1163.947998
13309.119043	3903.741000	1371.126953	1161.055542
13309.119043	3903.741000	1370.041016	1361.826782
13309.119043	3903.741000	1368.955078	1477.293213
13309.119043	3903.741000	1367.869141	1383.240112
13309.119043	3903.741000	1366.783203	1236.119873
13309.119043	3903.741000	1365.697266	1242.632690
13309.119043	3903.741000	1364.610352	1131.608521
13309.119043	3903.741000	1363.523438	996.299927
13309.119043	3903.741000	1362.436523	908.343750
13309.119043	3903.741000	1361.349609	1020.771362
13309.119043	3903.741000	1360.261719	896.841675
13309.119043	3903.741000	1359.174805	940.099731
13309.119043	3903.741000	1358.086914	793.112183
13309.119043	3903.741000	1356.998047	883.102966
13309.119043	3903.741000	1355.910156	985.662476
13309.119043	3903.741000	1354.821289	957.444824
13309.119043	3903.741000	1353.732422	1162.245605
13309.119043	3903.741000	1352.643555	1036.514160
13309.119043	3903.741000	1351.554688	1052.489624
13309.119043	3903.741000	1350.464844	1185.304810
13309.119043	3903.741000	1349.375000	1154.847778
13309.119043	3903.741000	1348.285156	1360.015869
13309.119043	3903.741000	1347.195313	1212.698853
13309.119043	3903.741000	1346.105469	1252.552979
13309.119043	3903.741000	1345.014648	1364.499390
13309.119043	3903.741000	1343.923828	1240.777222
13309.119043	3903.741000	1342.833008	1395.524170
13309.119043	3903.741000	1341.741211	1382.210449
13309.119043	3903.741000	1340.650391	1290.219727
13309.119043	3903.741000	1339.558594	1330.142090
13309.119043	3903.741000	1338.466797	1196.745483
13309.119043	3903.741000	1337.374023	1043.944824
13309.119043	3903.741000	1336.282227	1054.617188
13309.119043	3903.741000	1335.189453	1031.252686
13309.119043	3903.741000	1334.096680	1017.459839
13309.119043	3903.741000	1333.003906	1077.296997
13309.119043	3903.741000	1331.910156	1123.194214
13309.119043	3903.741000	1330.817383	1109.593994
13309.119043	3903.741000	1329.723633	1227.807739
13309.119043	3903.741000	1328.629883	1029.797852
13309.119043	3903.741000	1327.535156	938.780762
13309.119043	3903.741000	1326.441406	882.922913
13309.119043	3903.741000	1325.346680	587.102661
13309.119043	3903.741000	1324.251953	700.170837
13309.119043	3903.741000	1323.156250	770.261963
13309.119043	3903.741000	1322.061523	626.048889
13309.119043	3903.741000	1320.965820	655.538452
13309.119043	3903.741000	1319.870117	520.084900
13309.119043	3903.741000	1318.774414	561.790710
13309.119043	3903.741000	1317.678711	608.064819
13309.119043	3903.741000	1316.582031	516.256287
13309.119043	3903.741000	1315.485352	443.493530
13309.119043	3903.741000	1314.388672	669.616150
13309.119043	3903.741000	1313.291016	562.331787
13309.119043	3903.741000	1312.194336	631.599915
13309.119043	3903.741000	1311.096680	739.053528
13309.119043	3903.741000	1309.999023	587.564026
13309.119043	3903.741000	1308.901367	674.153564
13309.119043	3903.741000	1307.802734	629.665710
13309.119043	3903.741000	1306.705078	348.454987
13309.119043	3903.741000	1305.606445	333.975220
13309.119043	3903.741000	1304.506836	495.926636
13309.119043	3903.741000	1303.408203	394.310822
13309.119043	3903.741000	1302.308594	192.710876
13309.119043	3903.741000	1301.208984	325.140167
13309.119043	3903.741000	1300.109375	373.988159
13309.119043	3903.741000	1299.009766	379.471466
13309.119043	3903.741000	1297.909180	302.411621
13309.119043	3903.741000	1296.808594	369.183075
13309.119043	3903.741000	1295.708008	328.496582
13309.119043	3903.741000	1294.607422	233.275803
13309.119043	3903.741000	1293.506836	205.289063
13309.119043	3903.741000	1292.405273	117.773170
13309.119043	3903.741000	1291.303711	96.962708
13309.119043	3903.741000	1290.202148	241.323288
13309.119043	3903.741000	1289.099609	299.315460
13309.119043	3903.741000	1287.998047	215.827148
13309.119043	3903.741000	1286.895508	435.782623
13309.119043	3903.741000	1285.792969	434.220886
13309.119043	3903.741000	1284.689453	286.913239
13309.119043	3903.741000	1283.586914	192.052963
13309.119043	3903.741000	1282.483398	164.811630
13309.119043	3903.741000	1281.379883	53.122711
13309.119043	3903.741000	1280.276367	85.526031
13309.119043	3903.741000	1279.171875	28.111364
13309.119043	3903.741000	1278.067383	56.531765
13309.119043	3903.741000	1276.962891	145.534103
13309.119043	3903.741000	1275.858398	106.562523
13309.119043	3903.741000	1274.753906	196.428345
13309.119043	3903.741000	1273.648438	-42.888885
13309.119043	3903.741000	1272.542969	-98.231354
13309.119043	3903.741000	1271.437500	22.451527
13309.119043	3903.741000	1270.331055	113.446014
13309.119043	3903.741000	1269.225586	111.570625
13309.119043	3903.741000	1268.119141	-97.894859
13309.119043	3903.741000	1267.012695	28.929905
13309.119043	3903.741000	1265.906250	65.604301
13309.119043	3903.741000	1264.798828	-120.418312
13309.119043	3903.741000	1263.691406	-86.024239
13309.119043	3903.741000	1262.583984	-4.417772
13309.119043	3903.741000	1261.476563	-190.160614
13309.119043	3903.741000	1260.368164	-33.055180
13309.119043	3903.741000	1259.260742	-90.633865
13309.119043	3903.741000	1258.152344	-300.823578
13309.119043	3903.741000	1257.043945	-183.194321
13309.119043	3903.741000	1255.934570	-66.477173
13309.119043	3903.741000	1254.825195	17.254927
13309.119043	3903.741000	1253.716797	82.360649
13309.119043	3903.741000	1252.606445	90.593422
13309.119043	3903.741000	1251.497070	183.684860
13309.119043	3903.741000	1250.387695	201.781830
13309.119043	3903.741000	1249.277344	112.588867
13309.119043	3903.741000	1248.166992	268.291779
13309.119043	3903.741000	1247.055664	204.466217
13309.119043	3903.741000	1245.945313	192.352097
13309.119043	3903.741000	1244.833984	220.358627
13309.119043	3903.741000	1243.722656	288.870850
13309.119043	3903.741000	1242.611328	405.175781
13309.119043	3903.741000	1241.499023	304.464264
13309.119043	3903.741000	1240.387695	448.597351
13309.119043	3903.741000	1239.275391	390.717682
13309.119043	3903.741000	1238.162109	448.939362
13309.119043	3903.741000	1237.049805	306.840302
13309.119043	3903.741000	1235.936523	385.322906
13309.119043	3903.741000	1234.823242	115.561256
13309.119043	3903.741000	1233.709961	60.901997
13309.119043	3903.741000	1232.596680	193.109680
13309.119043	3903.741000	1231.482422	96.308746
13309.119043	3903.741000	1230.369141	89.918060
13309.119043	3903.741000	1229.253906	110.689949
13309.119043	3903.741000	1228.139648	6.750857
13309.119043	3903.741000	1227.025391	-86.816757
13309.119043	3903.741000	1225.910156	47.735512
13309.119043	3903.741000	1224.794922	-53.047897
13309.119043	3903.741000	1223.679688	-60.063511
13309.119043	3903.741000	1222.563477	21.628452
13309.119043	3903.741000	1221.447266	25.897686
13309.119043	3903.741000	1220.331055	-30.742159
13309.119043	3903.741000	1219.214844	-28.161213
13309.119043	3903.741000	1218.098633	8.410049
13309.119043	3903.741000	1216.981445	149.769730
13309.119043	3903.741000	1215.864258	109.197807
13309.119043	3903.741000	1214.747070	74.086884
13309.119043	3903.741000	1213.629883	85.802193
13309.119043	3903.741000	1212.511719	183.847839
13309.119043	3903.741000	1211.393555	192.624023
13309.119043	3903.741000	1210.275391	126.771423
13309.119043	3903.741000	1209.157227	178.786179
13309.119043	3903.741000	1208.038086	229.863678
13309.119043	3903.741000	1206.918945	166.489258
13309.119043	3903.741000	1205.799805	220.364136
13309.119043	3903.741000	1204.680664	252.910294
13309.119043	3903.741000	1203.560547	167.882584
13309.119043	3903.741000	1202.441406	181.726563
13309.119043	3903.741000	1201.321289	78.638405
13309.119043	3903.741000	1200.200195	37.847607
13309.119043	3903.741000	1199.080078	-11.612162
13309.119043	3903.741000	1197.958984	92.605469
13309.119043	3903.741000	1196.837891	86.267441
13309.119043	3903.741000	1195.716797	9.317233
13309.119043	3903.741000	1194.594727	169.747772
13309.119043	3903.741000	1193.473633	15.633212
13309.119043	3903.741000	1192.351563	91.092995
13309.119043	3903.741000	1191.229492	146.570068
13309.119043	3903.741000	1190.106445	121.078705
13309.119043	3903.741000	1188.984375	130.858444
13309.119043	3903.741000	1187.861328	10.153451
13309.119043	3903.741000	1186.738281	180.812134
13309.119043	3903.741000	1185.614258	227.415039
13309.119043	3903.741000	1184.491211	280.303650
13309.119043	3903.741000	1183.367188	200.070419
13309.119043	3903.741000	1182.243164	214.105988
13309.119043	3903.741000	1181.119141	194.725052
13309.119043	3903.741000	1179.994141	66.557770
13309.119043	3903.741000	1178.869141	83.825005
13309.119043	3903.741000	1177.744141	63.684246
13309.119043	3903.741000	1176.619141	239.546921
13309.119043	3903.741000	1175.493164	190.428772
13309.119043	3903.741000	1174.368164	90.079430
13309.119043	3903.741000	1173.242188	-22.849834
13309.119043	3903.741000	1172.115234	118.305206
13309.119043	3903.741000	1170.989258	75.204697
13309.119043	3903.741000	1169.862305	124.211517
13309.119043	3903.741000	1168.735352	47.910347
13309.119043	3903.741000	1167.608398	113.815224
13309.119043	3903.741000	1166.481445	28.777096
13309.119043	3903.741000	1165.353516	-93.853729
13309.119043	3903.741000	1164.225586	-105.656380
13309.119043	3903.741000	1163.097656	-33.456646
13309.119043	3903.741000	1161.968750	-29.470755
13309.119043	3903.741000	1160.840820	-96.884186
13309.119043	3903.741000	1159.711914	-137.244125
13309.119043	3903.741000	1158.583008	-139.212387
13309.119043	3903.741000	1157.453125	93.347115
13309.119043	3903.741000	1156.324219	-85.332603
13309.119043	3903.741000	1155.194336	-107.278648
13309.119043	3903.741000	1154.064453	-95.065666
13309.119043	3903.741000	1152.933594	-51.018677
13309.119043	3903.741000	1151.803711	-194.772324
13309.119043	3903.741000	1150.672852	-40.842457
13309.119043	3903.741000	1149.541992	-96.199890
13309.119043	3903.741000	1148.411133	-5.060900
13309.119043	3903.741000	1147.279297	-59.749802
13309.119043	3903.741000	1146.147461	-75.954002
13309.119043	3903.741000	1145.015625	-7.281343
13309.119043	3903.741000	1143.883789	-152.483200
13309.119043	3903.741000	1142.750977	-86.650726
13309.119043	3903.741000	1141.619141	-99.136070
13309.119043	3903.741000	1140.486328	-39.092838
13309.119043	3903.741000	1139.352539	-135.599716
13309.119043	3903.741000	1138.219727	-111.290672
13309.119043	3903.741000	1137.085938	-187.755234
13309.119043	3903.741000	1135.952148	-8.811949
13309.119043	3903.741000	1134.818359	-5.024636
13309.119043	3903.741000	1133.683594	88.958496
13309.119043	3903.741000	1132.549805	146.078400
13309.119043	3903.741000	1131.415039	239.690262
13309.119043	3903.741000	1130.279297	335.976227
13309.119043	3903.741000	1129.144531	388.163818
13309.119043	3903.741000	1128.008789	461.668427
13309.119043	3903.741000	1126.873047	407.038239
13309.119043	3903.741000	1125.737305	356.202789
13309.119043	3903.741000	1124.601563	254.987946
13309.119043	3903.741000	1123.464844	369.725494
13309.119043	3903.741000	1122.328125	364.384857
13309.119043	3903.741000	1121.191406	522.623108
13309.119043	3903.741000	1120.054688	510.908783
13309.119043	3903.741000	1118.916992	528.848816
13309.119043	3903.741000	1117.779297	384.693176
13309.119043	3903.741000	1116.641602	282.166382
13309.119043	3903.741000	1115.503906	362.659882
13309.119043	3903.741000	1114.365234	413.457092
13309.119043	3903.741000	1113.226563	457.735107
13309.119043	3903.741000	1112.087891	421.897186
13309.119043	3903.741000	1110.949219	474.979340
13309.119043	3903.741000	1109.809570	400.842865
13309.119043	3903.741000	1108.669922	411.685699
13309.119043	3903.741000	1107.530273	512.085938
13309.119043	3903.741000	1106.390625	458.480011
13309.119043	3903.741000	1105.250000	419.032684
13309.119043	3903.741000	1104.109375	448.997955
13309.119043	3903.741000	1102.968750	493.016357
13309.119043	3903.741000	1101.828125	621.525391
13309.119043	3903.741000	1100.686523	684.883911
13309.119043	3903.741000	1099.544922	736.079651
13309.119043	3903.741000	1098.403320	683.823486
13309.119043	3903.741000	1097.261719	767.505066
13309.119043	3903.741000	1096.120117	732.227051
13309.119043	3903.741000	1094.977539	806.813721
13309.119043	3903.741000	1093.834961	688.249329
13309.119043	3903.741000	1092.691406	730.900085
13309.119043	3903.741000	1091.548828	905.137085
13309.119043	3903.741000	1090.405273	941.104919
13309.119043	3903.741000	1089.261719	1040.658081
13309.119043	3903.741000	1088.118164	840.063416
13309.119043	3903.741000	1086.973633	998.743408
13309.119043	3903.741000	1085.829102	1237.924927
13309.119043	3903.741000	1084.684570	1371.503784
13309.119043	3903.741000	1083.540039	1306.189941
13309.119043	3903.741000	1082.395508	1399.130981
13309.119043	3903.741000	1081.250000	1552.387939
13309.119043	3903.741000	1080.104492	1570.863892
13309.119043	3903.741000	1078.958984	1476.738770
13309.119043	3903.741000	1077.812500	1388.956909
13309.119043	3903.741000	1076.666016	1379.477661
13309.119043	3903.741000	1075.519531	1223.689575
13309.119043	3903.741000	1074.373047	1174.178955
13309.119043	3903.741000	1073.226563	1098.955811
13309.119043	3903.741000	1072.079102	1034.753418
13309.119043	3903.741000	1070.931641	950.350525
13309.119043	3903.741000	1069.784180	1222.730713
13309.119043	3903.741000	1068.635742	1128.804932
13309.119043	3903.741000	1067.487305	1129.487915
13309.119043	3903.741000	1066.338867	1378.496704
13309.119043	3903.741000	1065.190430	1311.416504
13309.119043	3903.741000	1064.041992	1439.336426
13309.119043	3903.741000	1062.892578	1204.403564
13309.119043	3903.741000	1061.743164	1385.064087
13309.119043	3903.741000	1060.593750	1294.818359
13309.119043	3903.741000	1059.443359	904.261414
13309.119043	3903.741000	1058.292969	1080.647461
13309.119043	3903.741000	1057.142578	902.600647
13309.119043	3903.741000	1055.992188	860.342285
13309.119043	3903.741000	1054.841797	858.775879
13309.119043	3903.741000	1053.690430	766.044067
13309.119043	3903.741000	1052.539063	795.251953
13309.119043	3903.741000	1051.387695	698.781799
13309.119043	3903.741000	1050.235352	689.922363
13309.119043	3903.741000	1049.083984	775.748474
13309.119043	3903.741000	1047.931641	515.176270
13309.119043	3903.741000	1046.778320	519.080017
13309.119043	3903.741000	1045.625977	575.832642
13309.119043	3903.741000	1044.472656	464.074646
13309.119043	3903.741000	1043.319336	330.002502
13309.119043	3903.741000	1042.166016	338.558075
13309.119043	3903.741000	1041.012695	359.604095
13309.119043	3903.741000	1039.858398	319.501190
13309.119043	3903.741000	1038.704102	316.074127
13309.119043	3903.741000	1037.549805	175.659760
13309.119043	3903.741000	1036.394531	317.507751
13309.119043	3903.741000	1035.239258	247.241821
13309.119043	3903.741000	1034.083984	226.547043
13309.119043	3903.741000	1032.928711	263.160736
13309.119043	3903.741000	1031.773438	175.018906
13309.119043	3903.741000	1030.617188	262.263062
13309.119043	3903.741000	1029.460938	293.409332
13309.119043	3903.741000	1028.304688	389.208710
13309.119043	3903.741000	1027.147461	550.210754
13309.119043	3903.741000	1025.991211	533.909241
13309.119043	3903.741000	1024.833984	530.152649
13309.119043	3903.741000	1023.675781	423.283081
13309.119043	3903.741000	1022.518555	495.727844
13309.119043	3903.741000	1021.360352	328.670013
13309.119043	3903.741000	1020.202148	259.730255
13309.119043	3903.741000	1019.043945	205.665955
13309.119043	3903.741000	1017.884766	259.671783
13309.119043	3903.741000	1016.726563	257.163757
13309.119043	3903.741000	1015.567383	115.766922
13309.119043	3903.741000	1014.407227	378.487061
13309.119043	3903.741000	1013.248047	325.288361
13309.119043	3903.741000	1012.087891	302.692566
13309.119043	3903.741000	1010.927734	109.491661
13309.119043	3903.741000	1009.767578	276.692596
13309.119043	3903.741000	1008.606445	307.880707
13309.119043	3903.741000	1007.446289	417.480774
13309.119043	3903.741000	1006.285156	151.053513
13309.119043	3903.741000	1005.123047	10.236121
13309.119043	3903.741000	1003.961914	322.965302
13309.119043	3903.741000	1002.799805	255.754715
13309.119043	3903.741000	1001.637695	165.351822
13309.119043	3903.741000	1000.475586	-45.095787
13309.119043	3903.741000	999.312500	260.241089
13309.119043	3903.741000	998.149414	324.969452
13309.119043	3903.741000	996.986328	78.670029
13309.119043	3903.741000	995.823242	134.467941
13309.119043	3903.741000	994.659180	162.035461
13309.119043	3903.741000	993.496094	267.770111
13309.119043	3903.741000	992.332031	155.064133
13309.119043	3903.741000	991.166992	147.989319
13309.119043	3903.741000	990.002930	105.327705
13309.119043	3903.741000	988.837891	229.251572
13309.119043	3903.741000	987.672852	99.647629
13309.119043	3903.741000	986.506836	16.843172
13309.119043	3903.741000	985.341797	218.187958
13309.119043	3903.741000	984.175781	206.691330
13309.119043	3903.741000	983.009766	324.388611
13309.119043	3903.741000	981.843750	323.900116
13309.119043	3903.741000	980.676758	310.263336
13309.119043	3903.741000	979.509766	227.014709
13309.119043	3903.741000	978.342773	183.446381
13309.119043	3903.741000	977.175781	88.214294
13309.119043	3903.741000	976.007813	216.034546
13309.119043	3903.741000	974.839844	294.643402
13309.119043	3903.741000	973.671875	201.968262
13309.119043	3903.741000	972.503906	162.540558
13309.119043	3903.741000	971.334961	261.677795
13309.119043	3903.741000	970.166016	215.790741
13309.119043	3903.741000	968.997070	199.359009
13309.119043	3903.741000	967.828125	89.168411
13309.119043	3903.741000	966.658203	77.236549
13309.119043	3903.741000	965.488281	249.398117
13309.119043	3903.741000	964.318359	322.030670
13309.119043	3903.741000	963.148438	260.020142
13309.119043	3903.741000	961.977539	13.097386
13309.119043	3903.741000	960.806641	-27.595200
13309.119043	3903.741000	959.635742	40.287258
13309.119043	3903.741000	958.463867	-25.432165
13309.119043	3903.741000	957.292969	-63.063782
13309.119043	3903.741000	956.121094	108.353333
13309.119043	3903.741000	954.948242	160.196671
13309.119043	3903.741000	953.776367	-61.738453
13309.119043	3903.741000	952.603516	30.450125
13309.119043	3903.741000	951.430664	75.061249
13309.119043	3903.741000	950.257813	94.050125
13309.119043	3903.741000	949.084961	135.272827
13309.119043	3903.741000	947.911133	101.665962
13309.119043	3903.741000	946.737305	119.153938
13309.119043	3903.741000	945.563477	-26.448669
13309.119043	3903.741000	944.388672	155.286850
13309.119043	3903.741000	943.213867	-14.176448
13309.119043	3903.741000	942.039063	40.804104
13309.119043	3903.741000	940.864258	5.102133
13309.119043	3903.741000	939.688477	90.998329
13309.119043	3903.741000	938.513672	283.980377
13309.119043	3903.741000	937.337891	136.335159
13309.119043	3903.741000	936.161133	17.063633
13309.119043	3903.741000	934.985352	176.745407
13309.119043	3903.741000	933.808594	148.075409
13309.119043	3903.741000	932.631836	350.638885
13309.119043	3903.741000	931.454102	143.079132
13309.119043	3903.741000	930.277344	193.037430
13309.119043	3903.741000	929.099609	-71.577621
13309.119043	3903.741000	927.921875	54.542423
13309.119043	3903.741000	926.743164	56.781544
13309.119043	3903.741000	925.565430	-76.788773
13309.119043	3903.741000	924.386719	-84.135506
13309.119043	3903.741000	923.208008	-134.336411
13309.119043	3903.741000	922.028320	-25.051544
13309.119043	3903.741000	920.849609	-89.551613
13309.119043	3903.741000	919.669922	-88.271011
13309.119043	3903.741000	919.474609	91.243874
13309.119043	3903.741000	918.309570	-87.486595
13309.119043	3903.741000	917.143555	-104.424355
13309.119043	3903.741000	915.977539	99.778633
13309.119043	3903.741000	914.810547	-9.931856
13309.119043	3903.741000	913.644531	42.022182
13309.119043	3903.741000	912.477539	-77.159058
13309.119043	3903.741000	911.310547	22.288006
13309.119043	3903.741000	910.143555	-13.718252
13309.119043	3903.741000	908.975586	147.408035
13309.119043	3903.741000	907.807617	-52.468506
13309.119043	3903.741000	906.639648	-2.997356
13309.119043	3903.741000	905.471680	-126.824623
13309.119043	3903.741000	904.303711	-120.089577
13309.119043	3903.741000	903.134766	-75.401733
13309.119043	3903.741000	901.965820	-104.274872
13309.119043	3903.741000	900.796875	2.040394
13309.119043	3903.741000	899.626953	32.430103
13309.119043	3903.741000	898.457031	43.836048
13309.119043	3903.741000	897.287109	97.895279
13309.119043	3903.741000	896.117188	87.945526
13309.119043	3903.741000	894.947266	151.440735
13309.119043	3903.741000	893.776367	37.251236
13309.119043	3903.741000	892.605469	3.624483
13309.119043	3903.741000	891.434570	33.936745
13309.119043	3903.741000	890.262695	26.357656
13309.119043	3903.741000	889.091797	-111.396523
13309.119043	3903.741000	887.919922	1.732414
13309.119043	3903.741000	886.748047	62.763851
13309.119043	3903.741000	885.575195	-34.709274
13309.119043	3903.741000	884.403320	0.286111
13309.119043	3903.741000	883.230469	108.561584
13309.119043	3903.741000	882.057617	-76.332253
13309.119043	3903.741000	880.883789	-43.717537
13309.119043	3903.741000	879.710938	17.236689
13309.119043	3903.741000	878.537109	-11.607265
13309.119043	3903.741000	877.362305	228.824020
13309.119043	3903.741000	876.188477	152.716492
13309.119043	3903.741000	875.013672	208.856232
13309.119043	3903.741000	873.839844	161.108841
13309.119043	3903.741000	872.664063	99.221718
13309.119043	3903.741000	871.489258	72.751961
13309.119043	3903.741000	870.313477	145.374298
13309.119043	3903.741000	869.138672	260.420593
13309.119043	3903.741000	867.962891	71.225235
13309.119043	3903.741000	866.786133	68.360580
13309.119043	3903.741000	865.610352	32.496376
13309.119043	3903.741000	864.433594	72.060715
13309.119043	3903.741000	863.256836	146.952209
13309.119043	3903.741000	862.079102	66.338310
13309.119043	3903.741000	860.902344	16.375019
13309.119043	3903.741000	859.724609	11.173034
13309.119043	3903.741000	858.546875	29.516663
13309.119043	3903.741000	857.368164	149.065018
13309.119043	3903.741000	856.190430	280.330505
13309.119043	3903.741000	855.011719	44.508728
13309.119043	3903.741000	853.833008	-73.600395
13309.119043	3903.741000	852.654297	-19.977848
13309.119043	3903.741000	851.474609	50.083767
13309.119043	3903.741000	850.294922	298.782257
13309.119043	3903.741000	849.115234	418.108795
13309.119043	3903.741000	847.935547	238.950058
13309.119043	3903.741000	846.754883	207.878601
13309.119043	3903.741000	845.575195	-79.213348
13309.119043	3903.741000	844.393555	0.171892
13309.119043	3903.741000	843.212891	154.658020
13309.119043	3903.741000	842.032227	196.402084
13309.119043	3903.741000	840.850586	320.274475
13309.119043	3903.741000	839.668945	63.960201
13309.119043	3903.741000	838.486328	51.738827
13309.119043	3903.741000	837.304688	-33.190388
13309.119043	3903.741000	836.122070	226.639984
13309.119043	3903.741000	834.939453	-83.371208
13309.119043	3903.741000	833.756836	103.692848
13309.119043	3903.741000	832.573242	32.882168
13309.119043	3903.741000	831.389648	-21.499159
13309.119043	3903.741000	830.206055	-54.775555
13309.119043	3903.741000	829.022461	75.911644
13309.119043	3903.741000	827.838867	84.775108
13309.119043	3903.741000	826.654297	-42.156704
13309.119043	3903.741000	825.469727	81.418800
13309.119043	3903.741000	824.284180	-54.825401
13309.119043	3903.741000	823.099609	14.881141
13309.119043	3903.741000	821.914063	44.788910
13309.119043	3903.741000	820.728516	189.281021
13309.119043	3903.741000	819.542969	-7.683328
13309.119043	3903.741000	818.356445	47.915436
13309.119043	3903.741000	817.169922	84.788055
13309.119043	3903.741000	815.983398	168.377563
13309.119043	3903.741000	814.796875	22.961954
13309.119043	3903.741000	813.609375	-129.406036
13309.119043	3903.741000	812.422852	-120.574631
13309.119043	3903.741000	811.235352	98.392052
13309.119043	3903.741000	810.046875	132.840302
13309.119043	3903.741000	808.859375	-91.803673
13309.119043	3903.741000	807.670898	54.662529
13309.119043	3903.741000	806.482422	-158.221771
13309.119043	3903.741000	805.293945	-21.148869
13309.119043	3903.741000	804.104492	-35.722893
13309.119043	3903.741000	802.915039	-122.578362
13309.119043	3903.741000	801.725586	19.037708
13309.119043	3903.741000	800.536133	132.618042
13309.119043	3903.741000	799.345703	17.790880
13309.119043	3903.741000	798.155273	96.359680
13309.119043	3903.741000	796.964844	-18.434813
13309.119043	3903.741000	795.774414	95.014847
13309.119043	3903.741000	794.583008	-110.554298
13309.119043	3903.741000	793.392578	-27.417601
13309.119043	3903.741000	792.200195	-118.868370
13309.119043	3903.741000	791.008789	-128.860397
13309.119043	3903.741000	789.816406	-1.613502
13309.119043	3903.741000	788.625000	141.845520
13309.119043	3903.741000	787.432617	129.436447
13309.119043	3903.741000	786.239258	-173.584000
13309.119043	3903.741000	785.046875	-125.522774
13309.119043	3903.741000	783.853516	29.398155
13309.119043	3903.741000	782.660156	-127.092896
13309.119043	3903.741000	781.465820	-32.665833
13309.119043	3903.741000	780.272461	-5.647092
13309.119043	3903.741000	779.078125	-164.411591
13309.119043	3903.741000	777.883789	-84.022491
13309.119043	3903.741000	776.688477	-103.488159
13309.119043	3903.741000	775.494141	-16.225754
13309.119043	3903.741000	774.298828	12.979501
13309.119043	3903.741000	773.103516	23.594269
13309.119043	3903.741000	771.907227	-16.836687
13309.119043	3903.741000	770.711914	-115.238701
13309.119043	3903.741000	769.515625	-18.906443
13309.119043	3903.741000	768.318359	-31.565195
13309.119043	3903.741000	767.122070	-206.440964
13309.119043	3903.741000	765.924805	84.368698
13309.119043	3903.741000	764.727539	-2.498531
13309.119043	3903.741000	763.530273	5.584155
13309.119043	3903.741000	762.333008	46.047764
13309.119043	3903.741000	761.134766	54.060364
13309.119043	3903.741000	759.936523	-16.642651
13309.119043	3903.741000	758.738281	-17.934971
13309.119043	3903.741000	757.540039	38.573383
13309.119043	3903.741000	756.340820	85.775963
13309.119043	3903.741000	755.141602	267.038116
13309.119043	3903.741000	753.942383	374.214661
13309.119043	3903.741000	752.742188	435.087250
13309.119043	3903.741000	751.541992	461.237152
13309.119043	3903.741000	750.341797	346.410248
13309.119043	3903.741000	749.141602	335.539032
13309.119043	3903.741000	747.941406	153.741928
13309.119043	3903.741000	746.740234	219.036331
13309.119043	3903.741000	745.539063	314.275085
13309.119043	3903.741000	744.337891	384.048340
13309.119043	3903.741000	743.135742	266.848938
13309.119043	3903.741000	741.933594	165.807663
13309.119043	3903.741000	740.731445	87.833054
13309.119043	3903.741000	739.529297	224.308716
13309.119043	3903.741000	738.326172	266.158966
13309.119043	3903.741000	737.124023	204.221664
13309.119043	3903.741000	735.919922	257.495087
13309.119043	3903.741000	734.716797	223.147614
13309.119043	3903.741000	733.513672	232.538086
13309.119043	3903.741000	732.309570	386.975433
13309.119043	3903.741000	731.105469	179.787582
13309.119043	3903.741000	729.900391	274.222351
13309.119043	3903.741000	728.696289	269.598480
13309.119043	3903.741000	727.491211	308.651093
13309.119043	3903.741000	726.286133	317.729156
13309.119043	3903.741000	725.080078	276.147766
13309.119043	3903.741000	723.874023	209.237045
13309.119043	3903.741000	722.668945	107.814980
13309.119043	3903.741000	721.461914	192.584686
13309.119043	3903.741000	720.255859	240.494675
13309.119043	3903.741000	719.048828	439.987976
13309.119043	3903.741000	717.841797	290.147339
13309.119043	3903.741000	716.634766	321.768555
13309.119043	3903.741000	715.427734	447.473602
13309.119043	3903.741000	714.219727	644.242737
13309.119043	3903.741000	713.011719	732.988586
13309.119043	3903.741000	711.803711	537.068359
13309.119043	3903.741000	710.594727	490.311401
13309.119043	3903.741000	709.385742	358.639740
13309.119043	3903.741000	708.176758	343.933105
13309.119043	3903.741000	706.967773	361.276978
13309.119043	3903.741000	705.758789	172.225021
13309.119043	3903.741000	704.548828	139.051636
13309.119043	3903.741000	703.338867	-40.829727
13309.119043	3903.741000	702.127930	317.710236
13309.119043	3903.741000	700.917969	126.291794
13309.119043	3903.741000	699.707031	147.872726
13309.119043	3903.741000	698.496094	192.278351
13309.119043	3903.741000	697.285156	85.517021
13309.119043	3903.741000	696.073242	65.705627
13309.119043	3903.741000	694.861328	93.891350
13309.119043	3903.741000	693.649414	224.948273
13309.119043	3903.741000	692.436523	204.925339
13309.119043	3903.741000	691.224609	77.368965
13309.119043	3903.741000	690.011719	349.898834
13309.119043	3903.741000	688.798828	158.228958
13309.119043	3903.741000	687.584961	320.796783
13309.119043	3903.741000	686.372070	366.704346
13309.119043	3903.741000	685.158203	357.698456
13309.119043	3903.741000	683.943359	636.395813
13309.119043	3903.741000	682.729492	533.581482
13309.119043	3903.741000	681.514648	631.636780
13309.119043	3903.741000	680.299805	661.108582
13309.119043	3903.741000	679.084961	763.522583
13309.119043	3903.741000	677.869141	582.916992
13309.119043	3903.741000	676.653320	808.336609
13309.119043	3903.741000	675.437500	707.476929
13309.119043	3903.741000	674.221680	570.108826
13309.119043	3903.741000	673.004883	384.854828
13309.119043	3903.741000	671.789063	352.309723
13309.119043	3903.741000	670.571289	376.666931
13309.119043	3903.741000	669.354492	302.986694
13309.119043	3903.741000	668.136719	308.981323
13309.119043	3903.741000	666.919922	437.871552
13309.119043	3903.741000	665.701172	243.341980
13309.119043	3903.741000	664.483398	344.732361
13309.119043	3903.741000	663.264648	288.980743
13309.119043	3903.741000	662.045898	435.677612
13309.119043	3903.741000	660.827148	413.908997
13309.119043	3903.741000	659.608398	471.677887
13309.119043	3903.741000	658.388672	427.026733
13309.119043	3903.741000	657.168945	275.477112
13309.119043	3903.741000	655.949219	351.203918
13309.119043	3903.741000	654.728516	322.295502
13309.119043	3903.741000	653.507813	286.512817
13309.119043	3903.741000	652.287109	175.718399
13309.119043	3903.741000	651.066406	73.983238
13309.119043	3903.741000	649.844727	94.820343
13309.119043	3903.741000	648.623047	197.297180
13309.119043	3903.741000	647.401367	65.903770
13309.119043	3903.741000	646.179688	175.010056
13309.119043	3903.741000	644.957031	152.422852
13309.119043	3903.741000	643.734375	175.136215
13309.119043	3903.741000	642.511719	417.724274
13309.119043	3903.741000	641.289063	424.364624
13309.119043	3903.741000	640.065430	405.996857
13309.119043	3903.741000	638.841797	167.755920
13309.119043	3903.741000	637.618164	305.644287
13309.119043	3903.741000	636.393555	80.977325
13309.119043	3903.741000	635.168945	216.423019
13309.119043	3903.741000	633.944336	77.776833
13309.119043	3903.741000	632.719727	27.408995
13309.119043	3903.741000	631.494141	40.364323
13309.119043	3903.741000	630.269531	-23.679867
13309.119043	3903.741000	629.042969	149.769913
13309.119043	3903.741000	627.817383	-102.131470
13309.119043	3903.741000	626.590820	12.341087
13309.119043	3903.741000	625.365234	190.012375
13309.119043	3903.741000	624.137695	159.583939
13309.119043	3903.741000	622.911133	111.033569
13309.119043	3903.741000	621.683594	130.221863
13309.119043	3903.741000	620.456055	269.066711
13309.119043	3903.741000	619.228516	211.309708
13309.119043	3903.741000	618.000977	79.007477
13309.119043	3903.741000	616.772461	120.526871
13309.119043	3903.741000	615.543945	15.268013
13309.119043	3903.741000	614.314453	110.825775
13309.119043	3903.741000	613.085938	59.651600
13309.119043	3903.741000	611.856445	91.898125
13309.119043	3903.741000	610.626953	99.273849
13309.119043	3903.741000	609.397461	338.821899
13309.119043	3903.741000	608.166992	386.612671
13309.119043	3903.741000	606.936523	263.057037
13309.119043	3903.741000	605.706055	391.863739
13309.119043	3903.741000	604.474609	534.081177
13309.119043	3903.741000	603.244141	921.691467
13309.119043	3903.741000	602.012695	849.732605
13309.119043	3903.741000	600.780273	915.084717
13309.119043	3903.741000	599.548828	890.343445
13309.119043	3903.741000	598.316406	764.304565
13309.119043	3903.741000	597.083984	588.785645
13309.119043	3903.741000	595.851563	600.000061
13309.119043	3903.741000	594.618164	190.632019
13309.119043	3903.741000	593.384766	143.395737
13309.119043	3903.741000	592.151367	78.164848
13309.119043	3903.741000	590.917969	-9.542490
13309.119043	3903.741000	589.683594	51.052197
13309.119043	3903.741000	588.449219	71.157501
13309.119043	3903.741000	587.214844	-21.070625
13309.119043	3903.741000	585.979492	-12.240887
13309.119043	3903.741000	584.745117	178.417511
13309.119043	3903.741000	583.509766	-50.764183
13309.119043	3903.741000	582.273438	72.448669
13309.119043	3903.741000	581.038086	-401.200806
13309.119043	3903.741000	579.801758	-35.739746
13309.119043	3903.741000	578.565430	-62.910873
13309.119043	3903.741000	577.329102	-175.284088
13309.119043	3903.741000	576.091797	-220.373230
13309.119043	3903.741000	574.854492	-128.736816
13309.119043	3903.741000	573.617188	-122.292847
13309.119043	3903.741000	572.378906	-6.088257
13309.119043	3903.741000	571.141602	-69.111092
13309.119043	3903.741000	569.903320	-136.590500
13309.119043	3903.741000	568.664063	26.553732
13309.119043	3903.741000	567.425781	115.774017
13309.119043	3903.741000	566.186523	-74.776337
13309.119043	3903.741000	564.947266	-21.360769
13309.119043	3903.741000	563.708008	34.279701
13309.119043	3903.741000	562.467773	324.729218
13309.119043	3903.741000	561.227539	192.474396
13309.119043	3903.741000	559.987305	424.677582
13309.119043	3903.741000	558.747070	569.635925
13309.119043	3903.741000	557.505859	495.564575
13309.119043	3903.741000	556.264648	792.401367
13309.119043	3903.741000	555.023438	1133.809570
13309.119043	3903.741000	553.781250	1358.973389
13309.119043	3903.741000	552.539063	1443.418457
13309.119043	3903.741000	551.296875	1391.700806
13309.119043	3903.741000	550.054688	1364.589233
13309.119043	3903.741000	548.811523	1114.403931
13309.119043	3903.741000	547.569336	1031.674927
13309.119043	3903.741000	546.325195	552.032471
13309.119043	3903.741000	545.082031	471.772064
13309.119043	3903.741000	543.837891	396.047089
13309.119043	3903.741000	542.593750	340.464172
13309.119043	3903.741000	541.349609	238.163406
13309.119043	3903.741000	540.105469	37.937237
13309.119043	3903.741000	538.860352	73.948807
13309.119043	3903.741000	537.615234	234.711777
13309.119043	3903.741000	536.369141	210.670670
13309.119043	3903.741000	535.124023	166.678146
13309.119043	3903.741000	533.877930	173.951950
13309.119043	3903.741000	532.631836	76.718407
13309.119043	3903.741000	531.384766	199.820724
13309.119043	3903.741000	530.138672	67.187279
13309.119043	3903.741000	528.891602	50.308712
13309.119043	3903.741000	527.643555	204.688614
13309.119043	3903.741000	526.396484	216.843842
13309.119043	3903.741000	525.148438	164.633575
13309.119043	3903.741000	523.900391	219.171402
13309.119043	3903.741000	522.652344	400.381561
13309.119043	3903.741000	521.403320	97.494476
13309.119043	3903.741000	520.154297	389.847107
13309.119043	3903.741000	518.905273	393.606812
13309.119043	3903.741000	517.656250	297.598175
13309.119043	3903.741000	516.406250	212.822388
13309.119043	3903.741000	515.156250	347.799591
13309.119043	3903.741000	513.906250	394.113129
13309.119043	3903.741000	512.655273	518.118835
13309.119043	3903.741000	511.404297	320.735962
13309.119043	3903.741000	510.153320	278.700104
13309.119043	3903.741000	508.902344	449.527039
13309.119043	3903.741000	507.650391	389.987946
13309.119043	3903.741000	506.398438	357.175446
13309.119043	3903.741000	505.146484	149.555389
13309.119043	3903.741000	503.893555	101.554405
13309.119043	3903.741000	502.641602	-39.264484
13309.119043	3903.741000	501.388672	-44.900669
13309.119043	3903.741000	500.134766	144.301346
13309.119043	3903.741000	498.881836	39.346233
13309.119043	3903.741000	497.627930	-32.256142
13309.119043	3903.741000	496.374023	-61.679932
13309.119043	3903.741000	495.119141	-102.008896
13309.119043	3903.741000	493.865234	-75.871277
13309.119043	3903.741000	492.610352	-58.446014
13309.119043	3903.741000	491.355469	100.508072
13309.119043	3903.741000	490.099609	252.910370
13309.119043	3903.741000	488.843750	166.896240
13309.119043	3903.741000	487.587891	277.563599
13309.119043	3903.741000	486.332031	573.748657
13309.119043	3903.741000	485.075195	997.953918
13309.119043	3903.741000	483.818359	1040.421387
13309.119043	3903.741000	482.561523	1195.524170
13309.119043	3903.741000	481.304688	1247.057007
13309.119043	3903.741000	480.046875	1159.808716
13309.119043	3903.741000	478.789063	1136.682495
13309.119043	3903.741000	477.531250	701.569824
13309.119043	3903.741000	476.272461	537.837524
13309.119043	3903.741000	475.013672	354.504425
13309.119043	3903.741000	473.754883	495.189026
13309.119043	3903.741000	472.496094	259.409027
13309.119043	3903.741000	471.236328	-26.750704
13309.119043	3903.741000	469.976563	103.392754
13309.119043	3903.741000	468.716797	31.173191
13309.119043	3903.741000	467.456055	106.558266
13309.119043	3903.741000	466.196289	-9.310227
13309.119043	3903.741000	464.935547	-67.790710
13309.119043	3903.741000	463.673828	-73.318123
13309.119043	3903.741000	462.413086	-87.482292
13309.119043	3903.741000	461.151367	-99.285866
13309.119043	3903.741000	459.889648	216.476410
13309.119043	3903.741000	458.626953	187.343338
13309.119043	3903.741000	457.364258	303.337982
13309.119043	3903.741000	456.101563	206.424500
13309.119043	3903.741000	454.838867	-39.590340
13309.119043	3903.741000	453.575195	13.167005
13309.119043	3903.741000	452.312500	66.044930
13309.119043	3903.741000	451.047852	173.894608
13309.119043	3903.741000	449.784180	213.835510
13309.119043	3903.741000	448.519531	-79.453766
13309.119043	3903.741000	447.254883	50.693951
13309.119043	3903.741000	445.990234	-1.033102
13309.119043	3903.741000	444.725586	153.407608
13309.119043	3903.741000	443.459961	222.451385
13309.119043	3903.741000	442.194336	214.909622
13309.119043	3903.741000	440.927734	299.480042
13309.119043	3903.741000	439.662109	403.832153
13309.119043	3903.741000	438.395508	365.944092
13309.119043	3903.741000	437.127930	332.555481
13309.119043	3903.741000	435.861328	375.869720
13309.119043	3903.741000	434.593750	454.267090
13309.119043	3903.741000	433.326172	552.405273
13309.119043	3903.741000	432.058594	532.487488
13309.119043	3903.741000	430.790039	475.487244
13309.119043	3903.741000	429.521484	630.621887
13309.119043	3903.741000	428.252930	510.377869
13309.119043	3903.741000	426.984375	575.969971
13309.119043	3903.741000	425.714844	285.500610
13309.119043	3903.741000	424.445313	373.047974
13309.119043	3903.741000	423.174805	366.698273
13309.119043	3903.741000	421.905273	388.754150
13309.119043	3903.741000	420.634766	288.590637
13309.119043	3903.741000	419.364258	393.605743
13309.119043	3903.741000	418.092773	579.301392
13309.119043	3903.741000	416.822266	418.082245
13309.119043	3903.741000	415.550781	363.774139
13309.119043	3903.741000	414.278320	645.229980
13309.119043	3903.741000	413.006836	514.529236
13309.119043	3903.741000	411.734375	431.781555
13309.119043	3903.741000	410.461914	298.890259
13309.119043	3903.741000	409.188477	242.229309
13309.119043	3903.741000	407.916016	377.160156
13309.119043	3903.741000	406.642578	405.237671
13309.119043	3903.741000	405.368164	515.917236
13309.119043	3903.741000	404.094727	535.003845
13309.119043	3903.741000	402.820313	382.033905
13309.119043	3903.741000	401.545898	191.988144
13309.119043	3903.741000	400.270508	297.671417
13309.119043	3903.741000	398.996094	429.214844
13309.119043	3903.741000	397.720703	445.268250
13309.119043	3903.741000	396.444336	345.889893
13309.119043	3903.741000	395.168945	413.654785
13309.119043	3903.741000	393.892578	383.363464
13309.119043	3903.741000	392.616211	281.127014
13309.119043	3903.741000	391.339844	289.404510
13309.119043	3903.741000	390.062500	219.201202
13309.119043	3903.741000	388.785156	348.417175
13309.119043	3903.741000	387.507813	294.913147
13309.119043	3903.741000	386.229492	93.505280
13309.119043	3903.741000	384.951172	41.483303
13309.119043	3903.741000	383.672852	88.840935
13309.119043	3903.741000	382.394531	307.051788
13309.119043	3903.741000	381.115234	279.715363
13309.119043	3903.741000	379.835938	95.839821
13309.119043	3903.741000	378.556641	273.437897
13309.119043	3903.741000	377.277344	292.257996
13309.119043	3903.741000	375.997070	373.323090
13309.119043	3903.741000	374.716797	449.432220
13309.119043	3903.741000	373.435547	273.722229
13309.119043	3903.741000	372.155273	452.462891
13309.119043	3903.741000	370.874023	511.412994
13309.119043	3903.741000	369.591797	320.789825
13309.119043	3903.741000	368.310547	376.138367
13309.119043	3903.741000	367.028320	521.530334
13309.119043	3903.741000	365.746094	361.163422
13309.119043	3903.741000	364.463867	500.540405
13309.119043	3903.741000	363.180664	448.774780
13309.119043	3903.741000	361.897461	424.223724
13309.119043	3903.741000	360.614258	437.636566
13309.119043	3903.741000	359.330078	432.779358
13309.119043	3903.741000	358.045898	506.817352
13309.119043	3903.741000	356.761719	467.502136
13309.119043	3903.741000	355.477539	545.839417
13309.119043	3903.741000	354.192383	484.881470
13309.119043	3903.741000	352.907227	388.257721
13309.119043	3903.741000	351.622070	337.923218
13309.119043	3903.741000	350.336914	351.059692
13309.119043	3903.741000	349.050781	349.937317
13309.119043	3903.741000	347.764648	272.020294
13309.119043	3903.741000	346.477539	156.087463
13309.119043	3903.741000	345.191406	96.969620
13309.119043	3903.741000	343.904297	137.628494
13309.119043	3903.741000	342.616211	187.482361
13309.119043	3903.741000	341.329102	280.974915
13309.119043	3903.741000	340.041016	200.528488
13309.119043	3903.741000	338.752930	221.747879
13309.119043	3903.741000	337.463867	53.960396
13309.119043	3903.741000	336.175781	170.634842
13309.119043	3903.741000	334.886719	248.806595
13309.119043	3903.741000	333.596680	109.936951
13309.119043	3903.741000	332.307617	-32.960472
13309.119043	3903.741000	331.017578	-278.895721
13309.119043	3903.741000	329.727539	-79.778549
13309.119043	3903.741000	328.436523	-76.328896
13309.119043	3903.741000	327.146484	-64.318710
13309.119043	3903.741000	325.855469	-127.663551
13309.119043	3903.741000	324.563477	75.042191
13309.119043	3903.741000	323.272461	-220.643906
13309.119043	3903.741000	321.980469	90.844086
13309.119043	3903.741000	320.688477	21.951191
13309.119043	3903.741000	319.395508	44.805325
13309.119043	3903.741000	318.103516	2.790992
13309.119043	3903.741000	316.810547	-31.317562
13309.119043	3903.741000	315.516602	96.764931
13309.119043	3903.741000	314.223633	39.706402
13309.119043	3903.741000	312.929688	-20.404198
13309.119043	3903.741000	311.635742	53.541977
13309.119043	3903.741000	310.340820	12.812809
13309.119043	3903.741000	309.045898	174.436386
13309.119043	3903.741000	307.750977	176.321869
13309.119043	3903.741000	306.456055	136.229385
13309.119043	3903.741000	305.160156	278.752838
13309.119043	3903.741000	303.865234	323.514648
13309.119043	3903.741000	302.568359	212.479767
13309.119043	3903.741000	301.272461	82.789268
13309.119043	3903.741000	299.975586	2.617139
13309.119043	3903.741000	298.678711	-15.255456
