#X		#Y		#Wave		#Intensity
3055.905638	5960.741500	1999.980469	-44.064838
3055.905638	5960.741500	1999.016602	-39.078365
3055.905638	5960.741500	1998.052734	-183.962326
3055.905638	5960.741500	1997.087891	-76.913483
3055.905638	5960.741500	1996.123047	-87.237816
3055.905638	5960.741500	1995.158203	-143.004471
3055.905638	5960.741500	1994.193359	18.376028
3055.905638	5960.741500	1993.228516	27.839264
3055.905638	5960.741500	1992.262695	-62.498135
3055.905638	5960.741500	1991.297852	17.232227
3055.905638	5960.741500	1990.332031	9.596317
3055.905638	5960.741500	1989.366211	11.154625
3055.905638	5960.741500	1988.399414	66.470009
3055.905638	5960.741500	1987.433594	229.930298
3055.905638	5960.741500	1986.466797	36.580101
3055.905638	5960.741500	1985.500977	-144.958710
3055.905638	5960.741500	1984.534180	9.197721
3055.905638	5960.741500	1983.567383	39.140362
3055.905638	5960.741500	1982.599609	-47.621357
3055.905638	5960.741500	1981.632813	122.070465
3055.905638	5960.741500	1980.665039	-39.829582
3055.905638	5960.741500	1979.697266	146.087341
3055.905638	5960.741500	1978.729492	138.847092
3055.905638	5960.741500	1977.761719	-68.832527
3055.905638	5960.741500	1976.792969	120.557213
3055.905638	5960.741500	1975.825195	-8.924140
3055.905638	5960.741500	1974.856445	19.165794
3055.905638	5960.741500	1973.887695	152.943176
3055.905638	5960.741500	1972.918945	-39.299175
3055.905638	5960.741500	1971.949219	98.646599
3055.905638	5960.741500	1970.980469	218.938599
3055.905638	5960.741500	1970.010742	57.819092
3055.905638	5960.741500	1969.041016	165.115082
3055.905638	5960.741500	1968.071289	163.641876
3055.905638	5960.741500	1967.101563	-52.473156
3055.905638	5960.741500	1966.130859	-143.139542
3055.905638	5960.741500	1965.161133	320.143036
3055.905638	5960.741500	1964.190430	194.465546
3055.905638	5960.741500	1963.219727	248.336258
3055.905638	5960.741500	1962.249023	338.891510
3055.905638	5960.741500	1961.277344	148.633865
3055.905638	5960.741500	1960.306641	125.579880
3055.905638	5960.741500	1959.334961	208.140823
3055.905638	5960.741500	1958.363281	54.357586
3055.905638	5960.741500	1957.391602	48.028893
3055.905638	5960.741500	1956.419922	127.610390
3055.905638	5960.741500	1955.447266	12.803869
3055.905638	5960.741500	1954.474609	97.001205
3055.905638	5960.741500	1953.501953	365.356323
3055.905638	5960.741500	1952.529297	137.173294
3055.905638	5960.741500	1951.556641	44.081013
3055.905638	5960.741500	1950.583984	2.505970
3055.905638	5960.741500	1949.610352	287.459076
3055.905638	5960.741500	1948.636719	118.008919
3055.905638	5960.741500	1947.663086	108.107513
3055.905638	5960.741500	1946.689453	326.394135
3055.905638	5960.741500	1945.715820	63.585838
3055.905638	5960.741500	1944.741211	-118.218246
3055.905638	5960.741500	1943.767578	63.036438
3055.905638	5960.741500	1942.792969	-5.971069
3055.905638	5960.741500	1941.818359	-3.877634
3055.905638	5960.741500	1940.842773	-11.622401
3055.905638	5960.741500	1939.868164	19.834827
3055.905638	5960.741500	1938.892578	114.977562
3055.905638	5960.741500	1937.916992	-79.049660
3055.905638	5960.741500	1936.941406	84.650688
3055.905638	5960.741500	1935.965820	-75.017250
3055.905638	5960.741500	1934.990234	-41.165188
3055.905638	5960.741500	1934.013672	-176.259277
3055.905638	5960.741500	1933.037109	305.582245
3055.905638	5960.741500	1932.060547	168.052734
3055.905638	5960.741500	1931.083984	20.804266
3055.905638	5960.741500	1930.107422	62.017075
3055.905638	5960.741500	1929.129883	76.330551
3055.905638	5960.741500	1928.153320	298.548798
3055.905638	5960.741500	1927.175781	173.496826
3055.905638	5960.741500	1926.198242	55.860519
3055.905638	5960.741500	1925.219727	33.628300
3055.905638	5960.741500	1924.242188	-30.098879
3055.905638	5960.741500	1923.263672	111.479134
3055.905638	5960.741500	1922.285156	-23.000441
3055.905638	5960.741500	1921.306641	3.815813
3055.905638	5960.741500	1920.328125	-132.943466
3055.905638	5960.741500	1919.349609	-262.278717
3055.905638	5960.741500	1918.370117	-103.470940
3055.905638	5960.741500	1917.391602	69.975540
3055.905638	5960.741500	1916.412109	-88.456963
3055.905638	5960.741500	1915.431641	19.150589
3055.905638	5960.741500	1914.452148	-256.189331
3055.905638	5960.741500	1913.472656	5.163562
3055.905638	5960.741500	1912.492188	-55.388680
3055.905638	5960.741500	1911.511719	-15.909253
3055.905638	5960.741500	1910.531250	-20.262178
3055.905638	5960.741500	1909.550781	36.366127
3055.905638	5960.741500	1908.569336	102.774918
3055.905638	5960.741500	1907.588867	203.320663
3055.905638	5960.741500	1906.607422	-197.853394
3055.905638	5960.741500	1905.625977	-187.280273
3055.905638	5960.741500	1904.644531	1.077626
3055.905638	5960.741500	1903.662109	-63.744415
3055.905638	5960.741500	1902.680664	92.988838
3055.905638	5960.741500	1901.698242	152.381577
3055.905638	5960.741500	1900.715820	41.502502
3055.905638	5960.741500	1899.733398	-166.581024
3055.905638	5960.741500	1898.750000	-155.660141
3055.905638	5960.741500	1897.767578	-49.863930
3055.905638	5960.741500	1896.784180	-111.803955
3055.905638	5960.741500	1895.800781	-22.976706
3055.905638	5960.741500	1894.817383	-28.913914
3055.905638	5960.741500	1893.833984	-73.680588
3055.905638	5960.741500	1892.850586	-43.082054
3055.905638	5960.741500	1891.866211	-102.319885
3055.905638	5960.741500	1890.881836	47.339272
3055.905638	5960.741500	1889.897461	19.744154
3055.905638	5960.741500	1888.913086	123.274689
3055.905638	5960.741500	1887.927734	-11.045254
3055.905638	5960.741500	1886.943359	-196.240082
3055.905638	5960.741500	1885.958008	-80.504341
3055.905638	5960.741500	1884.972656	238.966003
3055.905638	5960.741500	1883.987305	-23.697493
3055.905638	5960.741500	1883.001953	-29.221735
3055.905638	5960.741500	1882.015625	-112.300835
3055.905638	5960.741500	1881.029297	73.710678
3055.905638	5960.741500	1880.042969	10.063295
3055.905638	5960.741500	1879.056641	-26.896852
3055.905638	5960.741500	1878.070313	-138.928162
3055.905638	5960.741500	1877.083984	-8.711931
3055.905638	5960.741500	1876.096680	165.047745
3055.905638	5960.741500	1875.109375	9.477418
3055.905638	5960.741500	1874.122070	185.589996
3055.905638	5960.741500	1873.134766	-226.466858
3055.905638	5960.741500	1872.146484	29.464899
3055.905638	5960.741500	1871.159180	101.427986
3055.905638	5960.741500	1870.170898	141.908188
3055.905638	5960.741500	1869.182617	-42.549206
3055.905638	5960.741500	1868.194336	92.208183
3055.905638	5960.741500	1867.205078	-164.732147
3055.905638	5960.741500	1866.216797	-20.378222
3055.905638	5960.741500	1865.227539	-40.430130
3055.905638	5960.741500	1864.238281	-270.703949
3055.905638	5960.741500	1863.249023	146.466263
3055.905638	5960.741500	1862.259766	15.197594
3055.905638	5960.741500	1861.269531	-94.327057
3055.905638	5960.741500	1860.279297	141.387802
3055.905638	5960.741500	1859.290039	135.587784
3055.905638	5960.741500	1858.298828	54.927032
3055.905638	5960.741500	1857.308594	36.980591
3055.905638	5960.741500	1856.318359	175.797440
3055.905638	5960.741500	1855.327148	-138.953568
3055.905638	5960.741500	1854.335938	-26.802094
3055.905638	5960.741500	1853.344727	-100.410461
3055.905638	5960.741500	1852.353516	-70.400932
3055.905638	5960.741500	1851.362305	137.881577
3055.905638	5960.741500	1850.370117	324.324341
3055.905638	5960.741500	1849.377930	180.547394
3055.905638	5960.741500	1848.385742	-76.469994
3055.905638	5960.741500	1847.393555	114.485863
3055.905638	5960.741500	1846.401367	95.793701
3055.905638	5960.741500	1845.408203	132.389236
3055.905638	5960.741500	1844.415039	94.262009
3055.905638	5960.741500	1843.421875	80.118896
3055.905638	5960.741500	1842.428711	284.839630
3055.905638	5960.741500	1841.435547	133.342026
3055.905638	5960.741500	1840.441406	-90.361458
3055.905638	5960.741500	1839.448242	159.652084
3055.905638	5960.741500	1838.454102	315.689758
3055.905638	5960.741500	1837.459961	166.264374
3055.905638	5960.741500	1836.464844	223.468964
3055.905638	5960.741500	1835.470703	69.073120
3055.905638	5960.741500	1834.475586	-54.156906
3055.905638	5960.741500	1833.480469	120.385895
3055.905638	5960.741500	1832.485352	234.693710
3055.905638	5960.741500	1831.490234	259.984344
3055.905638	5960.741500	1830.495117	114.680695
3055.905638	5960.741500	1829.499023	-251.532104
3055.905638	5960.741500	1828.502930	157.382385
3055.905638	5960.741500	1827.506836	112.524887
3055.905638	5960.741500	1826.510742	120.311539
3055.905638	5960.741500	1825.513672	334.207275
3055.905638	5960.741500	1824.517578	418.382233
3055.905638	5960.741500	1823.520508	44.438881
3055.905638	5960.741500	1822.523438	-190.492584
3055.905638	5960.741500	1821.526367	58.621315
3055.905638	5960.741500	1820.529297	125.367821
3055.905638	5960.741500	1819.531250	-119.525238
3055.905638	5960.741500	1818.533203	-2.810700
3055.905638	5960.741500	1817.535156	214.269653
3055.905638	5960.741500	1816.537109	-117.214409
3055.905638	5960.741500	1815.539063	209.573532
3055.905638	5960.741500	1814.540039	186.608643
3055.905638	5960.741500	1813.541992	39.038620
3055.905638	5960.741500	1812.542969	70.776108
3055.905638	5960.741500	1811.543945	90.352898
3055.905638	5960.741500	1810.543945	54.718201
3055.905638	5960.741500	1809.544922	-19.346916
3055.905638	5960.741500	1808.544922	61.812084
3055.905638	5960.741500	1807.544922	166.646774
3055.905638	5960.741500	1806.544922	65.715576
3055.905638	5960.741500	1805.544922	210.729279
3055.905638	5960.741500	1804.544922	290.982666
3055.905638	5960.741500	1803.543945	189.467896
3055.905638	5960.741500	1802.542969	226.289978
3055.905638	5960.741500	1801.541992	76.655014
3055.905638	5960.741500	1800.541016	-65.972122
3055.905638	5960.741500	1799.539063	8.418579
3055.905638	5960.741500	1798.538086	111.208603
3055.905638	5960.741500	1797.536133	261.448975
3055.905638	5960.741500	1796.534180	46.457153
3055.905638	5960.741500	1795.532227	136.588867
3055.905638	5960.741500	1794.529297	-62.061756
3055.905638	5960.741500	1793.527344	270.772858
3055.905638	5960.741500	1792.524414	138.458221
3055.905638	5960.741500	1791.521484	132.267197
3055.905638	5960.741500	1790.518555	61.517632
3055.905638	5960.741500	1789.514648	83.456078
3055.905638	5960.741500	1788.511719	114.690407
3055.905638	5960.741500	1787.507813	117.091995
3055.905638	5960.741500	1786.503906	233.534592
3055.905638	5960.741500	1785.500000	-19.260393
3055.905638	5960.741500	1784.496094	241.861084
3055.905638	5960.741500	1783.491211	188.541977
3055.905638	5960.741500	1782.486328	111.210808
3055.905638	5960.741500	1781.481445	74.100883
3055.905638	5960.741500	1780.476563	-124.949951
3055.905638	5960.741500	1779.471680	-60.251282
3055.905638	5960.741500	1778.465820	92.118187
3055.905638	5960.741500	1777.460938	61.185917
3055.905638	5960.741500	1776.455078	-131.584595
3055.905638	5960.741500	1775.449219	-48.934746
3055.905638	5960.741500	1774.442383	-11.713531
3055.905638	5960.741500	1773.436523	8.632025
3055.905638	5960.741500	1772.429688	26.327372
3055.905638	5960.741500	1771.422852	48.511162
3055.905638	5960.741500	1770.416016	44.322468
3055.905638	5960.741500	1769.409180	-93.015594
3055.905638	5960.741500	1768.402344	56.538494
3055.905638	5960.741500	1767.394531	65.802338
3055.905638	5960.741500	1766.386719	27.369143
3055.905638	5960.741500	1765.378906	242.427048
3055.905638	5960.741500	1764.371094	-71.563301
3055.905638	5960.741500	1763.362305	131.046951
3055.905638	5960.741500	1762.354492	-50.600407
3055.905638	5960.741500	1761.345703	51.891064
3055.905638	5960.741500	1760.336914	11.937583
3055.905638	5960.741500	1759.328125	-4.573211
3055.905638	5960.741500	1758.318359	288.876678
3055.905638	5960.741500	1757.308594	243.368362
3055.905638	5960.741500	1756.299805	178.697937
3055.905638	5960.741500	1755.290039	158.743530
3055.905638	5960.741500	1754.279297	325.460663
3055.905638	5960.741500	1753.269531	189.034943
3055.905638	5960.741500	1752.258789	73.671356
3055.905638	5960.741500	1751.249023	194.613266
3055.905638	5960.741500	1750.238281	218.282501
3055.905638	5960.741500	1749.226563	279.488312
3055.905638	5960.741500	1748.215820	56.791069
3055.905638	5960.741500	1747.204102	25.320292
3055.905638	5960.741500	1746.193359	-27.641893
3055.905638	5960.741500	1745.181641	11.268507
3055.905638	5960.741500	1744.168945	47.522087
3055.905638	5960.741500	1743.157227	-13.292755
3055.905638	5960.741500	1742.144531	175.899551
3055.905638	5960.741500	1741.132813	3.625942
3055.905638	5960.741500	1740.120117	201.672058
3055.905638	5960.741500	1739.106445	-77.280334
3055.905638	5960.741500	1738.093750	-59.101189
3055.905638	5960.741500	1737.080078	10.685256
3055.905638	5960.741500	1736.067383	169.830185
3055.905638	5960.741500	1735.053711	88.140549
3055.905638	5960.741500	1734.040039	-97.494202
3055.905638	5960.741500	1733.025391	-337.540466
3055.905638	5960.741500	1732.011719	-186.546768
3055.905638	5960.741500	1730.997070	-64.156113
3055.905638	5960.741500	1729.982422	258.163666
3055.905638	5960.741500	1728.967773	116.154999
3055.905638	5960.741500	1727.952148	-136.739258
3055.905638	5960.741500	1726.937500	147.006104
3055.905638	5960.741500	1725.921875	-94.516655
3055.905638	5960.741500	1724.906250	-180.868774
3055.905638	5960.741500	1723.890625	-105.081055
3055.905638	5960.741500	1722.875000	3.372404
3055.905638	5960.741500	1721.858398	-137.789307
3055.905638	5960.741500	1720.841797	-274.430115
3055.905638	5960.741500	1719.825195	-107.966385
3055.905638	5960.741500	1718.808594	-64.032227
3055.905638	5960.741500	1717.791992	38.407223
3055.905638	5960.741500	1716.774414	100.604347
3055.905638	5960.741500	1715.756836	169.596893
3055.905638	5960.741500	1714.739258	-27.083097
3055.905638	5960.741500	1713.721680	81.374786
3055.905638	5960.741500	1712.704102	-64.008095
3055.905638	5960.741500	1711.685547	-59.347374
3055.905638	5960.741500	1710.667969	-33.758842
3055.905638	5960.741500	1709.649414	19.732210
3055.905638	5960.741500	1708.630859	241.905441
3055.905638	5960.741500	1707.611328	123.627953
3055.905638	5960.741500	1706.592773	-100.324684
3055.905638	5960.741500	1705.573242	36.662418
3055.905638	5960.741500	1704.553711	-159.508102
3055.905638	5960.741500	1703.534180	129.372940
3055.905638	5960.741500	1702.513672	103.888641
3055.905638	5960.741500	1701.494141	59.496326
3055.905638	5960.741500	1700.473633	164.811111
3055.905638	5960.741500	1699.453125	54.414471
3055.905638	5960.741500	1698.432617	145.242279
3055.905638	5960.741500	1697.412109	29.816404
3055.905638	5960.741500	1696.390625	103.810875
3055.905638	5960.741500	1695.369141	-61.121704
3055.905638	5960.741500	1694.347656	171.589447
3055.905638	5960.741500	1693.326172	-14.721223
3055.905638	5960.741500	1692.304688	-84.199684
3055.905638	5960.741500	1691.282227	-186.602264
3055.905638	5960.741500	1690.260742	19.507032
3055.905638	5960.741500	1689.238281	94.423500
3055.905638	5960.741500	1688.214844	-17.866381
3055.905638	5960.741500	1687.192383	201.556808
3055.905638	5960.741500	1686.168945	100.630119
3055.905638	5960.741500	1685.146484	-9.736155
3055.905638	5960.741500	1684.123047	78.248001
3055.905638	5960.741500	1683.099609	-37.098515
3055.905638	5960.741500	1682.075195	-38.206959
3055.905638	5960.741500	1681.051758	16.578335
3055.905638	5960.741500	1680.027344	-225.203644
3055.905638	5960.741500	1679.002930	225.881897
3055.905638	5960.741500	1677.978516	170.462738
3055.905638	5960.741500	1676.953125	189.515289
3055.905638	5960.741500	1675.928711	201.458359
3055.905638	5960.741500	1674.903320	215.550446
3055.905638	5960.741500	1673.877930	178.223190
3055.905638	5960.741500	1672.852539	199.034149
3055.905638	5960.741500	1671.826172	492.273712
3055.905638	5960.741500	1670.800781	368.326813
3055.905638	5960.741500	1669.774414	216.320007
3055.905638	5960.741500	1668.748047	145.746155
3055.905638	5960.741500	1667.721680	435.942200
3055.905638	5960.741500	1666.694336	425.602448
3055.905638	5960.741500	1665.667969	338.386292
3055.905638	5960.741500	1664.640625	299.919434
3055.905638	5960.741500	1663.613281	426.529297
3055.905638	5960.741500	1662.585938	501.814636
3055.905638	5960.741500	1661.557617	611.815002
3055.905638	5960.741500	1660.530273	693.808044
3055.905638	5960.741500	1659.501953	659.408875
3055.905638	5960.741500	1658.473633	578.447388
3055.905638	5960.741500	1657.444336	855.232361
3055.905638	5960.741500	1656.416016	746.208191
3055.905638	5960.741500	1655.386719	790.405396
3055.905638	5960.741500	1654.358398	918.143555
3055.905638	5960.741500	1653.328125	1008.532043
3055.905638	5960.741500	1652.298828	1129.024414
3055.905638	5960.741500	1651.269531	1353.841675
3055.905638	5960.741500	1650.239258	1072.594971
3055.905638	5960.741500	1649.208984	1199.722290
3055.905638	5960.741500	1648.178711	1468.232666
3055.905638	5960.741500	1647.148438	1439.727173
3055.905638	5960.741500	1646.117188	1601.273682
3055.905638	5960.741500	1645.086914	1890.245728
3055.905638	5960.741500	1644.055664	1947.239136
3055.905638	5960.741500	1643.024414	1941.592651
3055.905638	5960.741500	1641.992188	1986.841187
3055.905638	5960.741500	1640.960938	2256.764404
3055.905638	5960.741500	1639.928711	1954.454468
3055.905638	5960.741500	1638.896484	2381.628906
3055.905638	5960.741500	1637.864258	2278.447021
3055.905638	5960.741500	1636.832031	2399.799316
3055.905638	5960.741500	1635.798828	2514.103027
3055.905638	5960.741500	1634.766602	2422.450684
3055.905638	5960.741500	1633.733398	2814.262207
3055.905638	5960.741500	1632.699219	2808.056641
3055.905638	5960.741500	1631.666016	3007.686035
3055.905638	5960.741500	1630.632813	2749.458740
3055.905638	5960.741500	1629.598633	3071.481934
3055.905638	5960.741500	1628.564453	3240.848389
3055.905638	5960.741500	1627.530273	3502.575195
3055.905638	5960.741500	1626.495117	3350.646240
3055.905638	5960.741500	1625.460938	3591.476074
3055.905638	5960.741500	1624.425781	3922.248779
3055.905638	5960.741500	1623.390625	3798.068604
3055.905638	5960.741500	1622.355469	4027.135986
3055.905638	5960.741500	1621.319336	3549.871094
3055.905638	5960.741500	1620.284180	3988.926270
3055.905638	5960.741500	1619.248047	3818.743164
3055.905638	5960.741500	1618.211914	4126.122070
3055.905638	5960.741500	1617.174805	3902.966553
3055.905638	5960.741500	1616.138672	4065.022949
3055.905638	5960.741500	1615.101563	3828.213867
3055.905638	5960.741500	1614.065430	4163.164063
3055.905638	5960.741500	1613.027344	3921.875732
3055.905638	5960.741500	1611.990234	4314.337402
3055.905638	5960.741500	1610.953125	4248.314941
3055.905638	5960.741500	1609.915039	4368.882813
3055.905638	5960.741500	1608.876953	4623.012207
3055.905638	5960.741500	1607.838867	4738.979980
3055.905638	5960.741500	1606.800781	4986.161621
3055.905638	5960.741500	1605.761719	5090.609375
3055.905638	5960.741500	1604.723633	4937.438477
3055.905638	5960.741500	1603.684570	5014.400879
3055.905638	5960.741500	1602.644531	4946.485352
3055.905638	5960.741500	1601.605469	5002.881836
3055.905638	5960.741500	1600.566406	5151.302734
3055.905638	5960.741500	1599.526367	5033.090820
3055.905638	5960.741500	1598.486328	4928.806152
3055.905638	5960.741500	1597.446289	4992.385742
3055.905638	5960.741500	1596.405273	4902.092285
3055.905638	5960.741500	1595.365234	5103.652832
3055.905638	5960.741500	1594.324219	4937.803711
3055.905638	5960.741500	1593.283203	4955.791992
3055.905638	5960.741500	1592.242188	4826.981445
3055.905638	5960.741500	1591.200195	5214.658203
3055.905638	5960.741500	1590.159180	5109.023926
3055.905638	5960.741500	1589.117188	4925.519531
3055.905638	5960.741500	1588.075195	5001.384766
3055.905638	5960.741500	1587.032227	5102.536621
3055.905638	5960.741500	1585.990234	4759.034180
3055.905638	5960.741500	1584.947266	4819.196777
3055.905638	5960.741500	1583.904297	4840.511230
3055.905638	5960.741500	1582.861328	4788.634277
3055.905638	5960.741500	1581.818359	4649.863770
3055.905638	5960.741500	1580.775391	5026.641602
3055.905638	5960.741500	1579.731445	4695.778809
3055.905638	5960.741500	1578.687500	4470.517090
3055.905638	5960.741500	1577.643555	4511.029785
3055.905638	5960.741500	1576.598633	4334.228516
3055.905638	5960.741500	1575.554688	4475.749512
3055.905638	5960.741500	1574.509766	4436.610840
3055.905638	5960.741500	1573.464844	4482.282715
3055.905638	5960.741500	1572.419922	4466.360840
3055.905638	5960.741500	1571.374023	4301.965332
3055.905638	5960.741500	1570.329102	4428.157227
3055.905638	5960.741500	1569.283203	4058.489014
3055.905638	5960.741500	1568.237305	4036.473633
3055.905638	5960.741500	1567.191406	3907.271729
3055.905638	5960.741500	1566.144531	3903.902344
3055.905638	5960.741500	1565.098633	3804.837158
3055.905638	5960.741500	1564.051758	3537.008545
3055.905638	5960.741500	1563.004883	3299.152344
3055.905638	5960.741500	1561.957031	3118.614746
3055.905638	5960.741500	1560.910156	3399.324219
3055.905638	5960.741500	1559.862305	2849.636963
3055.905638	5960.741500	1558.814453	2882.030029
3055.905638	5960.741500	1557.766602	3092.501709
3055.905638	5960.741500	1556.718750	2897.234375
3055.905638	5960.741500	1555.669922	2889.160889
3055.905638	5960.741500	1554.621094	2986.146484
3055.905638	5960.741500	1553.573242	2727.848145
3055.905638	5960.741500	1552.523438	2731.821045
3055.905638	5960.741500	1551.474609	2225.795898
3055.905638	5960.741500	1550.424805	2209.813232
3055.905638	5960.741500	1549.375000	2483.239258
3055.905638	5960.741500	1548.325195	2142.119141
3055.905638	5960.741500	1547.275391	2361.282715
3055.905638	5960.741500	1546.225586	2291.583984
3055.905638	5960.741500	1545.174805	2372.284180
3055.905638	5960.741500	1544.124023	2205.241699
3055.905638	5960.741500	1543.073242	2400.117188
3055.905638	5960.741500	1542.022461	2099.457275
3055.905638	5960.741500	1540.970703	2299.283691
3055.905638	5960.741500	1539.919922	1821.959961
3055.905638	5960.741500	1538.868164	2479.029297
3055.905638	5960.741500	1537.815430	2402.189697
3055.905638	5960.741500	1536.763672	2193.902588
3055.905638	5960.741500	1535.710938	1888.267456
3055.905638	5960.741500	1534.659180	2130.275879
3055.905638	5960.741500	1533.606445	1972.854370
3055.905638	5960.741500	1532.552734	1981.429565
3055.905638	5960.741500	1531.500000	1922.204102
3055.905638	5960.741500	1530.446289	1795.176514
3055.905638	5960.741500	1529.393555	1965.657837
3055.905638	5960.741500	1528.338867	1825.574585
3055.905638	5960.741500	1527.285156	1463.616699
3055.905638	5960.741500	1526.231445	1584.970703
3055.905638	5960.741500	1525.176758	1681.594971
3055.905638	5960.741500	1524.122070	1660.610840
3055.905638	5960.741500	1523.067383	1735.076416
3055.905638	5960.741500	1522.012695	1603.645508
3055.905638	5960.741500	1520.957031	1443.080444
3055.905638	5960.741500	1519.901367	1355.325684
3055.905638	5960.741500	1518.845703	1066.392090
3055.905638	5960.741500	1517.790039	1472.765625
3055.905638	5960.741500	1516.734375	1702.744385
3055.905638	5960.741500	1515.677734	1548.250366
3055.905638	5960.741500	1514.621094	1448.399902
3055.905638	5960.741500	1513.564453	1310.430664
3055.905638	5960.741500	1512.507813	1086.879028
3055.905638	5960.741500	1511.450195	1349.777100
3055.905638	5960.741500	1510.393555	1359.716919
3055.905638	5960.741500	1509.335938	960.880859
3055.905638	5960.741500	1508.278320	953.395386
3055.905638	5960.741500	1507.219727	864.869812
3055.905638	5960.741500	1506.162109	799.284241
3055.905638	5960.741500	1505.103516	612.067505
3055.905638	5960.741500	1504.044922	763.887695
3055.905638	5960.741500	1502.986328	897.894287
3055.905638	5960.741500	1501.926758	607.856018
3055.905638	5960.741500	1500.868164	584.505859
3055.905638	5960.741500	1499.808594	556.947327
3055.905638	5960.741500	1498.749023	180.108505
3055.905638	5960.741500	1497.688477	484.735962
3055.905638	5960.741500	1496.628906	83.882393
3055.905638	5960.741500	1495.568359	463.417145
3055.905638	5960.741500	1494.507813	221.097214
3055.905638	5960.741500	1493.447266	107.622520
3055.905638	5960.741500	1492.386719	314.405853
3055.905638	5960.741500	1491.325195	215.091721
3055.905638	5960.741500	1490.263672	370.597992
3055.905638	5960.741500	1489.202148	150.366623
3055.905638	5960.741500	1488.140625	9.327843
3055.905638	5960.741500	1487.079102	258.009521
3055.905638	5960.741500	1486.016602	142.383713
3055.905638	5960.741500	1484.954102	92.366592
3055.905638	5960.741500	1483.891602	-78.767960
3055.905638	5960.741500	1482.829102	-2.150430
3055.905638	5960.741500	1481.765625	225.383743
3055.905638	5960.741500	1480.702148	-234.695892
3055.905638	5960.741500	1479.638672	-103.183968
3055.905638	5960.741500	1478.575195	-99.525520
3055.905638	5960.741500	1477.511719	-124.659767
3055.905638	5960.741500	1476.447266	77.264763
3055.905638	5960.741500	1475.382813	196.342896
3055.905638	5960.741500	1474.318359	77.828697
3055.905638	5960.741500	1473.253906	264.775024
3055.905638	5960.741500	1472.189453	541.676086
3055.905638	5960.741500	1471.124023	390.568298
3055.905638	5960.741500	1470.058594	645.490173
3055.905638	5960.741500	1468.993164	716.707336
3055.905638	5960.741500	1467.927734	571.020508
3055.905638	5960.741500	1466.861328	755.365723
3055.905638	5960.741500	1465.794922	973.047607
3055.905638	5960.741500	1464.728516	790.325806
3055.905638	5960.741500	1463.662109	822.735413
3055.905638	5960.741500	1462.594727	779.559143
3055.905638	5960.741500	1461.528320	615.719482
3055.905638	5960.741500	1460.460938	971.628113
3055.905638	5960.741500	1459.393555	851.335754
3055.905638	5960.741500	1458.326172	900.607788
3055.905638	5960.741500	1457.257813	1044.576050
3055.905638	5960.741500	1456.189453	1215.044067
3055.905638	5960.741500	1455.121094	984.921692
3055.905638	5960.741500	1454.052734	1036.360840
3055.905638	5960.741500	1452.984375	1046.982178
3055.905638	5960.741500	1451.915039	1030.790039
3055.905638	5960.741500	1450.845703	791.209412
3055.905638	5960.741500	1449.776367	1094.034668
3055.905638	5960.741500	1448.707031	706.931274
3055.905638	5960.741500	1447.636719	830.441772
3055.905638	5960.741500	1446.567383	935.159363
3055.905638	5960.741500	1445.497070	652.210815
3055.905638	5960.741500	1444.425781	730.949890
3055.905638	5960.741500	1443.355469	951.343079
3055.905638	5960.741500	1442.285156	713.991760
3055.905638	5960.741500	1441.213867	928.744812
3055.905638	5960.741500	1440.142578	1050.141113
3055.905638	5960.741500	1439.070313	1280.004639
3055.905638	5960.741500	1437.999023	977.031128
3055.905638	5960.741500	1436.926758	1051.019897
3055.905638	5960.741500	1435.854492	1325.678345
3055.905638	5960.741500	1434.782227	977.831970
3055.905638	5960.741500	1433.709961	924.764832
3055.905638	5960.741500	1432.636719	1002.033020
3055.905638	5960.741500	1431.563477	721.485352
3055.905638	5960.741500	1430.490234	652.941162
3055.905638	5960.741500	1429.416992	718.791992
3055.905638	5960.741500	1428.343750	669.345398
3055.905638	5960.741500	1427.269531	407.553162
3055.905638	5960.741500	1426.195313	229.514557
3055.905638	5960.741500	1425.121094	274.591736
3055.905638	5960.741500	1424.046875	270.053101
3055.905638	5960.741500	1422.971680	271.464752
3055.905638	5960.741500	1421.896484	-100.700256
3055.905638	5960.741500	1420.821289	34.388859
3055.905638	5960.741500	1419.746094	490.387085
3055.905638	5960.741500	1418.669922	681.957275
3055.905638	5960.741500	1417.594727	368.250610
3055.905638	5960.741500	1416.518555	549.506409
3055.905638	5960.741500	1415.442383	697.955688
3055.905638	5960.741500	1414.365234	933.830627
3055.905638	5960.741500	1413.289063	996.084717
3055.905638	5960.741500	1412.211914	882.756409
3055.905638	5960.741500	1411.134766	744.159363
3055.905638	5960.741500	1410.057617	988.415222
3055.905638	5960.741500	1408.979492	957.810181
3055.905638	5960.741500	1407.902344	1191.005859
3055.905638	5960.741500	1406.824219	1267.254028
3055.905638	5960.741500	1405.746094	1031.841797
3055.905638	5960.741500	1404.666992	1000.689087
3055.905638	5960.741500	1403.588867	1408.363403
3055.905638	5960.741500	1402.509766	1240.048462
3055.905638	5960.741500	1401.430664	993.287842
3055.905638	5960.741500	1400.351563	1429.572021
3055.905638	5960.741500	1399.271484	1543.259644
3055.905638	5960.741500	1398.192383	1266.191162
3055.905638	5960.741500	1397.112305	1621.060303
3055.905638	5960.741500	1396.031250	1470.827026
3055.905638	5960.741500	1394.951172	1475.830200
3055.905638	5960.741500	1393.871094	1622.587036
3055.905638	5960.741500	1392.790039	1337.084473
3055.905638	5960.741500	1391.708984	1280.680298
3055.905638	5960.741500	1390.626953	1312.605713
3055.905638	5960.741500	1389.545898	1409.566406
3055.905638	5960.741500	1388.463867	1651.935791
3055.905638	5960.741500	1387.381836	1481.734131
3055.905638	5960.741500	1386.299805	949.479309
3055.905638	5960.741500	1385.217773	1009.014954
3055.905638	5960.741500	1384.134766	1181.870972
3055.905638	5960.741500	1383.051758	1233.506226
3055.905638	5960.741500	1381.968750	1097.895386
3055.905638	5960.741500	1380.885742	1391.815674
3055.905638	5960.741500	1379.802734	1138.048340
3055.905638	5960.741500	1378.718750	1385.587158
3055.905638	5960.741500	1377.634766	1139.737427
3055.905638	5960.741500	1376.550781	1115.893555
3055.905638	5960.741500	1375.465820	1102.092896
3055.905638	5960.741500	1374.381836	1061.592896
3055.905638	5960.741500	1373.296875	1491.831421
3055.905638	5960.741500	1372.211914	1302.441040
3055.905638	5960.741500	1371.126953	1424.898071
3055.905638	5960.741500	1370.041016	1271.676392
3055.905638	5960.741500	1368.955078	1126.249390
3055.905638	5960.741500	1367.869141	883.237915
3055.905638	5960.741500	1366.783203	1090.567627
3055.905638	5960.741500	1365.697266	995.044922
3055.905638	5960.741500	1364.610352	1299.019531
3055.905638	5960.741500	1363.523438	1155.494995
3055.905638	5960.741500	1362.436523	1162.523926
3055.905638	5960.741500	1361.349609	1159.289551
3055.905638	5960.741500	1360.261719	1024.269409
3055.905638	5960.741500	1359.174805	1509.911987
3055.905638	5960.741500	1358.086914	1281.418823
3055.905638	5960.741500	1356.998047	1169.661377
3055.905638	5960.741500	1355.910156	1166.524414
3055.905638	5960.741500	1354.821289	1297.872803
3055.905638	5960.741500	1353.732422	999.069519
3055.905638	5960.741500	1352.643555	1088.536133
3055.905638	5960.741500	1351.554688	707.612183
3055.905638	5960.741500	1350.464844	1015.794067
3055.905638	5960.741500	1349.375000	1074.901245
3055.905638	5960.741500	1348.285156	834.900085
3055.905638	5960.741500	1347.195313	854.716064
3055.905638	5960.741500	1346.105469	805.063416
3055.905638	5960.741500	1345.014648	724.564636
3055.905638	5960.741500	1343.923828	632.313538
3055.905638	5960.741500	1342.833008	747.631958
3055.905638	5960.741500	1341.741211	961.488342
3055.905638	5960.741500	1340.650391	929.132141
3055.905638	5960.741500	1339.558594	795.254639
3055.905638	5960.741500	1338.466797	705.954895
3055.905638	5960.741500	1337.374023	794.229309
3055.905638	5960.741500	1336.282227	966.462585
3055.905638	5960.741500	1335.189453	799.699036
3055.905638	5960.741500	1334.096680	550.247864
3055.905638	5960.741500	1333.003906	869.436646
3055.905638	5960.741500	1331.910156	804.006653
3055.905638	5960.741500	1330.817383	772.632202
3055.905638	5960.741500	1329.723633	916.220276
3055.905638	5960.741500	1328.629883	860.716064
3055.905638	5960.741500	1327.535156	1158.498047
3055.905638	5960.741500	1326.441406	873.094910
3055.905638	5960.741500	1325.346680	977.932251
3055.905638	5960.741500	1324.251953	955.220337
3055.905638	5960.741500	1323.156250	1216.162354
3055.905638	5960.741500	1322.061523	1055.787964
3055.905638	5960.741500	1320.965820	1067.328369
3055.905638	5960.741500	1319.870117	1006.573547
3055.905638	5960.741500	1318.774414	882.835266
3055.905638	5960.741500	1317.678711	868.554565
3055.905638	5960.741500	1316.582031	910.439026
3055.905638	5960.741500	1315.485352	847.131714
3055.905638	5960.741500	1314.388672	689.428894
3055.905638	5960.741500	1313.291016	1008.499512
3055.905638	5960.741500	1312.194336	884.761963
3055.905638	5960.741500	1311.096680	953.527405
3055.905638	5960.741500	1309.999023	743.014465
3055.905638	5960.741500	1308.901367	1001.208984
3055.905638	5960.741500	1307.802734	1001.754883
3055.905638	5960.741500	1306.705078	867.753296
3055.905638	5960.741500	1305.606445	1049.266357
3055.905638	5960.741500	1304.506836	912.244751
3055.905638	5960.741500	1303.408203	736.056763
3055.905638	5960.741500	1302.308594	929.003174
3055.905638	5960.741500	1301.208984	1012.798096
3055.905638	5960.741500	1300.109375	1171.183105
3055.905638	5960.741500	1299.009766	825.999573
3055.905638	5960.741500	1297.909180	1026.308105
3055.905638	5960.741500	1296.808594	1236.859741
3055.905638	5960.741500	1295.708008	1403.723999
3055.905638	5960.741500	1294.607422	1505.250122
3055.905638	5960.741500	1293.506836	1422.004028
3055.905638	5960.741500	1292.405273	1198.199097
3055.905638	5960.741500	1291.303711	1005.203064
3055.905638	5960.741500	1290.202148	965.245911
3055.905638	5960.741500	1289.099609	1116.673950
3055.905638	5960.741500	1287.998047	959.457092
3055.905638	5960.741500	1286.895508	722.302368
3055.905638	5960.741500	1285.792969	701.018677
3055.905638	5960.741500	1284.689453	791.821655
3055.905638	5960.741500	1283.586914	782.952393
3055.905638	5960.741500	1282.483398	404.212006
3055.905638	5960.741500	1281.379883	401.739258
3055.905638	5960.741500	1280.276367	780.981018
3055.905638	5960.741500	1279.171875	440.243073
3055.905638	5960.741500	1278.067383	337.683655
3055.905638	5960.741500	1276.962891	697.878540
3055.905638	5960.741500	1275.858398	301.256958
3055.905638	5960.741500	1274.753906	470.187683
3055.905638	5960.741500	1273.648438	435.666138
3055.905638	5960.741500	1272.542969	436.774231
3055.905638	5960.741500	1271.437500	307.080017
3055.905638	5960.741500	1270.331055	266.590637
3055.905638	5960.741500	1269.225586	493.442993
3055.905638	5960.741500	1268.119141	412.423340
3055.905638	5960.741500	1267.012695	234.258133
3055.905638	5960.741500	1265.906250	465.669739
3055.905638	5960.741500	1264.798828	329.288483
3055.905638	5960.741500	1263.691406	471.040009
3055.905638	5960.741500	1262.583984	349.068573
3055.905638	5960.741500	1261.476563	412.641449
3055.905638	5960.741500	1260.368164	282.314819
3055.905638	5960.741500	1259.260742	418.362244
3055.905638	5960.741500	1258.152344	289.046753
3055.905638	5960.741500	1257.043945	191.549881
3055.905638	5960.741500	1255.934570	344.632904
3055.905638	5960.741500	1254.825195	59.821239
3055.905638	5960.741500	1253.716797	244.259445
3055.905638	5960.741500	1252.606445	74.440651
3055.905638	5960.741500	1251.497070	121.488541
3055.905638	5960.741500	1250.387695	42.467125
3055.905638	5960.741500	1249.277344	221.961838
3055.905638	5960.741500	1248.166992	92.437668
3055.905638	5960.741500	1247.055664	-29.711372
3055.905638	5960.741500	1245.945313	-13.174088
3055.905638	5960.741500	1244.833984	41.363041
3055.905638	5960.741500	1243.722656	148.685471
3055.905638	5960.741500	1242.611328	-157.933426
3055.905638	5960.741500	1241.499023	5.202970
3055.905638	5960.741500	1240.387695	-24.919914
3055.905638	5960.741500	1239.275391	-62.648979
3055.905638	5960.741500	1238.162109	-5.857408
3055.905638	5960.741500	1237.049805	-160.663040
3055.905638	5960.741500	1235.936523	-43.543827
3055.905638	5960.741500	1234.823242	82.637650
3055.905638	5960.741500	1233.709961	-1.917405
3055.905638	5960.741500	1232.596680	-51.890572
3055.905638	5960.741500	1231.482422	-96.325706
3055.905638	5960.741500	1230.369141	-68.775558
3055.905638	5960.741500	1229.253906	22.360485
3055.905638	5960.741500	1228.139648	48.817966
3055.905638	5960.741500	1227.025391	-143.763367
3055.905638	5960.741500	1225.910156	-81.874809
3055.905638	5960.741500	1224.794922	-48.722122
3055.905638	5960.741500	1223.679688	161.628464
3055.905638	5960.741500	1222.563477	-38.261765
3055.905638	5960.741500	1221.447266	79.173149
3055.905638	5960.741500	1220.331055	61.781094
3055.905638	5960.741500	1219.214844	22.079893
3055.905638	5960.741500	1218.098633	39.343250
3055.905638	5960.741500	1216.981445	38.936890
3055.905638	5960.741500	1215.864258	54.944748
3055.905638	5960.741500	1214.747070	164.568314
3055.905638	5960.741500	1213.629883	52.680981
3055.905638	5960.741500	1212.511719	63.193153
3055.905638	5960.741500	1211.393555	68.915695
3055.905638	5960.741500	1210.275391	193.274780
3055.905638	5960.741500	1209.157227	170.372375
3055.905638	5960.741500	1208.038086	79.474106
3055.905638	5960.741500	1206.918945	-75.403694
3055.905638	5960.741500	1205.799805	63.462086
3055.905638	5960.741500	1204.680664	193.001617
3055.905638	5960.741500	1203.560547	61.658005
3055.905638	5960.741500	1202.441406	113.618736
3055.905638	5960.741500	1201.321289	54.990170
3055.905638	5960.741500	1200.200195	-24.969604
3055.905638	5960.741500	1199.080078	42.169693
3055.905638	5960.741500	1197.958984	166.578384
3055.905638	5960.741500	1196.837891	103.189735
3055.905638	5960.741500	1195.716797	145.482910
3055.905638	5960.741500	1194.594727	101.101570
3055.905638	5960.741500	1193.473633	234.963379
3055.905638	5960.741500	1192.351563	32.403786
3055.905638	5960.741500	1191.229492	-72.776154
3055.905638	5960.741500	1190.106445	-1.440892
3055.905638	5960.741500	1188.984375	46.330029
3055.905638	5960.741500	1187.861328	-84.482155
3055.905638	5960.741500	1186.738281	0.572514
3055.905638	5960.741500	1185.614258	-18.728182
3055.905638	5960.741500	1184.491211	4.474630
3055.905638	5960.741500	1183.367188	11.534475
3055.905638	5960.741500	1182.243164	158.196716
3055.905638	5960.741500	1181.119141	-17.838520
3055.905638	5960.741500	1179.994141	45.987339
3055.905638	5960.741500	1178.869141	-23.310419
3055.905638	5960.741500	1177.744141	127.761337
3055.905638	5960.741500	1176.619141	88.553192
3055.905638	5960.741500	1175.493164	235.096008
3055.905638	5960.741500	1174.368164	275.866058
3055.905638	5960.741500	1173.242188	2.500221
3055.905638	5960.741500	1172.115234	83.128090
3055.905638	5960.741500	1170.989258	272.404419
3055.905638	5960.741500	1169.862305	448.205658
3055.905638	5960.741500	1168.735352	355.921356
3055.905638	5960.741500	1167.608398	304.179565
3055.905638	5960.741500	1166.481445	70.844757
3055.905638	5960.741500	1165.353516	32.775024
3055.905638	5960.741500	1164.225586	213.323349
3055.905638	5960.741500	1163.097656	-65.680931
3055.905638	5960.741500	1161.968750	10.405157
3055.905638	5960.741500	1160.840820	388.107819
3055.905638	5960.741500	1159.711914	300.256653
3055.905638	5960.741500	1158.583008	142.019760
3055.905638	5960.741500	1157.453125	171.279968
3055.905638	5960.741500	1156.324219	-222.384689
3055.905638	5960.741500	1155.194336	-92.000999
3055.905638	5960.741500	1154.064453	-78.624878
3055.905638	5960.741500	1152.933594	-138.215744
3055.905638	5960.741500	1151.803711	-222.381927
3055.905638	5960.741500	1150.672852	88.169121
3055.905638	5960.741500	1149.541992	-62.018295
3055.905638	5960.741500	1148.411133	-142.679047
3055.905638	5960.741500	1147.279297	-115.380501
3055.905638	5960.741500	1146.147461	-255.759567
3055.905638	5960.741500	1145.015625	21.630583
3055.905638	5960.741500	1143.883789	-205.425293
3055.905638	5960.741500	1142.750977	75.797958
3055.905638	5960.741500	1141.619141	-292.310394
3055.905638	5960.741500	1140.486328	59.064480
3055.905638	5960.741500	1139.352539	104.756821
3055.905638	5960.741500	1138.219727	6.590350
3055.905638	5960.741500	1137.085938	175.864517
3055.905638	5960.741500	1135.952148	185.219162
3055.905638	5960.741500	1134.818359	287.558319
3055.905638	5960.741500	1133.683594	289.123840
3055.905638	5960.741500	1132.549805	546.124634
3055.905638	5960.741500	1131.415039	759.597229
3055.905638	5960.741500	1130.279297	1018.074219
3055.905638	5960.741500	1129.144531	1182.406006
3055.905638	5960.741500	1128.008789	1228.274902
3055.905638	5960.741500	1126.873047	1267.370728
3055.905638	5960.741500	1125.737305	1054.964844
3055.905638	5960.741500	1124.601563	706.252625
3055.905638	5960.741500	1123.464844	855.707153
3055.905638	5960.741500	1122.328125	1064.569824
3055.905638	5960.741500	1121.191406	920.275940
3055.905638	5960.741500	1120.054688	843.325745
3055.905638	5960.741500	1118.916992	1067.867676
3055.905638	5960.741500	1117.779297	859.864319
3055.905638	5960.741500	1116.641602	671.807922
3055.905638	5960.741500	1115.503906	486.255157
3055.905638	5960.741500	1114.365234	823.371704
3055.905638	5960.741500	1113.226563	412.620758
3055.905638	5960.741500	1112.087891	586.789551
3055.905638	5960.741500	1110.949219	625.411499
3055.905638	5960.741500	1109.809570	574.516907
3055.905638	5960.741500	1108.669922	387.847931
3055.905638	5960.741500	1107.530273	386.278809
3055.905638	5960.741500	1106.390625	677.146667
3055.905638	5960.741500	1105.250000	356.406250
3055.905638	5960.741500	1104.109375	590.430176
3055.905638	5960.741500	1102.968750	797.318298
3055.905638	5960.741500	1101.828125	712.629517
3055.905638	5960.741500	1100.686523	685.766357
3055.905638	5960.741500	1099.544922	803.414551
3055.905638	5960.741500	1098.403320	930.322449
3055.905638	5960.741500	1097.261719	819.816589
3055.905638	5960.741500	1096.120117	956.524231
3055.905638	5960.741500	1094.977539	907.890381
3055.905638	5960.741500	1093.834961	1041.810425
3055.905638	5960.741500	1092.691406	819.065002
3055.905638	5960.741500	1091.548828	686.794128
3055.905638	5960.741500	1090.405273	711.524475
3055.905638	5960.741500	1089.261719	648.263306
3055.905638	5960.741500	1088.118164	651.675171
3055.905638	5960.741500	1086.973633	557.073364
3055.905638	5960.741500	1085.829102	492.704865
3055.905638	5960.741500	1084.684570	456.004822
3055.905638	5960.741500	1083.540039	293.902435
3055.905638	5960.741500	1082.395508	395.351440
3055.905638	5960.741500	1081.250000	457.294312
3055.905638	5960.741500	1080.104492	542.543335
3055.905638	5960.741500	1078.958984	398.794434
3055.905638	5960.741500	1077.812500	313.115753
3055.905638	5960.741500	1076.666016	597.762329
3055.905638	5960.741500	1075.519531	403.038544
3055.905638	5960.741500	1074.373047	415.359039
3055.905638	5960.741500	1073.226563	433.211823
3055.905638	5960.741500	1072.079102	450.326630
3055.905638	5960.741500	1070.931641	532.188721
3055.905638	5960.741500	1069.784180	698.909058
3055.905638	5960.741500	1068.635742	451.556946
3055.905638	5960.741500	1067.487305	619.951050
3055.905638	5960.741500	1066.338867	603.201416
3055.905638	5960.741500	1065.190430	603.321533
3055.905638	5960.741500	1064.041992	654.538635
3055.905638	5960.741500	1062.892578	779.949890
3055.905638	5960.741500	1061.743164	814.819824
3055.905638	5960.741500	1060.593750	885.009583
3055.905638	5960.741500	1059.443359	688.421570
3055.905638	5960.741500	1058.292969	753.414551
3055.905638	5960.741500	1057.142578	510.926788
3055.905638	5960.741500	1055.992188	599.467896
3055.905638	5960.741500	1054.841797	240.071030
3055.905638	5960.741500	1053.690430	302.634094
3055.905638	5960.741500	1052.539063	485.296722
3055.905638	5960.741500	1051.387695	613.751221
3055.905638	5960.741500	1050.235352	245.071014
3055.905638	5960.741500	1049.083984	471.509186
3055.905638	5960.741500	1047.931641	483.168701
3055.905638	5960.741500	1046.778320	401.367584
3055.905638	5960.741500	1045.625977	580.448364
3055.905638	5960.741500	1044.472656	432.240997
3055.905638	5960.741500	1043.319336	323.405579
3055.905638	5960.741500	1042.166016	303.722321
3055.905638	5960.741500	1041.012695	268.598450
3055.905638	5960.741500	1039.858398	296.946381
3055.905638	5960.741500	1038.704102	283.360260
3055.905638	5960.741500	1037.549805	140.443619
3055.905638	5960.741500	1036.394531	332.210144
3055.905638	5960.741500	1035.239258	424.871490
3055.905638	5960.741500	1034.083984	331.554626
3055.905638	5960.741500	1032.928711	349.632629
3055.905638	5960.741500	1031.773438	369.904358
3055.905638	5960.741500	1030.617188	178.956268
3055.905638	5960.741500	1029.460938	120.923431
3055.905638	5960.741500	1028.304688	154.661346
3055.905638	5960.741500	1027.147461	199.866608
3055.905638	5960.741500	1025.991211	216.916565
3055.905638	5960.741500	1024.833984	189.959167
3055.905638	5960.741500	1023.675781	-26.997021
3055.905638	5960.741500	1022.518555	44.032383
3055.905638	5960.741500	1021.360352	165.417419
3055.905638	5960.741500	1020.202148	200.530273
3055.905638	5960.741500	1019.043945	97.459854
3055.905638	5960.741500	1017.884766	-128.697525
3055.905638	5960.741500	1016.726563	-47.537643
3055.905638	5960.741500	1015.567383	-171.949127
3055.905638	5960.741500	1014.407227	-263.850098
3055.905638	5960.741500	1013.248047	-149.081909
3055.905638	5960.741500	1012.087891	-115.140129
3055.905638	5960.741500	1010.927734	91.272934
3055.905638	5960.741500	1009.767578	63.600727
3055.905638	5960.741500	1008.606445	183.337326
3055.905638	5960.741500	1007.446289	-99.327469
3055.905638	5960.741500	1006.285156	-161.811951
3055.905638	5960.741500	1005.123047	-108.866234
3055.905638	5960.741500	1003.961914	154.988998
3055.905638	5960.741500	1002.799805	254.202194
3055.905638	5960.741500	1001.637695	186.016037
3055.905638	5960.741500	1000.475586	88.055641
3055.905638	5960.741500	999.312500	93.747086
3055.905638	5960.741500	998.149414	101.289330
3055.905638	5960.741500	996.986328	59.446152
3055.905638	5960.741500	995.823242	-137.805786
3055.905638	5960.741500	994.659180	128.549164
3055.905638	5960.741500	993.496094	-81.813049
3055.905638	5960.741500	992.332031	-52.185501
3055.905638	5960.741500	991.166992	-13.186484
3055.905638	5960.741500	990.002930	-77.690399
3055.905638	5960.741500	988.837891	-167.113800
3055.905638	5960.741500	987.672852	-201.334259
3055.905638	5960.741500	986.506836	104.933914
3055.905638	5960.741500	985.341797	-6.902908
3055.905638	5960.741500	984.175781	-115.188560
3055.905638	5960.741500	983.009766	-24.594305
3055.905638	5960.741500	981.843750	-244.944275
3055.905638	5960.741500	980.676758	88.355461
3055.905638	5960.741500	979.509766	85.537155
3055.905638	5960.741500	978.342773	80.701469
3055.905638	5960.741500	977.175781	-74.610542
3055.905638	5960.741500	976.007813	-66.940903
3055.905638	5960.741500	974.839844	8.569795
3055.905638	5960.741500	973.671875	30.817108
3055.905638	5960.741500	972.503906	-10.819038
3055.905638	5960.741500	971.334961	-142.055725
3055.905638	5960.741500	970.166016	19.382692
3055.905638	5960.741500	968.997070	123.536270
3055.905638	5960.741500	967.828125	237.400131
3055.905638	5960.741500	966.658203	56.604668
3055.905638	5960.741500	965.488281	93.742073
3055.905638	5960.741500	964.318359	93.658066
3055.905638	5960.741500	963.148438	367.280365
3055.905638	5960.741500	961.977539	107.746948
3055.905638	5960.741500	960.806641	167.533005
3055.905638	5960.741500	959.635742	120.924644
3055.905638	5960.741500	958.463867	166.670029
3055.905638	5960.741500	957.292969	318.806854
3055.905638	5960.741500	956.121094	227.683990
3055.905638	5960.741500	954.948242	215.311005
3055.905638	5960.741500	953.776367	284.648682
3055.905638	5960.741500	952.603516	266.498749
3055.905638	5960.741500	951.430664	353.852264
3055.905638	5960.741500	950.257813	115.591019
3055.905638	5960.741500	949.084961	114.675850
3055.905638	5960.741500	947.911133	56.281231
3055.905638	5960.741500	946.737305	144.230438
3055.905638	5960.741500	945.563477	270.275330
3055.905638	5960.741500	944.388672	180.885132
3055.905638	5960.741500	943.213867	-7.872624
3055.905638	5960.741500	942.039063	514.842712
3055.905638	5960.741500	940.864258	362.471466
3055.905638	5960.741500	939.688477	233.862549
3055.905638	5960.741500	938.513672	343.230560
3055.905638	5960.741500	937.337891	382.896667
3055.905638	5960.741500	936.161133	412.804871
3055.905638	5960.741500	934.985352	332.046844
3055.905638	5960.741500	933.808594	457.997284
3055.905638	5960.741500	932.631836	382.109558
3055.905638	5960.741500	931.454102	529.466797
3055.905638	5960.741500	930.277344	741.515320
3055.905638	5960.741500	929.099609	600.770142
3055.905638	5960.741500	927.921875	781.488525
3055.905638	5960.741500	926.743164	698.220093
3055.905638	5960.741500	925.565430	497.486664
3055.905638	5960.741500	924.386719	490.987518
3055.905638	5960.741500	923.208008	515.642029
3055.905638	5960.741500	922.028320	482.747864
3055.905638	5960.741500	920.849609	550.486023
3055.905638	5960.741500	919.669922	554.124939
3055.905638	5960.741500	919.474609	446.258728
3055.905638	5960.741500	918.309570	513.874939
3055.905638	5960.741500	917.143555	83.272690
3055.905638	5960.741500	915.977539	244.277618
3055.905638	5960.741500	914.810547	153.818024
3055.905638	5960.741500	913.644531	293.153229
3055.905638	5960.741500	912.477539	367.798370
3055.905638	5960.741500	911.310547	100.247124
3055.905638	5960.741500	910.143555	184.425797
3055.905638	5960.741500	908.975586	93.961700
3055.905638	5960.741500	907.807617	-27.571363
3055.905638	5960.741500	906.639648	121.069267
3055.905638	5960.741500	905.471680	123.829346
3055.905638	5960.741500	904.303711	38.149742
3055.905638	5960.741500	903.134766	442.276794
3055.905638	5960.741500	901.965820	313.535278
3055.905638	5960.741500	900.796875	225.427567
3055.905638	5960.741500	899.626953	151.666702
3055.905638	5960.741500	898.457031	495.689758
3055.905638	5960.741500	897.287109	419.482513
3055.905638	5960.741500	896.117188	348.061859
3055.905638	5960.741500	894.947266	259.953552
3055.905638	5960.741500	893.776367	477.186890
3055.905638	5960.741500	892.605469	505.914795
3055.905638	5960.741500	891.434570	644.294861
3055.905638	5960.741500	890.262695	837.434326
3055.905638	5960.741500	889.091797	761.156555
3055.905638	5960.741500	887.919922	727.789124
3055.905638	5960.741500	886.748047	544.329712
3055.905638	5960.741500	885.575195	863.516418
3055.905638	5960.741500	884.403320	587.199890
3055.905638	5960.741500	883.230469	341.937134
3055.905638	5960.741500	882.057617	346.707275
3055.905638	5960.741500	880.883789	560.901611
3055.905638	5960.741500	879.710938	558.459656
3055.905638	5960.741500	878.537109	413.268341
3055.905638	5960.741500	877.362305	515.488953
3055.905638	5960.741500	876.188477	344.181152
3055.905638	5960.741500	875.013672	268.033508
3055.905638	5960.741500	873.839844	149.115479
3055.905638	5960.741500	872.664063	34.990067
3055.905638	5960.741500	871.489258	53.956726
3055.905638	5960.741500	870.313477	58.651173
3055.905638	5960.741500	869.138672	18.202467
3055.905638	5960.741500	867.962891	-15.117026
3055.905638	5960.741500	866.786133	3.798148
3055.905638	5960.741500	865.610352	-46.145592
3055.905638	5960.741500	864.433594	-160.154495
3055.905638	5960.741500	863.256836	-248.029770
3055.905638	5960.741500	862.079102	-200.665604
3055.905638	5960.741500	860.902344	100.435242
3055.905638	5960.741500	859.724609	-42.013680
3055.905638	5960.741500	858.546875	9.981343
3055.905638	5960.741500	857.368164	21.650999
3055.905638	5960.741500	856.190430	194.441818
3055.905638	5960.741500	855.011719	33.085747
3055.905638	5960.741500	853.833008	139.453445
3055.905638	5960.741500	852.654297	132.086761
3055.905638	5960.741500	851.474609	-86.023964
3055.905638	5960.741500	850.294922	188.343491
3055.905638	5960.741500	849.115234	-62.853054
3055.905638	5960.741500	847.935547	10.228993
3055.905638	5960.741500	846.754883	-217.196487
3055.905638	5960.741500	845.575195	123.144272
3055.905638	5960.741500	844.393555	189.008469
3055.905638	5960.741500	843.212891	162.615997
3055.905638	5960.741500	842.032227	-48.167011
3055.905638	5960.741500	840.850586	93.273605
3055.905638	5960.741500	839.668945	-44.186615
3055.905638	5960.741500	838.486328	92.439461
3055.905638	5960.741500	837.304688	-158.372147
3055.905638	5960.741500	836.122070	4.164599
3055.905638	5960.741500	834.939453	171.338348
3055.905638	5960.741500	833.756836	52.804024
3055.905638	5960.741500	832.573242	328.426575
3055.905638	5960.741500	831.389648	-122.821739
3055.905638	5960.741500	830.206055	-14.806554
3055.905638	5960.741500	829.022461	248.810638
3055.905638	5960.741500	827.838867	109.066589
3055.905638	5960.741500	826.654297	120.248932
3055.905638	5960.741500	825.469727	164.406113
3055.905638	5960.741500	824.284180	41.204632
3055.905638	5960.741500	823.099609	306.794586
3055.905638	5960.741500	821.914063	49.299408
3055.905638	5960.741500	820.728516	90.995102
3055.905638	5960.741500	819.542969	21.980827
3055.905638	5960.741500	818.356445	-28.193256
3055.905638	5960.741500	817.169922	-106.614410
3055.905638	5960.741500	815.983398	57.354595
3055.905638	5960.741500	814.796875	-110.504509
3055.905638	5960.741500	813.609375	50.997002
3055.905638	5960.741500	812.422852	151.258499
3055.905638	5960.741500	811.235352	277.319031
3055.905638	5960.741500	810.046875	147.064697
3055.905638	5960.741500	808.859375	265.968262
3055.905638	5960.741500	807.670898	227.358612
3055.905638	5960.741500	806.482422	184.038239
3055.905638	5960.741500	805.293945	173.589630
3055.905638	5960.741500	804.104492	261.749115
3055.905638	5960.741500	802.915039	246.536026
3055.905638	5960.741500	801.725586	160.875595
3055.905638	5960.741500	800.536133	323.991821
3055.905638	5960.741500	799.345703	200.746948
3055.905638	5960.741500	798.155273	319.152527
3055.905638	5960.741500	796.964844	287.366211
3055.905638	5960.741500	795.774414	300.112976
3055.905638	5960.741500	794.583008	291.722656
3055.905638	5960.741500	793.392578	123.906792
3055.905638	5960.741500	792.200195	52.211662
3055.905638	5960.741500	791.008789	20.339790
3055.905638	5960.741500	789.816406	187.560638
3055.905638	5960.741500	788.625000	-34.106392
3055.905638	5960.741500	787.432617	88.491821
3055.905638	5960.741500	786.239258	-149.525314
3055.905638	5960.741500	785.046875	-139.381393
3055.905638	5960.741500	783.853516	139.831390
3055.905638	5960.741500	782.660156	16.472633
3055.905638	5960.741500	781.465820	-92.841125
3055.905638	5960.741500	780.272461	-3.366411
3055.905638	5960.741500	779.078125	-91.672256
3055.905638	5960.741500	777.883789	-51.412632
3055.905638	5960.741500	776.688477	-142.095139
3055.905638	5960.741500	775.494141	26.588398
3055.905638	5960.741500	774.298828	19.940746
3055.905638	5960.741500	773.103516	-10.107942
3055.905638	5960.741500	771.907227	20.525391
3055.905638	5960.741500	770.711914	-310.791199
3055.905638	5960.741500	769.515625	-11.760144
3055.905638	5960.741500	768.318359	32.712532
3055.905638	5960.741500	767.122070	-132.880859
3055.905638	5960.741500	765.924805	-100.164856
3055.905638	5960.741500	764.727539	-156.142624
3055.905638	5960.741500	763.530273	-37.259117
3055.905638	5960.741500	762.333008	-60.691742
3055.905638	5960.741500	761.134766	-370.866577
3055.905638	5960.741500	759.936523	-165.946777
3055.905638	5960.741500	758.738281	-138.240570
3055.905638	5960.741500	757.540039	-220.083542
3055.905638	5960.741500	756.340820	100.959373
3055.905638	5960.741500	755.141602	126.097313
3055.905638	5960.741500	753.942383	-116.549255
3055.905638	5960.741500	752.742188	-19.339315
3055.905638	5960.741500	751.541992	63.810417
3055.905638	5960.741500	750.341797	-62.520573
3055.905638	5960.741500	749.141602	-72.556503
3055.905638	5960.741500	747.941406	-101.254005
3055.905638	5960.741500	746.740234	35.080448
3055.905638	5960.741500	745.539063	-207.611191
3055.905638	5960.741500	744.337891	61.038685
3055.905638	5960.741500	743.135742	201.714691
3055.905638	5960.741500	741.933594	181.972229
3055.905638	5960.741500	740.731445	97.139854
3055.905638	5960.741500	739.529297	33.177986
3055.905638	5960.741500	738.326172	13.289620
3055.905638	5960.741500	737.124023	111.725365
3055.905638	5960.741500	735.919922	117.224014
3055.905638	5960.741500	734.716797	46.086800
3055.905638	5960.741500	733.513672	100.177834
3055.905638	5960.741500	732.309570	182.008499
3055.905638	5960.741500	731.105469	198.811493
3055.905638	5960.741500	729.900391	53.258263
3055.905638	5960.741500	728.696289	0.409801
3055.905638	5960.741500	727.491211	37.887737
3055.905638	5960.741500	726.286133	-31.294693
3055.905638	5960.741500	725.080078	212.186127
3055.905638	5960.741500	723.874023	240.118958
3055.905638	5960.741500	722.668945	159.147293
3055.905638	5960.741500	721.461914	80.450500
3055.905638	5960.741500	720.255859	75.776230
3055.905638	5960.741500	719.048828	209.864563
3055.905638	5960.741500	717.841797	124.047585
3055.905638	5960.741500	716.634766	45.131622
3055.905638	5960.741500	715.427734	88.735527
3055.905638	5960.741500	714.219727	-6.473728
3055.905638	5960.741500	713.011719	76.267868
3055.905638	5960.741500	711.803711	218.986435
3055.905638	5960.741500	710.594727	40.404495
3055.905638	5960.741500	709.385742	166.748184
3055.905638	5960.741500	708.176758	262.938202
3055.905638	5960.741500	706.967773	546.047607
3055.905638	5960.741500	705.758789	274.899536
3055.905638	5960.741500	704.548828	236.906631
3055.905638	5960.741500	703.338867	392.691956
3055.905638	5960.741500	702.127930	181.499176
3055.905638	5960.741500	700.917969	265.572021
3055.905638	5960.741500	699.707031	171.954575
3055.905638	5960.741500	698.496094	55.242832
3055.905638	5960.741500	697.285156	182.853760
3055.905638	5960.741500	696.073242	-58.423256
3055.905638	5960.741500	694.861328	55.175980
3055.905638	5960.741500	693.649414	131.790161
3055.905638	5960.741500	692.436523	-275.393982
3055.905638	5960.741500	691.224609	-191.989059
3055.905638	5960.741500	690.011719	-184.675400
3055.905638	5960.741500	688.798828	-96.878815
3055.905638	5960.741500	687.584961	-66.732086
3055.905638	5960.741500	686.372070	96.776772
3055.905638	5960.741500	685.158203	-262.045654
3055.905638	5960.741500	683.943359	-73.425911
3055.905638	5960.741500	682.729492	78.249977
3055.905638	5960.741500	681.514648	-312.760529
3055.905638	5960.741500	680.299805	-129.076035
3055.905638	5960.741500	679.084961	171.650421
3055.905638	5960.741500	677.869141	219.449829
3055.905638	5960.741500	676.653320	62.723389
3055.905638	5960.741500	675.437500	9.328854
3055.905638	5960.741500	674.221680	160.226578
3055.905638	5960.741500	673.004883	148.001129
3055.905638	5960.741500	671.789063	296.362488
3055.905638	5960.741500	670.571289	121.046814
3055.905638	5960.741500	669.354492	388.491730
3055.905638	5960.741500	668.136719	226.846268
3055.905638	5960.741500	666.919922	218.838486
3055.905638	5960.741500	665.701172	121.340767
3055.905638	5960.741500	664.483398	431.817810
3055.905638	5960.741500	663.264648	251.675140
3055.905638	5960.741500	662.045898	298.362793
3055.905638	5960.741500	660.827148	237.299347
3055.905638	5960.741500	659.608398	86.874168
3055.905638	5960.741500	658.388672	110.458603
3055.905638	5960.741500	657.168945	296.501007
3055.905638	5960.741500	655.949219	148.239441
3055.905638	5960.741500	654.728516	327.192627
3055.905638	5960.741500	653.507813	444.232971
3055.905638	5960.741500	652.287109	471.955078
3055.905638	5960.741500	651.066406	412.701630
3055.905638	5960.741500	649.844727	332.829102
3055.905638	5960.741500	648.623047	495.227844
3055.905638	5960.741500	647.401367	383.252289
3055.905638	5960.741500	646.179688	410.640717
3055.905638	5960.741500	644.957031	236.926315
3055.905638	5960.741500	643.734375	609.082703
3055.905638	5960.741500	642.511719	398.748657
3055.905638	5960.741500	641.289063	259.218140
3055.905638	5960.741500	640.065430	295.435516
3055.905638	5960.741500	638.841797	48.616776
3055.905638	5960.741500	637.618164	150.920349
3055.905638	5960.741500	636.393555	494.910553
3055.905638	5960.741500	635.168945	229.799805
3055.905638	5960.741500	633.944336	477.764099
3055.905638	5960.741500	632.719727	331.208984
3055.905638	5960.741500	631.494141	221.128494
3055.905638	5960.741500	630.269531	261.441772
3055.905638	5960.741500	629.042969	219.670166
3055.905638	5960.741500	627.817383	104.993271
3055.905638	5960.741500	626.590820	85.958267
3055.905638	5960.741500	625.365234	39.575489
3055.905638	5960.741500	624.137695	248.094559
3055.905638	5960.741500	622.911133	110.586143
3055.905638	5960.741500	621.683594	207.442017
3055.905638	5960.741500	620.456055	63.097916
3055.905638	5960.741500	619.228516	196.242859
3055.905638	5960.741500	618.000977	340.666504
3055.905638	5960.741500	616.772461	271.304199
3055.905638	5960.741500	615.543945	256.489319
3055.905638	5960.741500	614.314453	393.893585
3055.905638	5960.741500	613.085938	440.345428
3055.905638	5960.741500	611.856445	186.927902
3055.905638	5960.741500	610.626953	521.753845
3055.905638	5960.741500	609.397461	631.647217
3055.905638	5960.741500	608.166992	382.821716
3055.905638	5960.741500	606.936523	256.634491
3055.905638	5960.741500	605.706055	271.160522
3055.905638	5960.741500	604.474609	396.815765
3055.905638	5960.741500	603.244141	674.366455
3055.905638	5960.741500	602.012695	384.906403
3055.905638	5960.741500	600.780273	279.184479
3055.905638	5960.741500	599.548828	416.026642
3055.905638	5960.741500	598.316406	410.038391
3055.905638	5960.741500	597.083984	299.833832
3055.905638	5960.741500	595.851563	495.462799
3055.905638	5960.741500	594.618164	294.695740
3055.905638	5960.741500	593.384766	327.223053
3055.905638	5960.741500	592.151367	350.687317
3055.905638	5960.741500	590.917969	229.305298
3055.905638	5960.741500	589.683594	78.563454
3055.905638	5960.741500	588.449219	-51.743332
3055.905638	5960.741500	587.214844	17.049028
3055.905638	5960.741500	585.979492	117.479790
3055.905638	5960.741500	584.745117	274.408112
3055.905638	5960.741500	583.509766	76.420303
3055.905638	5960.741500	582.273438	7.339738
3055.905638	5960.741500	581.038086	-45.867100
3055.905638	5960.741500	579.801758	147.181168
3055.905638	5960.741500	578.565430	109.822319
3055.905638	5960.741500	577.329102	198.949997
3055.905638	5960.741500	576.091797	-41.514477
3055.905638	5960.741500	574.854492	0.271500
3055.905638	5960.741500	573.617188	-149.721268
3055.905638	5960.741500	572.378906	90.660072
3055.905638	5960.741500	571.141602	-72.744377
3055.905638	5960.741500	569.903320	-127.802765
3055.905638	5960.741500	568.664063	-97.128174
3055.905638	5960.741500	567.425781	-70.923714
3055.905638	5960.741500	566.186523	27.425100
3055.905638	5960.741500	564.947266	89.733231
3055.905638	5960.741500	563.708008	48.448994
3055.905638	5960.741500	562.467773	99.566353
3055.905638	5960.741500	561.227539	170.983124
3055.905638	5960.741500	559.987305	-50.219597
3055.905638	5960.741500	558.747070	199.118362
3055.905638	5960.741500	557.505859	-82.631927
3055.905638	5960.741500	556.264648	74.490593
3055.905638	5960.741500	555.023438	314.832550
3055.905638	5960.741500	553.781250	103.142136
3055.905638	5960.741500	552.539063	237.842056
3055.905638	5960.741500	551.296875	12.914659
3055.905638	5960.741500	550.054688	172.441849
3055.905638	5960.741500	548.811523	197.164124
3055.905638	5960.741500	547.569336	179.277847
3055.905638	5960.741500	546.325195	100.833038
3055.905638	5960.741500	545.082031	179.682571
3055.905638	5960.741500	543.837891	211.433762
3055.905638	5960.741500	542.593750	384.654144
3055.905638	5960.741500	541.349609	151.737930
3055.905638	5960.741500	540.105469	71.562683
3055.905638	5960.741500	538.860352	191.130890
3055.905638	5960.741500	537.615234	209.828018
3055.905638	5960.741500	536.369141	194.976974
3055.905638	5960.741500	535.124023	274.372925
3055.905638	5960.741500	533.877930	89.385719
3055.905638	5960.741500	532.631836	32.287094
3055.905638	5960.741500	531.384766	38.029922
3055.905638	5960.741500	530.138672	-182.325806
3055.905638	5960.741500	528.891602	13.986679
3055.905638	5960.741500	527.643555	91.665993
3055.905638	5960.741500	526.396484	-112.587898
3055.905638	5960.741500	525.148438	142.069229
3055.905638	5960.741500	523.900391	-218.503998
3055.905638	5960.741500	522.652344	-113.580147
3055.905638	5960.741500	521.403320	-71.211044
3055.905638	5960.741500	520.154297	-86.881294
3055.905638	5960.741500	518.905273	80.856041
3055.905638	5960.741500	517.656250	-117.874466
3055.905638	5960.741500	516.406250	-50.528873
3055.905638	5960.741500	515.156250	-85.858070
3055.905638	5960.741500	513.906250	173.741776
3055.905638	5960.741500	512.655273	-37.795731
3055.905638	5960.741500	511.404297	-23.660486
3055.905638	5960.741500	510.153320	-161.188385
3055.905638	5960.741500	508.902344	-102.179268
3055.905638	5960.741500	507.650391	-56.471058
3055.905638	5960.741500	506.398438	-90.968246
3055.905638	5960.741500	505.146484	-27.219036
3055.905638	5960.741500	503.893555	36.611462
3055.905638	5960.741500	502.641602	96.069832
3055.905638	5960.741500	501.388672	-96.216789
3055.905638	5960.741500	500.134766	32.531349
3055.905638	5960.741500	498.881836	-121.571709
3055.905638	5960.741500	497.627930	-75.060753
3055.905638	5960.741500	496.374023	116.267464
3055.905638	5960.741500	495.119141	-213.303177
3055.905638	5960.741500	493.865234	160.687836
3055.905638	5960.741500	492.610352	62.876762
3055.905638	5960.741500	491.355469	0.803858
3055.905638	5960.741500	490.099609	52.292805
3055.905638	5960.741500	488.843750	199.478134
3055.905638	5960.741500	487.587891	50.999302
3055.905638	5960.741500	486.332031	20.485836
3055.905638	5960.741500	485.075195	230.086288
3055.905638	5960.741500	483.818359	133.070023
3055.905638	5960.741500	482.561523	131.698868
3055.905638	5960.741500	481.304688	436.893707
3055.905638	5960.741500	480.046875	473.366150
3055.905638	5960.741500	478.789063	709.693176
3055.905638	5960.741500	477.531250	251.301987
3055.905638	5960.741500	476.272461	359.016083
3055.905638	5960.741500	475.013672	584.329651
3055.905638	5960.741500	473.754883	654.345154
3055.905638	5960.741500	472.496094	797.566040
3055.905638	5960.741500	471.236328	723.506653
3055.905638	5960.741500	469.976563	691.641724
3055.905638	5960.741500	468.716797	684.210449
3055.905638	5960.741500	467.456055	803.111389
3055.905638	5960.741500	466.196289	684.972290
3055.905638	5960.741500	464.935547	775.091125
3055.905638	5960.741500	463.673828	814.266846
3055.905638	5960.741500	462.413086	780.387146
3055.905638	5960.741500	461.151367	788.583313
3055.905638	5960.741500	459.889648	743.672607
3055.905638	5960.741500	458.626953	966.463196
3055.905638	5960.741500	457.364258	1005.566711
3055.905638	5960.741500	456.101563	898.686890
3055.905638	5960.741500	454.838867	858.153992
3055.905638	5960.741500	453.575195	1014.326843
3055.905638	5960.741500	452.312500	885.313782
3055.905638	5960.741500	451.047852	1116.441284
3055.905638	5960.741500	449.784180	991.771240
3055.905638	5960.741500	448.519531	973.092896
3055.905638	5960.741500	447.254883	903.561707
3055.905638	5960.741500	445.990234	1094.459229
3055.905638	5960.741500	444.725586	788.596924
3055.905638	5960.741500	443.459961	882.143127
3055.905638	5960.741500	442.194336	953.472046
3055.905638	5960.741500	440.927734	863.631165
3055.905638	5960.741500	439.662109	795.741699
3055.905638	5960.741500	438.395508	954.807007
3055.905638	5960.741500	437.127930	1045.309937
3055.905638	5960.741500	435.861328	1091.524780
3055.905638	5960.741500	434.593750	963.476501
3055.905638	5960.741500	433.326172	938.810974
3055.905638	5960.741500	432.058594	918.345093
3055.905638	5960.741500	430.790039	1084.807739
3055.905638	5960.741500	429.521484	1015.416443
3055.905638	5960.741500	428.252930	1051.436157
3055.905638	5960.741500	426.984375	1111.371460
3055.905638	5960.741500	425.714844	994.999817
3055.905638	5960.741500	424.445313	1076.320068
3055.905638	5960.741500	423.174805	1172.673706
3055.905638	5960.741500	421.905273	1154.331665
3055.905638	5960.741500	420.634766	1067.502808
3055.905638	5960.741500	419.364258	1255.023926
3055.905638	5960.741500	418.092773	1099.337280
3055.905638	5960.741500	416.822266	965.276733
3055.905638	5960.741500	415.550781	1039.467773
3055.905638	5960.741500	414.278320	1018.764099
3055.905638	5960.741500	413.006836	1021.751404
3055.905638	5960.741500	411.734375	1063.746826
3055.905638	5960.741500	410.461914	1304.881104
3055.905638	5960.741500	409.188477	1159.287720
3055.905638	5960.741500	407.916016	1276.394165
3055.905638	5960.741500	406.642578	1127.546631
3055.905638	5960.741500	405.368164	1146.959229
3055.905638	5960.741500	404.094727	1159.172852
3055.905638	5960.741500	402.820313	1337.264648
3055.905638	5960.741500	401.545898	1297.714233
3055.905638	5960.741500	400.270508	1066.913452
3055.905638	5960.741500	398.996094	1124.561401
3055.905638	5960.741500	397.720703	1271.187622
3055.905638	5960.741500	396.444336	1298.760010
3055.905638	5960.741500	395.168945	1375.859863
3055.905638	5960.741500	393.892578	1204.839722
3055.905638	5960.741500	392.616211	1120.528442
3055.905638	5960.741500	391.339844	1044.109863
3055.905638	5960.741500	390.062500	1080.484741
3055.905638	5960.741500	388.785156	1096.214355
3055.905638	5960.741500	387.507813	1054.127197
3055.905638	5960.741500	386.229492	1059.092163
3055.905638	5960.741500	384.951172	1032.417114
3055.905638	5960.741500	383.672852	1116.058960
3055.905638	5960.741500	382.394531	1054.421753
3055.905638	5960.741500	381.115234	1111.710327
3055.905638	5960.741500	379.835938	1233.263794
3055.905638	5960.741500	378.556641	1257.515137
3055.905638	5960.741500	377.277344	1191.037231
3055.905638	5960.741500	375.997070	1241.049683
3055.905638	5960.741500	374.716797	1311.503784
3055.905638	5960.741500	373.435547	1349.992432
3055.905638	5960.741500	372.155273	1223.572998
3055.905638	5960.741500	370.874023	1171.994873
3055.905638	5960.741500	369.591797	1033.922363
3055.905638	5960.741500	368.310547	1079.556030
3055.905638	5960.741500	367.028320	1201.950195
3055.905638	5960.741500	365.746094	991.665466
3055.905638	5960.741500	364.463867	1019.262939
3055.905638	5960.741500	363.180664	1018.960144
3055.905638	5960.741500	361.897461	803.617615
3055.905638	5960.741500	360.614258	760.588684
3055.905638	5960.741500	359.330078	996.255981
3055.905638	5960.741500	358.045898	1040.690308
3055.905638	5960.741500	356.761719	974.416199
3055.905638	5960.741500	355.477539	938.744507
3055.905638	5960.741500	354.192383	946.594849
3055.905638	5960.741500	352.907227	1128.294189
3055.905638	5960.741500	351.622070	1005.769531
3055.905638	5960.741500	350.336914	1050.450928
3055.905638	5960.741500	349.050781	1040.638306
3055.905638	5960.741500	347.764648	1182.596558
3055.905638	5960.741500	346.477539	805.451660
3055.905638	5960.741500	345.191406	892.575684
3055.905638	5960.741500	343.904297	888.110046
3055.905638	5960.741500	342.616211	768.181946
3055.905638	5960.741500	341.329102	706.413940
3055.905638	5960.741500	340.041016	958.403137
3055.905638	5960.741500	338.752930	717.605713
3055.905638	5960.741500	337.463867	671.175110
3055.905638	5960.741500	336.175781	513.562317
3055.905638	5960.741500	334.886719	430.919464
3055.905638	5960.741500	333.596680	698.158081
3055.905638	5960.741500	332.307617	557.311523
3055.905638	5960.741500	331.017578	291.995178
3055.905638	5960.741500	329.727539	430.375488
3055.905638	5960.741500	328.436523	636.637695
3055.905638	5960.741500	327.146484	458.701233
3055.905638	5960.741500	325.855469	130.148804
3055.905638	5960.741500	324.563477	94.280830
3055.905638	5960.741500	323.272461	20.239643
3055.905638	5960.741500	321.980469	368.162323
3055.905638	5960.741500	320.688477	292.851501
3055.905638	5960.741500	319.395508	64.452545
3055.905638	5960.741500	318.103516	398.156647
3055.905638	5960.741500	316.810547	312.857635
3055.905638	5960.741500	315.516602	199.527206
3055.905638	5960.741500	314.223633	224.534927
3055.905638	5960.741500	312.929688	50.796719
3055.905638	5960.741500	311.635742	-118.717163
3055.905638	5960.741500	310.340820	-85.768425
3055.905638	5960.741500	309.045898	89.148064
3055.905638	5960.741500	307.750977	50.061501
3055.905638	5960.741500	306.456055	202.300476
3055.905638	5960.741500	305.160156	-295.071198
3055.905638	5960.741500	303.865234	-142.083740
3055.905638	5960.741500	302.568359	-61.421547
3055.905638	5960.741500	301.272461	20.535616
3055.905638	5960.741500	299.975586	45.232666
3055.905638	5960.741500	298.678711	195.748383
