#X		#Y		#Wave		#Intensity
29595.893085	-1522.655000	1999.980469	32.065430
29595.893085	-1522.655000	1999.016602	-207.283463
29595.893085	-1522.655000	1998.052734	18.852091
29595.893085	-1522.655000	1997.087891	85.481110
29595.893085	-1522.655000	1996.123047	-91.542702
29595.893085	-1522.655000	1995.158203	99.808449
29595.893085	-1522.655000	1994.193359	-160.452728
29595.893085	-1522.655000	1993.228516	73.891144
29595.893085	-1522.655000	1992.262695	-86.226227
29595.893085	-1522.655000	1991.297852	-39.074326
29595.893085	-1522.655000	1990.332031	-54.488510
29595.893085	-1522.655000	1989.366211	-85.413147
29595.893085	-1522.655000	1988.399414	-109.542801
29595.893085	-1522.655000	1987.433594	-13.101009
29595.893085	-1522.655000	1986.466797	6.037765
29595.893085	-1522.655000	1985.500977	22.096081
29595.893085	-1522.655000	1984.534180	321.880829
29595.893085	-1522.655000	1983.567383	-24.116068
29595.893085	-1522.655000	1982.599609	106.432419
29595.893085	-1522.655000	1981.632813	93.098694
29595.893085	-1522.655000	1980.665039	158.320511
29595.893085	-1522.655000	1979.697266	37.788898
29595.893085	-1522.655000	1978.729492	109.443161
29595.893085	-1522.655000	1977.761719	150.985947
29595.893085	-1522.655000	1976.792969	43.966908
29595.893085	-1522.655000	1975.825195	62.426113
29595.893085	-1522.655000	1974.856445	193.979202
29595.893085	-1522.655000	1973.887695	263.407928
29595.893085	-1522.655000	1972.918945	117.829346
29595.893085	-1522.655000	1971.949219	100.180153
29595.893085	-1522.655000	1970.980469	161.082962
29595.893085	-1522.655000	1970.010742	7.144083
29595.893085	-1522.655000	1969.041016	143.781464
29595.893085	-1522.655000	1968.071289	11.436799
29595.893085	-1522.655000	1967.101563	110.444099
29595.893085	-1522.655000	1966.130859	-103.734322
29595.893085	-1522.655000	1965.161133	14.390540
29595.893085	-1522.655000	1964.190430	-3.235753
29595.893085	-1522.655000	1963.219727	237.405533
29595.893085	-1522.655000	1962.249023	123.238808
29595.893085	-1522.655000	1961.277344	149.165146
29595.893085	-1522.655000	1960.306641	-122.886703
29595.893085	-1522.655000	1959.334961	133.900986
29595.893085	-1522.655000	1958.363281	-22.855455
29595.893085	-1522.655000	1957.391602	221.124527
29595.893085	-1522.655000	1956.419922	-51.534061
29595.893085	-1522.655000	1955.447266	27.284964
29595.893085	-1522.655000	1954.474609	344.331573
29595.893085	-1522.655000	1953.501953	191.720291
29595.893085	-1522.655000	1952.529297	-39.607437
29595.893085	-1522.655000	1951.556641	-20.416435
29595.893085	-1522.655000	1950.583984	23.198137
29595.893085	-1522.655000	1949.610352	103.504539
29595.893085	-1522.655000	1948.636719	119.831398
29595.893085	-1522.655000	1947.663086	111.496010
29595.893085	-1522.655000	1946.689453	41.706066
29595.893085	-1522.655000	1945.715820	106.811623
29595.893085	-1522.655000	1944.741211	-51.455746
29595.893085	-1522.655000	1943.767578	109.142441
29595.893085	-1522.655000	1942.792969	70.953369
29595.893085	-1522.655000	1941.818359	260.750244
29595.893085	-1522.655000	1940.842773	148.870056
29595.893085	-1522.655000	1939.868164	76.200455
29595.893085	-1522.655000	1938.892578	-8.747594
29595.893085	-1522.655000	1937.916992	53.305470
29595.893085	-1522.655000	1936.941406	-134.575226
29595.893085	-1522.655000	1935.965820	-18.704632
29595.893085	-1522.655000	1934.990234	75.056244
29595.893085	-1522.655000	1934.013672	-76.080177
29595.893085	-1522.655000	1933.037109	-92.541084
29595.893085	-1522.655000	1932.060547	62.314930
29595.893085	-1522.655000	1931.083984	-223.354294
29595.893085	-1522.655000	1930.107422	-0.038509
29595.893085	-1522.655000	1929.129883	10.381085
29595.893085	-1522.655000	1928.153320	23.253527
29595.893085	-1522.655000	1927.175781	-49.455612
29595.893085	-1522.655000	1926.198242	71.009010
29595.893085	-1522.655000	1925.219727	142.555725
29595.893085	-1522.655000	1924.242188	116.347298
29595.893085	-1522.655000	1923.263672	209.892822
29595.893085	-1522.655000	1922.285156	-50.789333
29595.893085	-1522.655000	1921.306641	3.729661
29595.893085	-1522.655000	1920.328125	24.074778
29595.893085	-1522.655000	1919.349609	-41.007072
29595.893085	-1522.655000	1918.370117	-27.914930
29595.893085	-1522.655000	1917.391602	-122.170998
29595.893085	-1522.655000	1916.412109	161.873993
29595.893085	-1522.655000	1915.431641	175.045700
29595.893085	-1522.655000	1914.452148	-50.782246
29595.893085	-1522.655000	1913.472656	72.272835
29595.893085	-1522.655000	1912.492188	168.507767
29595.893085	-1522.655000	1911.511719	89.232086
29595.893085	-1522.655000	1910.531250	-53.331795
29595.893085	-1522.655000	1909.550781	167.324539
29595.893085	-1522.655000	1908.569336	0.545569
29595.893085	-1522.655000	1907.588867	-285.474365
29595.893085	-1522.655000	1906.607422	-13.574264
29595.893085	-1522.655000	1905.625977	26.946985
29595.893085	-1522.655000	1904.644531	48.038719
29595.893085	-1522.655000	1903.662109	-96.345390
29595.893085	-1522.655000	1902.680664	-213.834381
29595.893085	-1522.655000	1901.698242	-70.848152
29595.893085	-1522.655000	1900.715820	35.657379
29595.893085	-1522.655000	1899.733398	-93.754639
29595.893085	-1522.655000	1898.750000	85.808800
29595.893085	-1522.655000	1897.767578	-9.384981
29595.893085	-1522.655000	1896.784180	-4.802522
29595.893085	-1522.655000	1895.800781	-80.363358
29595.893085	-1522.655000	1894.817383	104.202263
29595.893085	-1522.655000	1893.833984	57.946228
29595.893085	-1522.655000	1892.850586	-65.957550
29595.893085	-1522.655000	1891.866211	-184.890518
29595.893085	-1522.655000	1890.881836	-131.295395
29595.893085	-1522.655000	1889.897461	-33.947716
29595.893085	-1522.655000	1888.913086	-23.955107
29595.893085	-1522.655000	1887.927734	-26.032978
29595.893085	-1522.655000	1886.943359	13.213511
29595.893085	-1522.655000	1885.958008	125.293221
29595.893085	-1522.655000	1884.972656	79.736252
29595.893085	-1522.655000	1883.987305	123.994232
29595.893085	-1522.655000	1883.001953	39.795101
29595.893085	-1522.655000	1882.015625	-7.943670
29595.893085	-1522.655000	1881.029297	-176.788193
29595.893085	-1522.655000	1880.042969	-163.751892
29595.893085	-1522.655000	1879.056641	-148.233017
29595.893085	-1522.655000	1878.070313	90.209000
29595.893085	-1522.655000	1877.083984	88.848671
29595.893085	-1522.655000	1876.096680	-31.104456
29595.893085	-1522.655000	1875.109375	120.209579
29595.893085	-1522.655000	1874.122070	138.394257
29595.893085	-1522.655000	1873.134766	108.227821
29595.893085	-1522.655000	1872.146484	-105.768593
29595.893085	-1522.655000	1871.159180	36.005939
29595.893085	-1522.655000	1870.170898	39.911190
29595.893085	-1522.655000	1869.182617	-205.220825
29595.893085	-1522.655000	1868.194336	-218.087646
29595.893085	-1522.655000	1867.205078	71.283150
29595.893085	-1522.655000	1866.216797	140.650909
29595.893085	-1522.655000	1865.227539	-14.695478
29595.893085	-1522.655000	1864.238281	-61.210590
29595.893085	-1522.655000	1863.249023	22.782890
29595.893085	-1522.655000	1862.259766	-192.691071
29595.893085	-1522.655000	1861.269531	29.026556
29595.893085	-1522.655000	1860.279297	-80.052277
29595.893085	-1522.655000	1859.290039	47.507011
29595.893085	-1522.655000	1858.298828	95.417076
29595.893085	-1522.655000	1857.308594	70.961212
29595.893085	-1522.655000	1856.318359	51.376556
29595.893085	-1522.655000	1855.327148	-71.881836
29595.893085	-1522.655000	1854.335938	-9.369797
29595.893085	-1522.655000	1853.344727	45.917885
29595.893085	-1522.655000	1852.353516	45.770584
29595.893085	-1522.655000	1851.362305	21.551884
29595.893085	-1522.655000	1850.370117	31.104593
29595.893085	-1522.655000	1849.377930	-123.150795
29595.893085	-1522.655000	1848.385742	21.371910
29595.893085	-1522.655000	1847.393555	40.626080
29595.893085	-1522.655000	1846.401367	18.960583
29595.893085	-1522.655000	1845.408203	170.659698
29595.893085	-1522.655000	1844.415039	211.596848
29595.893085	-1522.655000	1843.421875	11.876747
29595.893085	-1522.655000	1842.428711	-45.793381
29595.893085	-1522.655000	1841.435547	-185.221924
29595.893085	-1522.655000	1840.441406	-47.987865
29595.893085	-1522.655000	1839.448242	125.275337
29595.893085	-1522.655000	1838.454102	101.326538
29595.893085	-1522.655000	1837.459961	22.103485
29595.893085	-1522.655000	1836.464844	123.168816
29595.893085	-1522.655000	1835.470703	216.989578
29595.893085	-1522.655000	1834.475586	140.196747
29595.893085	-1522.655000	1833.480469	145.101074
29595.893085	-1522.655000	1832.485352	186.024033
29595.893085	-1522.655000	1831.490234	18.027321
29595.893085	-1522.655000	1830.495117	202.987106
29595.893085	-1522.655000	1829.499023	-10.571099
29595.893085	-1522.655000	1828.502930	87.913490
29595.893085	-1522.655000	1827.506836	159.954742
29595.893085	-1522.655000	1826.510742	116.809692
29595.893085	-1522.655000	1825.513672	28.093662
29595.893085	-1522.655000	1824.517578	11.333456
29595.893085	-1522.655000	1823.520508	219.926498
29595.893085	-1522.655000	1822.523438	-89.347565
29595.893085	-1522.655000	1821.526367	-27.051971
29595.893085	-1522.655000	1820.529297	18.422890
29595.893085	-1522.655000	1819.531250	217.179581
29595.893085	-1522.655000	1818.533203	39.776154
29595.893085	-1522.655000	1817.535156	262.343781
29595.893085	-1522.655000	1816.537109	58.600471
29595.893085	-1522.655000	1815.539063	12.898129
29595.893085	-1522.655000	1814.540039	304.655579
29595.893085	-1522.655000	1813.541992	239.708923
29595.893085	-1522.655000	1812.542969	31.195295
29595.893085	-1522.655000	1811.543945	109.772705
29595.893085	-1522.655000	1810.543945	90.221230
29595.893085	-1522.655000	1809.544922	123.240547
29595.893085	-1522.655000	1808.544922	153.811356
29595.893085	-1522.655000	1807.544922	-52.314404
29595.893085	-1522.655000	1806.544922	-0.306241
29595.893085	-1522.655000	1805.544922	-70.227188
29595.893085	-1522.655000	1804.544922	74.832390
29595.893085	-1522.655000	1803.543945	124.245132
29595.893085	-1522.655000	1802.542969	144.928329
29595.893085	-1522.655000	1801.541992	256.276062
29595.893085	-1522.655000	1800.541016	38.101303
29595.893085	-1522.655000	1799.539063	247.166245
29595.893085	-1522.655000	1798.538086	169.745041
29595.893085	-1522.655000	1797.536133	25.489376
29595.893085	-1522.655000	1796.534180	243.795456
29595.893085	-1522.655000	1795.532227	39.831863
29595.893085	-1522.655000	1794.529297	184.005081
29595.893085	-1522.655000	1793.527344	168.332169
29595.893085	-1522.655000	1792.524414	-19.017166
29595.893085	-1522.655000	1791.521484	-22.867987
29595.893085	-1522.655000	1790.518555	187.646637
29595.893085	-1522.655000	1789.514648	28.772812
29595.893085	-1522.655000	1788.511719	-122.966774
29595.893085	-1522.655000	1787.507813	137.232758
29595.893085	-1522.655000	1786.503906	213.936462
29595.893085	-1522.655000	1785.500000	192.940079
29595.893085	-1522.655000	1784.496094	83.816711
29595.893085	-1522.655000	1783.491211	86.488922
29595.893085	-1522.655000	1782.486328	188.997696
29595.893085	-1522.655000	1781.481445	174.838104
29595.893085	-1522.655000	1780.476563	46.451519
29595.893085	-1522.655000	1779.471680	-81.968712
29595.893085	-1522.655000	1778.465820	20.161776
29595.893085	-1522.655000	1777.460938	43.737713
29595.893085	-1522.655000	1776.455078	100.483452
29595.893085	-1522.655000	1775.449219	135.738556
29595.893085	-1522.655000	1774.442383	125.757065
29595.893085	-1522.655000	1773.436523	-5.429784
29595.893085	-1522.655000	1772.429688	-20.309156
29595.893085	-1522.655000	1771.422852	5.084912
29595.893085	-1522.655000	1770.416016	13.763371
29595.893085	-1522.655000	1769.409180	36.583870
29595.893085	-1522.655000	1768.402344	225.392365
29595.893085	-1522.655000	1767.394531	-10.600490
29595.893085	-1522.655000	1766.386719	83.080605
29595.893085	-1522.655000	1765.378906	133.946716
29595.893085	-1522.655000	1764.371094	201.293121
29595.893085	-1522.655000	1763.362305	-70.458870
29595.893085	-1522.655000	1762.354492	110.466385
29595.893085	-1522.655000	1761.345703	32.941345
29595.893085	-1522.655000	1760.336914	166.195938
29595.893085	-1522.655000	1759.328125	159.550934
29595.893085	-1522.655000	1758.318359	143.331604
29595.893085	-1522.655000	1757.308594	153.062164
29595.893085	-1522.655000	1756.299805	120.082634
29595.893085	-1522.655000	1755.290039	89.376839
29595.893085	-1522.655000	1754.279297	238.420670
29595.893085	-1522.655000	1753.269531	-36.190952
29595.893085	-1522.655000	1752.258789	55.843651
29595.893085	-1522.655000	1751.249023	67.334679
29595.893085	-1522.655000	1750.238281	180.389130
29595.893085	-1522.655000	1749.226563	99.434181
29595.893085	-1522.655000	1748.215820	216.959412
29595.893085	-1522.655000	1747.204102	46.016624
29595.893085	-1522.655000	1746.193359	163.298950
29595.893085	-1522.655000	1745.181641	1.672301
29595.893085	-1522.655000	1744.168945	-141.108871
29595.893085	-1522.655000	1743.157227	-146.972839
29595.893085	-1522.655000	1742.144531	-25.452633
29595.893085	-1522.655000	1741.132813	-59.872581
29595.893085	-1522.655000	1740.120117	146.336472
29595.893085	-1522.655000	1739.106445	22.008186
29595.893085	-1522.655000	1738.093750	79.283783
29595.893085	-1522.655000	1737.080078	249.643982
29595.893085	-1522.655000	1736.067383	202.878876
29595.893085	-1522.655000	1735.053711	207.891678
29595.893085	-1522.655000	1734.040039	245.800232
29595.893085	-1522.655000	1733.025391	-110.025154
29595.893085	-1522.655000	1732.011719	-34.577705
29595.893085	-1522.655000	1730.997070	193.869339
29595.893085	-1522.655000	1729.982422	31.099339
29595.893085	-1522.655000	1728.967773	9.592981
29595.893085	-1522.655000	1727.952148	112.780754
29595.893085	-1522.655000	1726.937500	274.687134
29595.893085	-1522.655000	1725.921875	-116.716866
29595.893085	-1522.655000	1724.906250	-63.298653
29595.893085	-1522.655000	1723.890625	-57.061798
29595.893085	-1522.655000	1722.875000	57.281174
29595.893085	-1522.655000	1721.858398	107.964989
29595.893085	-1522.655000	1720.841797	33.895172
29595.893085	-1522.655000	1719.825195	2.071171
29595.893085	-1522.655000	1718.808594	28.921175
29595.893085	-1522.655000	1717.791992	234.272797
29595.893085	-1522.655000	1716.774414	65.830147
29595.893085	-1522.655000	1715.756836	153.421173
29595.893085	-1522.655000	1714.739258	-130.235794
29595.893085	-1522.655000	1713.721680	37.002384
29595.893085	-1522.655000	1712.704102	-65.933067
29595.893085	-1522.655000	1711.685547	-178.327667
29595.893085	-1522.655000	1710.667969	134.041733
29595.893085	-1522.655000	1709.649414	-27.823309
29595.893085	-1522.655000	1708.630859	-25.494417
29595.893085	-1522.655000	1707.611328	-105.371651
29595.893085	-1522.655000	1706.592773	-16.449814
29595.893085	-1522.655000	1705.573242	-68.352989
29595.893085	-1522.655000	1704.553711	55.493149
29595.893085	-1522.655000	1703.534180	50.283684
29595.893085	-1522.655000	1702.513672	-41.732368
29595.893085	-1522.655000	1701.494141	-79.909195
29595.893085	-1522.655000	1700.473633	-263.409729
29595.893085	-1522.655000	1699.453125	5.089877
29595.893085	-1522.655000	1698.432617	1.766267
29595.893085	-1522.655000	1697.412109	-102.315254
29595.893085	-1522.655000	1696.390625	-68.354294
29595.893085	-1522.655000	1695.369141	-104.702370
29595.893085	-1522.655000	1694.347656	-75.608559
29595.893085	-1522.655000	1693.326172	25.907541
29595.893085	-1522.655000	1692.304688	-24.730261
29595.893085	-1522.655000	1691.282227	-349.046112
29595.893085	-1522.655000	1690.260742	-102.832649
29595.893085	-1522.655000	1689.238281	-60.175304
29595.893085	-1522.655000	1688.214844	-5.942420
29595.893085	-1522.655000	1687.192383	-63.960342
29595.893085	-1522.655000	1686.168945	-58.969170
29595.893085	-1522.655000	1685.146484	-65.727547
29595.893085	-1522.655000	1684.123047	34.853275
29595.893085	-1522.655000	1683.099609	32.584015
29595.893085	-1522.655000	1682.075195	90.923439
29595.893085	-1522.655000	1681.051758	102.497292
29595.893085	-1522.655000	1680.027344	137.316681
29595.893085	-1522.655000	1679.002930	78.726860
29595.893085	-1522.655000	1677.978516	83.068810
29595.893085	-1522.655000	1676.953125	196.939697
29595.893085	-1522.655000	1675.928711	65.877136
29595.893085	-1522.655000	1674.903320	149.262756
29595.893085	-1522.655000	1673.877930	25.104275
29595.893085	-1522.655000	1672.852539	-96.740639
29595.893085	-1522.655000	1671.826172	81.946045
29595.893085	-1522.655000	1670.800781	148.695755
29595.893085	-1522.655000	1669.774414	194.384689
29595.893085	-1522.655000	1668.748047	56.036591
29595.893085	-1522.655000	1667.721680	89.964218
29595.893085	-1522.655000	1666.694336	284.417633
29595.893085	-1522.655000	1665.667969	280.935699
29595.893085	-1522.655000	1664.640625	365.805267
29595.893085	-1522.655000	1663.613281	485.481049
29595.893085	-1522.655000	1662.585938	195.700668
29595.893085	-1522.655000	1661.557617	429.192535
29595.893085	-1522.655000	1660.530273	362.629761
29595.893085	-1522.655000	1659.501953	240.242233
29595.893085	-1522.655000	1658.473633	366.531769
29595.893085	-1522.655000	1657.444336	511.301788
29595.893085	-1522.655000	1656.416016	226.190659
29595.893085	-1522.655000	1655.386719	43.334209
29595.893085	-1522.655000	1654.358398	241.373856
29595.893085	-1522.655000	1653.328125	351.041199
29595.893085	-1522.655000	1652.298828	516.350586
29595.893085	-1522.655000	1651.269531	242.897446
29595.893085	-1522.655000	1650.239258	419.677399
29595.893085	-1522.655000	1649.208984	382.907501
29595.893085	-1522.655000	1648.178711	104.878304
29595.893085	-1522.655000	1647.148438	186.391968
29595.893085	-1522.655000	1646.117188	413.907959
29595.893085	-1522.655000	1645.086914	506.858337
29595.893085	-1522.655000	1644.055664	354.043365
29595.893085	-1522.655000	1643.024414	813.043579
29595.893085	-1522.655000	1641.992188	558.216858
29595.893085	-1522.655000	1640.960938	643.997314
29595.893085	-1522.655000	1639.928711	308.193970
29595.893085	-1522.655000	1638.896484	461.082733
29595.893085	-1522.655000	1637.864258	634.726563
29595.893085	-1522.655000	1636.832031	854.578186
29595.893085	-1522.655000	1635.798828	854.463013
29595.893085	-1522.655000	1634.766602	868.226746
29595.893085	-1522.655000	1633.733398	740.845947
29595.893085	-1522.655000	1632.699219	641.242188
29595.893085	-1522.655000	1631.666016	819.168152
29595.893085	-1522.655000	1630.632813	668.716003
29595.893085	-1522.655000	1629.598633	740.205444
29595.893085	-1522.655000	1628.564453	832.460327
29595.893085	-1522.655000	1627.530273	864.596497
29595.893085	-1522.655000	1626.495117	838.948242
29595.893085	-1522.655000	1625.460938	697.834839
29595.893085	-1522.655000	1624.425781	789.997559
29595.893085	-1522.655000	1623.390625	847.492859
29595.893085	-1522.655000	1622.355469	916.509705
29595.893085	-1522.655000	1621.319336	710.845337
29595.893085	-1522.655000	1620.284180	789.099182
29595.893085	-1522.655000	1619.248047	927.298889
29595.893085	-1522.655000	1618.211914	903.991028
29595.893085	-1522.655000	1617.174805	689.278442
29595.893085	-1522.655000	1616.138672	908.143433
29595.893085	-1522.655000	1615.101563	831.850891
29595.893085	-1522.655000	1614.065430	737.176880
29595.893085	-1522.655000	1613.027344	681.702881
29595.893085	-1522.655000	1611.990234	700.003723
29595.893085	-1522.655000	1610.953125	868.039795
29595.893085	-1522.655000	1609.915039	713.597839
29595.893085	-1522.655000	1608.876953	655.944885
29595.893085	-1522.655000	1607.838867	743.367676
29595.893085	-1522.655000	1606.800781	621.331421
29595.893085	-1522.655000	1605.761719	635.125916
29595.893085	-1522.655000	1604.723633	803.105774
29595.893085	-1522.655000	1603.684570	499.473083
29595.893085	-1522.655000	1602.644531	798.538940
29595.893085	-1522.655000	1601.605469	685.937073
29595.893085	-1522.655000	1600.566406	681.464172
29595.893085	-1522.655000	1599.526367	1097.642456
29595.893085	-1522.655000	1598.486328	996.629395
29595.893085	-1522.655000	1597.446289	923.265259
29595.893085	-1522.655000	1596.405273	1164.667114
29595.893085	-1522.655000	1595.365234	1043.146240
29595.893085	-1522.655000	1594.324219	1112.292603
29595.893085	-1522.655000	1593.283203	1078.143555
29595.893085	-1522.655000	1592.242188	1154.229736
29595.893085	-1522.655000	1591.200195	1058.200562
29595.893085	-1522.655000	1590.159180	1157.299438
29595.893085	-1522.655000	1589.117188	976.525146
29595.893085	-1522.655000	1588.075195	972.476990
29595.893085	-1522.655000	1587.032227	888.210144
29595.893085	-1522.655000	1585.990234	852.187927
29595.893085	-1522.655000	1584.947266	809.346191
29595.893085	-1522.655000	1583.904297	1213.474487
29595.893085	-1522.655000	1582.861328	1120.282227
29595.893085	-1522.655000	1581.818359	1054.675903
29595.893085	-1522.655000	1580.775391	1268.587524
29595.893085	-1522.655000	1579.731445	1232.857666
29595.893085	-1522.655000	1578.687500	1133.096802
29595.893085	-1522.655000	1577.643555	1113.557129
29595.893085	-1522.655000	1576.598633	1206.223877
29595.893085	-1522.655000	1575.554688	1145.621826
29595.893085	-1522.655000	1574.509766	1206.352051
29595.893085	-1522.655000	1573.464844	1550.752075
29595.893085	-1522.655000	1572.419922	1357.678589
29595.893085	-1522.655000	1571.374023	1368.231567
29595.893085	-1522.655000	1570.329102	1340.002197
29595.893085	-1522.655000	1569.283203	1236.427246
29595.893085	-1522.655000	1568.237305	1164.959106
29595.893085	-1522.655000	1567.191406	1084.458374
29595.893085	-1522.655000	1566.144531	1093.138428
29595.893085	-1522.655000	1565.098633	736.511780
29595.893085	-1522.655000	1564.051758	923.511841
29595.893085	-1522.655000	1563.004883	838.866028
29595.893085	-1522.655000	1561.957031	656.185547
29595.893085	-1522.655000	1560.910156	770.319946
29595.893085	-1522.655000	1559.862305	635.804871
29595.893085	-1522.655000	1558.814453	795.681885
29595.893085	-1522.655000	1557.766602	729.807556
29595.893085	-1522.655000	1556.718750	477.077484
29595.893085	-1522.655000	1555.669922	646.268372
29595.893085	-1522.655000	1554.621094	578.443787
29595.893085	-1522.655000	1553.573242	588.227478
29595.893085	-1522.655000	1552.523438	641.370605
29595.893085	-1522.655000	1551.474609	487.309601
29595.893085	-1522.655000	1550.424805	173.975266
29595.893085	-1522.655000	1549.375000	482.479492
29595.893085	-1522.655000	1548.325195	340.206055
29595.893085	-1522.655000	1547.275391	245.885483
29595.893085	-1522.655000	1546.225586	367.888824
29595.893085	-1522.655000	1545.174805	348.874512
29595.893085	-1522.655000	1544.124023	227.607147
29595.893085	-1522.655000	1543.073242	343.017365
29595.893085	-1522.655000	1542.022461	272.030914
29595.893085	-1522.655000	1540.970703	242.091675
29595.893085	-1522.655000	1539.919922	-1.378663
29595.893085	-1522.655000	1538.868164	171.213898
29595.893085	-1522.655000	1537.815430	91.642006
29595.893085	-1522.655000	1536.763672	209.848206
29595.893085	-1522.655000	1535.710938	160.044235
29595.893085	-1522.655000	1534.659180	101.296188
29595.893085	-1522.655000	1533.606445	4.080868
29595.893085	-1522.655000	1532.552734	-120.227547
29595.893085	-1522.655000	1531.500000	-46.929863
29595.893085	-1522.655000	1530.446289	196.614426
29595.893085	-1522.655000	1529.393555	192.923355
29595.893085	-1522.655000	1528.338867	-44.271381
29595.893085	-1522.655000	1527.285156	33.945541
29595.893085	-1522.655000	1526.231445	10.228971
29595.893085	-1522.655000	1525.176758	65.967598
29595.893085	-1522.655000	1524.122070	328.031189
29595.893085	-1522.655000	1523.067383	345.407776
29595.893085	-1522.655000	1522.012695	392.347992
29595.893085	-1522.655000	1520.957031	489.212646
29595.893085	-1522.655000	1519.901367	237.438354
29595.893085	-1522.655000	1518.845703	397.933990
29595.893085	-1522.655000	1517.790039	513.219666
29595.893085	-1522.655000	1516.734375	354.750092
29595.893085	-1522.655000	1515.677734	255.291824
29595.893085	-1522.655000	1514.621094	434.250610
29595.893085	-1522.655000	1513.564453	371.257843
29595.893085	-1522.655000	1512.507813	340.075806
29595.893085	-1522.655000	1511.450195	489.897278
29595.893085	-1522.655000	1510.393555	393.409637
29595.893085	-1522.655000	1509.335938	507.260742
29595.893085	-1522.655000	1508.278320	542.113281
29595.893085	-1522.655000	1507.219727	705.846069
29595.893085	-1522.655000	1506.162109	578.286987
29595.893085	-1522.655000	1505.103516	846.086853
29595.893085	-1522.655000	1504.044922	1317.106934
29595.893085	-1522.655000	1502.986328	1194.409302
29595.893085	-1522.655000	1501.926758	1369.791138
29595.893085	-1522.655000	1500.868164	1795.699219
29595.893085	-1522.655000	1499.808594	1966.647705
29595.893085	-1522.655000	1498.749023	2024.889893
29595.893085	-1522.655000	1497.688477	2155.401367
29595.893085	-1522.655000	1496.628906	2351.382324
29595.893085	-1522.655000	1495.568359	2626.315186
29595.893085	-1522.655000	1494.507813	2236.433838
29595.893085	-1522.655000	1493.447266	2419.168457
29595.893085	-1522.655000	1492.386719	2743.893799
29595.893085	-1522.655000	1491.325195	2485.264160
29595.893085	-1522.655000	1490.263672	2226.878418
29595.893085	-1522.655000	1489.202148	1993.498169
29595.893085	-1522.655000	1488.140625	1767.101440
29595.893085	-1522.655000	1487.079102	1862.763428
29595.893085	-1522.655000	1486.016602	1783.015625
29595.893085	-1522.655000	1484.954102	1597.705078
29595.893085	-1522.655000	1483.891602	1635.279297
29595.893085	-1522.655000	1482.829102	1486.334961
29595.893085	-1522.655000	1481.765625	1002.599243
29595.893085	-1522.655000	1480.702148	685.558472
29595.893085	-1522.655000	1479.638672	609.254578
29595.893085	-1522.655000	1478.575195	459.009003
29595.893085	-1522.655000	1477.511719	214.624481
29595.893085	-1522.655000	1476.447266	177.084625
29595.893085	-1522.655000	1475.382813	43.196201
29595.893085	-1522.655000	1474.318359	37.376198
29595.893085	-1522.655000	1473.253906	195.571869
29595.893085	-1522.655000	1472.189453	225.902344
29595.893085	-1522.655000	1471.124023	85.852783
29595.893085	-1522.655000	1470.058594	472.975311
29595.893085	-1522.655000	1468.993164	512.698547
29595.893085	-1522.655000	1467.927734	769.997009
29595.893085	-1522.655000	1466.861328	847.987244
29595.893085	-1522.655000	1465.794922	1206.397461
29595.893085	-1522.655000	1464.728516	1309.241333
29595.893085	-1522.655000	1463.662109	1446.085938
29595.893085	-1522.655000	1462.594727	1555.921509
29595.893085	-1522.655000	1461.528320	1445.157104
29595.893085	-1522.655000	1460.460938	1532.708618
29595.893085	-1522.655000	1459.393555	1551.177612
29595.893085	-1522.655000	1458.326172	1520.068604
29595.893085	-1522.655000	1457.257813	1843.985474
29595.893085	-1522.655000	1456.189453	1550.851563
29595.893085	-1522.655000	1455.121094	1484.538696
29595.893085	-1522.655000	1454.052734	1491.571045
29595.893085	-1522.655000	1452.984375	1584.073120
29595.893085	-1522.655000	1451.915039	1640.410400
29595.893085	-1522.655000	1450.845703	1696.813843
29595.893085	-1522.655000	1449.776367	1550.912231
29595.893085	-1522.655000	1448.707031	1656.429565
29595.893085	-1522.655000	1447.636719	1075.175049
29595.893085	-1522.655000	1446.567383	1204.667358
29595.893085	-1522.655000	1445.497070	1143.970337
29595.893085	-1522.655000	1444.425781	1225.427734
29595.893085	-1522.655000	1443.355469	1209.760620
29595.893085	-1522.655000	1442.285156	1256.739014
29595.893085	-1522.655000	1441.213867	898.609192
29595.893085	-1522.655000	1440.142578	830.765015
29595.893085	-1522.655000	1439.070313	1236.913818
29595.893085	-1522.655000	1437.999023	1201.880859
29595.893085	-1522.655000	1436.926758	981.609680
29595.893085	-1522.655000	1435.854492	1074.089233
29595.893085	-1522.655000	1434.782227	921.784973
29595.893085	-1522.655000	1433.709961	806.666016
29595.893085	-1522.655000	1432.636719	812.781250
29595.893085	-1522.655000	1431.563477	680.336853
29595.893085	-1522.655000	1430.490234	568.870300
29595.893085	-1522.655000	1429.416992	333.502197
29595.893085	-1522.655000	1428.343750	427.522034
29595.893085	-1522.655000	1427.269531	526.028931
29595.893085	-1522.655000	1426.195313	323.038055
29595.893085	-1522.655000	1425.121094	401.673737
29595.893085	-1522.655000	1424.046875	400.676636
29595.893085	-1522.655000	1422.971680	335.373871
29595.893085	-1522.655000	1421.896484	55.282955
29595.893085	-1522.655000	1420.821289	148.385666
29595.893085	-1522.655000	1419.746094	313.765320
29595.893085	-1522.655000	1418.669922	406.520020
29595.893085	-1522.655000	1417.594727	32.809082
29595.893085	-1522.655000	1416.518555	-56.502586
29595.893085	-1522.655000	1415.442383	50.943562
29595.893085	-1522.655000	1414.365234	67.957939
29595.893085	-1522.655000	1413.289063	32.000683
29595.893085	-1522.655000	1412.211914	36.461002
29595.893085	-1522.655000	1411.134766	-95.997391
29595.893085	-1522.655000	1410.057617	-101.683846
29595.893085	-1522.655000	1408.979492	145.568008
29595.893085	-1522.655000	1407.902344	152.700577
29595.893085	-1522.655000	1406.824219	232.967377
29595.893085	-1522.655000	1405.746094	549.941650
29595.893085	-1522.655000	1404.666992	530.228760
29595.893085	-1522.655000	1403.588867	602.851074
29595.893085	-1522.655000	1402.509766	628.034790
29595.893085	-1522.655000	1401.430664	672.237305
29595.893085	-1522.655000	1400.351563	299.152283
29595.893085	-1522.655000	1399.271484	504.792603
29595.893085	-1522.655000	1398.192383	429.903320
29595.893085	-1522.655000	1397.112305	352.775940
29595.893085	-1522.655000	1396.031250	474.000702
29595.893085	-1522.655000	1394.951172	192.699982
29595.893085	-1522.655000	1393.871094	161.062698
29595.893085	-1522.655000	1392.790039	154.942154
29595.893085	-1522.655000	1391.708984	-88.932594
29595.893085	-1522.655000	1390.626953	-30.822290
29595.893085	-1522.655000	1389.545898	16.151247
29595.893085	-1522.655000	1388.463867	83.079849
29595.893085	-1522.655000	1387.381836	181.265366
29595.893085	-1522.655000	1386.299805	142.723434
29595.893085	-1522.655000	1385.217773	265.143555
29595.893085	-1522.655000	1384.134766	246.232285
29595.893085	-1522.655000	1383.051758	443.323303
29595.893085	-1522.655000	1381.968750	265.917572
29595.893085	-1522.655000	1380.885742	253.073715
29595.893085	-1522.655000	1379.802734	166.014343
29595.893085	-1522.655000	1378.718750	110.840981
29595.893085	-1522.655000	1377.634766	216.865326
29595.893085	-1522.655000	1376.550781	95.583458
29595.893085	-1522.655000	1375.465820	-31.199764
29595.893085	-1522.655000	1374.381836	195.110962
29595.893085	-1522.655000	1373.296875	61.579586
29595.893085	-1522.655000	1372.211914	231.954865
29595.893085	-1522.655000	1371.126953	93.609779
29595.893085	-1522.655000	1370.041016	118.431618
29595.893085	-1522.655000	1368.955078	156.717682
29595.893085	-1522.655000	1367.869141	175.562637
29595.893085	-1522.655000	1366.783203	27.940992
29595.893085	-1522.655000	1365.697266	75.449348
29595.893085	-1522.655000	1364.610352	158.709732
29595.893085	-1522.655000	1363.523438	23.473131
29595.893085	-1522.655000	1362.436523	-25.869932
29595.893085	-1522.655000	1361.349609	194.292740
29595.893085	-1522.655000	1360.261719	20.123501
29595.893085	-1522.655000	1359.174805	36.799358
29595.893085	-1522.655000	1358.086914	-22.231794
29595.893085	-1522.655000	1356.998047	-158.721817
29595.893085	-1522.655000	1355.910156	36.791035
29595.893085	-1522.655000	1354.821289	51.429859
29595.893085	-1522.655000	1353.732422	-18.315784
29595.893085	-1522.655000	1352.643555	-267.321014
29595.893085	-1522.655000	1351.554688	26.361256
29595.893085	-1522.655000	1350.464844	56.320732
29595.893085	-1522.655000	1349.375000	5.814258
29595.893085	-1522.655000	1348.285156	-65.052841
29595.893085	-1522.655000	1347.195313	-37.497509
29595.893085	-1522.655000	1346.105469	56.229130
29595.893085	-1522.655000	1345.014648	224.048080
29595.893085	-1522.655000	1343.923828	245.488342
29595.893085	-1522.655000	1342.833008	15.685489
29595.893085	-1522.655000	1341.741211	256.159332
29595.893085	-1522.655000	1340.650391	311.476318
29595.893085	-1522.655000	1339.558594	104.991631
29595.893085	-1522.655000	1338.466797	361.146149
29595.893085	-1522.655000	1337.374023	155.373871
29595.893085	-1522.655000	1336.282227	-56.714230
29595.893085	-1522.655000	1335.189453	48.062668
29595.893085	-1522.655000	1334.096680	210.712555
29595.893085	-1522.655000	1333.003906	218.818253
29595.893085	-1522.655000	1331.910156	289.143188
29595.893085	-1522.655000	1330.817383	-9.574294
29595.893085	-1522.655000	1329.723633	-77.855026
29595.893085	-1522.655000	1328.629883	-21.762548
29595.893085	-1522.655000	1327.535156	-53.027439
29595.893085	-1522.655000	1326.441406	-105.362839
29595.893085	-1522.655000	1325.346680	-26.320520
29595.893085	-1522.655000	1324.251953	194.841476
29595.893085	-1522.655000	1323.156250	267.477692
29595.893085	-1522.655000	1322.061523	280.722351
29595.893085	-1522.655000	1320.965820	121.172394
29595.893085	-1522.655000	1319.870117	404.324524
29595.893085	-1522.655000	1318.774414	419.805542
29595.893085	-1522.655000	1317.678711	301.410187
29595.893085	-1522.655000	1316.582031	256.587921
29595.893085	-1522.655000	1315.485352	173.665421
29595.893085	-1522.655000	1314.388672	347.737213
29595.893085	-1522.655000	1313.291016	254.411072
29595.893085	-1522.655000	1312.194336	155.673172
29595.893085	-1522.655000	1311.096680	325.514618
29595.893085	-1522.655000	1309.999023	414.519714
29595.893085	-1522.655000	1308.901367	412.584808
29595.893085	-1522.655000	1307.802734	304.344147
29595.893085	-1522.655000	1306.705078	312.839325
29595.893085	-1522.655000	1305.606445	396.075409
29595.893085	-1522.655000	1304.506836	350.122589
29595.893085	-1522.655000	1303.408203	340.799683
29595.893085	-1522.655000	1302.308594	368.995667
29595.893085	-1522.655000	1301.208984	488.205811
29595.893085	-1522.655000	1300.109375	386.356750
29595.893085	-1522.655000	1299.009766	586.681702
29595.893085	-1522.655000	1297.909180	483.258545
29595.893085	-1522.655000	1296.808594	730.038513
29595.893085	-1522.655000	1295.708008	371.907257
29595.893085	-1522.655000	1294.607422	601.322632
29595.893085	-1522.655000	1293.506836	521.315796
29595.893085	-1522.655000	1292.405273	369.048615
29595.893085	-1522.655000	1291.303711	483.612946
29595.893085	-1522.655000	1290.202148	204.078033
29595.893085	-1522.655000	1289.099609	185.796204
29595.893085	-1522.655000	1287.998047	340.414063
29595.893085	-1522.655000	1286.895508	397.553406
29595.893085	-1522.655000	1285.792969	169.894913
29595.893085	-1522.655000	1284.689453	336.271423
29595.893085	-1522.655000	1283.586914	243.470169
29595.893085	-1522.655000	1282.483398	250.589523
29595.893085	-1522.655000	1281.379883	351.610962
29595.893085	-1522.655000	1280.276367	448.889923
29595.893085	-1522.655000	1279.171875	191.704544
29595.893085	-1522.655000	1278.067383	132.201385
29595.893085	-1522.655000	1276.962891	54.434090
29595.893085	-1522.655000	1275.858398	-33.765335
29595.893085	-1522.655000	1274.753906	64.873589
29595.893085	-1522.655000	1273.648438	294.052887
29595.893085	-1522.655000	1272.542969	162.867340
29595.893085	-1522.655000	1271.437500	-8.506288
29595.893085	-1522.655000	1270.331055	-123.187279
29595.893085	-1522.655000	1269.225586	94.706451
29595.893085	-1522.655000	1268.119141	27.774252
29595.893085	-1522.655000	1267.012695	32.169582
29595.893085	-1522.655000	1265.906250	24.012573
29595.893085	-1522.655000	1264.798828	-44.003571
29595.893085	-1522.655000	1263.691406	-149.822021
29595.893085	-1522.655000	1262.583984	-245.534531
29595.893085	-1522.655000	1261.476563	-120.713341
29595.893085	-1522.655000	1260.368164	-1.041240
29595.893085	-1522.655000	1259.260742	-87.419075
29595.893085	-1522.655000	1258.152344	-77.911743
29595.893085	-1522.655000	1257.043945	-33.182983
29595.893085	-1522.655000	1255.934570	-61.813118
29595.893085	-1522.655000	1254.825195	25.369120
29595.893085	-1522.655000	1253.716797	-28.976645
29595.893085	-1522.655000	1252.606445	-169.155090
29595.893085	-1522.655000	1251.497070	-63.022465
29595.893085	-1522.655000	1250.387695	83.263763
29595.893085	-1522.655000	1249.277344	-129.425629
29595.893085	-1522.655000	1248.166992	-115.041283
29595.893085	-1522.655000	1247.055664	-91.566963
29595.893085	-1522.655000	1245.945313	-183.567963
29595.893085	-1522.655000	1244.833984	99.015411
29595.893085	-1522.655000	1243.722656	11.871301
29595.893085	-1522.655000	1242.611328	0.540902
29595.893085	-1522.655000	1241.499023	78.145821
29595.893085	-1522.655000	1240.387695	103.545891
29595.893085	-1522.655000	1239.275391	91.881607
29595.893085	-1522.655000	1238.162109	76.289787
29595.893085	-1522.655000	1237.049805	21.911720
29595.893085	-1522.655000	1235.936523	-15.019485
29595.893085	-1522.655000	1234.823242	-23.267527
29595.893085	-1522.655000	1233.709961	72.580917
29595.893085	-1522.655000	1232.596680	-2.619411
29595.893085	-1522.655000	1231.482422	29.596624
29595.893085	-1522.655000	1230.369141	62.503574
29595.893085	-1522.655000	1229.253906	150.761902
29595.893085	-1522.655000	1228.139648	94.401131
29595.893085	-1522.655000	1227.025391	113.997757
29595.893085	-1522.655000	1225.910156	182.676926
29595.893085	-1522.655000	1224.794922	271.871613
29595.893085	-1522.655000	1223.679688	305.501129
29595.893085	-1522.655000	1222.563477	524.265625
29595.893085	-1522.655000	1221.447266	361.708710
29595.893085	-1522.655000	1220.331055	525.711487
29595.893085	-1522.655000	1219.214844	524.561523
29595.893085	-1522.655000	1218.098633	683.700439
29595.893085	-1522.655000	1216.981445	733.741516
29595.893085	-1522.655000	1215.864258	809.735291
29595.893085	-1522.655000	1214.747070	790.307129
29595.893085	-1522.655000	1213.629883	756.657715
29595.893085	-1522.655000	1212.511719	690.835510
29595.893085	-1522.655000	1211.393555	831.111084
29595.893085	-1522.655000	1210.275391	660.731934
29595.893085	-1522.655000	1209.157227	400.425049
29595.893085	-1522.655000	1208.038086	574.027954
29595.893085	-1522.655000	1206.918945	549.614014
29595.893085	-1522.655000	1205.799805	552.242432
29595.893085	-1522.655000	1204.680664	500.699646
29595.893085	-1522.655000	1203.560547	546.756714
29595.893085	-1522.655000	1202.441406	503.728607
29595.893085	-1522.655000	1201.321289	596.915466
29595.893085	-1522.655000	1200.200195	369.456329
29595.893085	-1522.655000	1199.080078	457.663574
29595.893085	-1522.655000	1197.958984	352.614471
29595.893085	-1522.655000	1196.837891	523.496216
29595.893085	-1522.655000	1195.716797	334.421692
29595.893085	-1522.655000	1194.594727	451.669373
29595.893085	-1522.655000	1193.473633	526.349976
29595.893085	-1522.655000	1192.351563	393.194580
29595.893085	-1522.655000	1191.229492	478.706238
29595.893085	-1522.655000	1190.106445	503.376007
29595.893085	-1522.655000	1188.984375	556.414856
29595.893085	-1522.655000	1187.861328	529.760376
29595.893085	-1522.655000	1186.738281	785.373901
29595.893085	-1522.655000	1185.614258	763.685852
29595.893085	-1522.655000	1184.491211	903.644775
29595.893085	-1522.655000	1183.367188	826.838501
29595.893085	-1522.655000	1182.243164	661.125916
29595.893085	-1522.655000	1181.119141	747.580017
29595.893085	-1522.655000	1179.994141	634.472717
29595.893085	-1522.655000	1178.869141	585.517700
29595.893085	-1522.655000	1177.744141	709.762573
29595.893085	-1522.655000	1176.619141	673.101563
29595.893085	-1522.655000	1175.493164	550.031128
29595.893085	-1522.655000	1174.368164	564.341736
29595.893085	-1522.655000	1173.242188	506.235504
29595.893085	-1522.655000	1172.115234	508.965851
29595.893085	-1522.655000	1170.989258	299.647003
29595.893085	-1522.655000	1169.862305	492.876160
29595.893085	-1522.655000	1168.735352	406.670258
29595.893085	-1522.655000	1167.608398	419.473511
29595.893085	-1522.655000	1166.481445	462.161652
29595.893085	-1522.655000	1165.353516	315.101807
29595.893085	-1522.655000	1164.225586	364.664734
29595.893085	-1522.655000	1163.097656	332.387329
29595.893085	-1522.655000	1161.968750	226.726456
29595.893085	-1522.655000	1160.840820	251.685013
29595.893085	-1522.655000	1159.711914	454.957947
29595.893085	-1522.655000	1158.583008	400.211243
29595.893085	-1522.655000	1157.453125	376.950317
29595.893085	-1522.655000	1156.324219	410.068298
29595.893085	-1522.655000	1155.194336	292.755737
29595.893085	-1522.655000	1154.064453	281.876190
29595.893085	-1522.655000	1152.933594	403.368469
29595.893085	-1522.655000	1151.803711	345.181854
29595.893085	-1522.655000	1150.672852	490.037750
29595.893085	-1522.655000	1149.541992	401.183716
29595.893085	-1522.655000	1148.411133	429.112946
29595.893085	-1522.655000	1147.279297	341.576447
29595.893085	-1522.655000	1146.147461	367.912872
29595.893085	-1522.655000	1145.015625	249.194504
29595.893085	-1522.655000	1143.883789	402.972076
29595.893085	-1522.655000	1142.750977	406.615631
29595.893085	-1522.655000	1141.619141	384.432007
29595.893085	-1522.655000	1140.486328	412.920929
29595.893085	-1522.655000	1139.352539	406.371246
29595.893085	-1522.655000	1138.219727	322.741699
29595.893085	-1522.655000	1137.085938	239.867523
29595.893085	-1522.655000	1135.952148	318.369202
29595.893085	-1522.655000	1134.818359	455.286896
29595.893085	-1522.655000	1133.683594	235.625870
29595.893085	-1522.655000	1132.549805	460.106201
29595.893085	-1522.655000	1131.415039	514.833069
29595.893085	-1522.655000	1130.279297	676.505676
29595.893085	-1522.655000	1129.144531	810.657837
29595.893085	-1522.655000	1128.008789	670.020508
29595.893085	-1522.655000	1126.873047	529.817200
29595.893085	-1522.655000	1125.737305	677.305969
29595.893085	-1522.655000	1124.601563	662.603027
29595.893085	-1522.655000	1123.464844	711.880310
29595.893085	-1522.655000	1122.328125	545.515991
29595.893085	-1522.655000	1121.191406	576.749451
29595.893085	-1522.655000	1120.054688	613.961670
29595.893085	-1522.655000	1118.916992	482.674011
29595.893085	-1522.655000	1117.779297	737.046082
29595.893085	-1522.655000	1116.641602	644.924744
29595.893085	-1522.655000	1115.503906	390.193085
29595.893085	-1522.655000	1114.365234	499.258759
29595.893085	-1522.655000	1113.226563	558.163635
29595.893085	-1522.655000	1112.087891	432.888367
29595.893085	-1522.655000	1110.949219	529.648987
29595.893085	-1522.655000	1109.809570	436.612823
29595.893085	-1522.655000	1108.669922	410.402039
29595.893085	-1522.655000	1107.530273	344.339081
29595.893085	-1522.655000	1106.390625	318.871521
29595.893085	-1522.655000	1105.250000	392.274841
29595.893085	-1522.655000	1104.109375	389.808167
29595.893085	-1522.655000	1102.968750	442.919037
29595.893085	-1522.655000	1101.828125	444.492462
29595.893085	-1522.655000	1100.686523	513.457092
29595.893085	-1522.655000	1099.544922	554.456116
29595.893085	-1522.655000	1098.403320	317.789551
29595.893085	-1522.655000	1097.261719	467.308319
29595.893085	-1522.655000	1096.120117	391.624084
29595.893085	-1522.655000	1094.977539	218.634003
29595.893085	-1522.655000	1093.834961	420.124054
29595.893085	-1522.655000	1092.691406	414.492279
29595.893085	-1522.655000	1091.548828	319.826355
29595.893085	-1522.655000	1090.405273	166.881943
29595.893085	-1522.655000	1089.261719	390.409180
29595.893085	-1522.655000	1088.118164	171.617340
29595.893085	-1522.655000	1086.973633	277.158173
29595.893085	-1522.655000	1085.829102	284.863007
29595.893085	-1522.655000	1084.684570	202.278107
29595.893085	-1522.655000	1083.540039	295.226105
29595.893085	-1522.655000	1082.395508	246.772812
29595.893085	-1522.655000	1081.250000	274.258148
29595.893085	-1522.655000	1080.104492	169.471786
29595.893085	-1522.655000	1078.958984	201.157242
29595.893085	-1522.655000	1077.812500	277.745178
29595.893085	-1522.655000	1076.666016	280.250946
29595.893085	-1522.655000	1075.519531	245.682755
29595.893085	-1522.655000	1074.373047	235.003906
29595.893085	-1522.655000	1073.226563	226.884766
29595.893085	-1522.655000	1072.079102	196.959808
29595.893085	-1522.655000	1070.931641	204.375534
29595.893085	-1522.655000	1069.784180	141.959534
29595.893085	-1522.655000	1068.635742	367.773926
29595.893085	-1522.655000	1067.487305	351.398926
29595.893085	-1522.655000	1066.338867	409.497101
29595.893085	-1522.655000	1065.190430	410.486847
29595.893085	-1522.655000	1064.041992	405.381287
29595.893085	-1522.655000	1062.892578	571.216980
29595.893085	-1522.655000	1061.743164	530.833130
29595.893085	-1522.655000	1060.593750	533.143372
29595.893085	-1522.655000	1059.443359	352.869537
29595.893085	-1522.655000	1058.292969	385.732971
29595.893085	-1522.655000	1057.142578	239.874695
29595.893085	-1522.655000	1055.992188	445.400665
29595.893085	-1522.655000	1054.841797	146.213684
29595.893085	-1522.655000	1053.690430	28.891924
29595.893085	-1522.655000	1052.539063	204.276993
29595.893085	-1522.655000	1051.387695	317.637909
29595.893085	-1522.655000	1050.235352	291.452179
29595.893085	-1522.655000	1049.083984	187.450745
29595.893085	-1522.655000	1047.931641	98.723816
29595.893085	-1522.655000	1046.778320	294.862579
29595.893085	-1522.655000	1045.625977	234.275955
29595.893085	-1522.655000	1044.472656	91.994362
29595.893085	-1522.655000	1043.319336	118.217171
29595.893085	-1522.655000	1042.166016	109.079620
29595.893085	-1522.655000	1041.012695	-17.915865
29595.893085	-1522.655000	1039.858398	138.963730
29595.893085	-1522.655000	1038.704102	263.963806
29595.893085	-1522.655000	1037.549805	326.130798
29595.893085	-1522.655000	1036.394531	276.376251
29595.893085	-1522.655000	1035.239258	276.196686
29595.893085	-1522.655000	1034.083984	290.683441
29595.893085	-1522.655000	1032.928711	-67.809494
29595.893085	-1522.655000	1031.773438	208.953705
29595.893085	-1522.655000	1030.617188	96.805374
29595.893085	-1522.655000	1029.460938	69.221695
29595.893085	-1522.655000	1028.304688	177.426788
29595.893085	-1522.655000	1027.147461	46.958958
29595.893085	-1522.655000	1025.991211	121.932472
29595.893085	-1522.655000	1024.833984	148.293533
29595.893085	-1522.655000	1023.675781	253.099152
29595.893085	-1522.655000	1022.518555	84.471626
29595.893085	-1522.655000	1021.360352	252.641129
29595.893085	-1522.655000	1020.202148	98.773567
29595.893085	-1522.655000	1019.043945	149.175064
29595.893085	-1522.655000	1017.884766	-44.038204
29595.893085	-1522.655000	1016.726563	225.943848
29595.893085	-1522.655000	1015.567383	-86.340302
29595.893085	-1522.655000	1014.407227	86.569672
29595.893085	-1522.655000	1013.248047	72.206711
29595.893085	-1522.655000	1012.087891	22.590527
29595.893085	-1522.655000	1010.927734	-40.079544
29595.893085	-1522.655000	1009.767578	140.719421
29595.893085	-1522.655000	1008.606445	-57.732574
29595.893085	-1522.655000	1007.446289	-109.131844
29595.893085	-1522.655000	1006.285156	18.496136
29595.893085	-1522.655000	1005.123047	-4.235933
29595.893085	-1522.655000	1003.961914	78.054886
29595.893085	-1522.655000	1002.799805	91.509949
29595.893085	-1522.655000	1001.637695	33.229179
29595.893085	-1522.655000	1000.475586	153.515762
29595.893085	-1522.655000	999.312500	188.999069
29595.893085	-1522.655000	998.149414	102.177551
29595.893085	-1522.655000	996.986328	286.341675
29595.893085	-1522.655000	995.823242	136.402985
29595.893085	-1522.655000	994.659180	237.679291
29595.893085	-1522.655000	993.496094	-68.474403
29595.893085	-1522.655000	992.332031	-42.455261
29595.893085	-1522.655000	991.166992	0.419705
29595.893085	-1522.655000	990.002930	150.919693
29595.893085	-1522.655000	988.837891	-153.303772
29595.893085	-1522.655000	987.672852	-65.252083
29595.893085	-1522.655000	986.506836	-34.753166
29595.893085	-1522.655000	985.341797	22.051197
29595.893085	-1522.655000	984.175781	210.284058
29595.893085	-1522.655000	983.009766	74.483109
29595.893085	-1522.655000	981.843750	-41.611965
29595.893085	-1522.655000	980.676758	108.330963
29595.893085	-1522.655000	979.509766	79.542038
29595.893085	-1522.655000	978.342773	16.692543
29595.893085	-1522.655000	977.175781	-86.261070
29595.893085	-1522.655000	976.007813	107.385323
29595.893085	-1522.655000	974.839844	72.821869
29595.893085	-1522.655000	973.671875	-4.364130
29595.893085	-1522.655000	972.503906	35.450733
29595.893085	-1522.655000	971.334961	42.459770
29595.893085	-1522.655000	970.166016	-17.464201
29595.893085	-1522.655000	968.997070	-1.562036
29595.893085	-1522.655000	967.828125	78.689079
29595.893085	-1522.655000	966.658203	191.692337
29595.893085	-1522.655000	965.488281	-113.858116
29595.893085	-1522.655000	964.318359	-36.682640
29595.893085	-1522.655000	963.148438	69.056007
29595.893085	-1522.655000	961.977539	-125.894325
29595.893085	-1522.655000	960.806641	-149.094330
29595.893085	-1522.655000	959.635742	-133.619873
29595.893085	-1522.655000	958.463867	-169.239761
29595.893085	-1522.655000	957.292969	-14.702547
29595.893085	-1522.655000	956.121094	-14.138973
29595.893085	-1522.655000	954.948242	68.274467
29595.893085	-1522.655000	953.776367	76.489464
29595.893085	-1522.655000	952.603516	-14.677540
29595.893085	-1522.655000	951.430664	-78.319405
29595.893085	-1522.655000	950.257813	-27.971985
29595.893085	-1522.655000	949.084961	119.369865
29595.893085	-1522.655000	947.911133	169.630569
29595.893085	-1522.655000	946.737305	197.889130
29595.893085	-1522.655000	945.563477	186.241516
29595.893085	-1522.655000	944.388672	164.228302
29595.893085	-1522.655000	943.213867	53.343575
29595.893085	-1522.655000	942.039063	-40.455410
29595.893085	-1522.655000	940.864258	52.022995
29595.893085	-1522.655000	939.688477	-21.904335
29595.893085	-1522.655000	938.513672	187.261337
29595.893085	-1522.655000	937.337891	111.002167
29595.893085	-1522.655000	936.161133	171.037079
29595.893085	-1522.655000	934.985352	231.198822
29595.893085	-1522.655000	933.808594	224.434341
29595.893085	-1522.655000	932.631836	18.967232
29595.893085	-1522.655000	931.454102	319.626953
29595.893085	-1522.655000	930.277344	178.641830
29595.893085	-1522.655000	929.099609	156.816116
29595.893085	-1522.655000	927.921875	194.456421
29595.893085	-1522.655000	926.743164	187.524017
29595.893085	-1522.655000	925.565430	292.098785
29595.893085	-1522.655000	924.386719	136.306229
29595.893085	-1522.655000	923.208008	193.755661
29595.893085	-1522.655000	922.028320	80.149536
29595.893085	-1522.655000	920.849609	320.967163
29595.893085	-1522.655000	919.669922	323.481445
29595.893085	-1522.655000	919.474609	29.371273
29595.893085	-1522.655000	918.309570	138.757889
29595.893085	-1522.655000	917.143555	-26.828400
29595.893085	-1522.655000	915.977539	-118.065331
29595.893085	-1522.655000	914.810547	-8.732013
29595.893085	-1522.655000	913.644531	65.894096
29595.893085	-1522.655000	912.477539	71.191208
29595.893085	-1522.655000	911.310547	26.995239
29595.893085	-1522.655000	910.143555	-101.297256
29595.893085	-1522.655000	908.975586	-58.888294
29595.893085	-1522.655000	907.807617	92.299263
29595.893085	-1522.655000	906.639648	193.973480
29595.893085	-1522.655000	905.471680	-3.480840
29595.893085	-1522.655000	904.303711	150.055496
29595.893085	-1522.655000	903.134766	-106.618591
29595.893085	-1522.655000	901.965820	-32.181854
29595.893085	-1522.655000	900.796875	-140.542450
29595.893085	-1522.655000	899.626953	-6.878078
29595.893085	-1522.655000	898.457031	-41.147736
29595.893085	-1522.655000	897.287109	-77.877777
29595.893085	-1522.655000	896.117188	-97.324066
29595.893085	-1522.655000	894.947266	-23.015894
29595.893085	-1522.655000	893.776367	46.325054
29595.893085	-1522.655000	892.605469	24.382353
29595.893085	-1522.655000	891.434570	-66.597923
29595.893085	-1522.655000	890.262695	-63.867767
29595.893085	-1522.655000	889.091797	34.977119
29595.893085	-1522.655000	887.919922	-240.781113
29595.893085	-1522.655000	886.748047	-3.985238
29595.893085	-1522.655000	885.575195	102.161514
29595.893085	-1522.655000	884.403320	-67.565430
29595.893085	-1522.655000	883.230469	132.100388
29595.893085	-1522.655000	882.057617	-118.809784
29595.893085	-1522.655000	880.883789	154.609177
29595.893085	-1522.655000	879.710938	44.042889
29595.893085	-1522.655000	878.537109	-24.661203
29595.893085	-1522.655000	877.362305	204.279037
29595.893085	-1522.655000	876.188477	-122.655861
29595.893085	-1522.655000	875.013672	37.354168
29595.893085	-1522.655000	873.839844	37.508427
29595.893085	-1522.655000	872.664063	42.575092
29595.893085	-1522.655000	871.489258	-220.199570
29595.893085	-1522.655000	870.313477	-38.218201
29595.893085	-1522.655000	869.138672	84.731209
29595.893085	-1522.655000	867.962891	-1.104611
29595.893085	-1522.655000	866.786133	57.941193
29595.893085	-1522.655000	865.610352	-20.506243
29595.893085	-1522.655000	864.433594	121.944283
29595.893085	-1522.655000	863.256836	-135.613480
29595.893085	-1522.655000	862.079102	48.491085
29595.893085	-1522.655000	860.902344	-34.826824
29595.893085	-1522.655000	859.724609	53.531940
29595.893085	-1522.655000	858.546875	11.909182
29595.893085	-1522.655000	857.368164	-68.921997
29595.893085	-1522.655000	856.190430	-86.014114
29595.893085	-1522.655000	855.011719	-144.758331
29595.893085	-1522.655000	853.833008	-54.062832
29595.893085	-1522.655000	852.654297	-44.233440
29595.893085	-1522.655000	851.474609	-0.136764
29595.893085	-1522.655000	850.294922	7.211616
29595.893085	-1522.655000	849.115234	36.574219
29595.893085	-1522.655000	847.935547	100.173531
29595.893085	-1522.655000	846.754883	90.341133
29595.893085	-1522.655000	845.575195	68.268768
29595.893085	-1522.655000	844.393555	170.924194
29595.893085	-1522.655000	843.212891	24.125422
29595.893085	-1522.655000	842.032227	-76.177826
29595.893085	-1522.655000	840.850586	114.396774
29595.893085	-1522.655000	839.668945	-81.204399
29595.893085	-1522.655000	838.486328	-120.379326
29595.893085	-1522.655000	837.304688	-52.077763
29595.893085	-1522.655000	836.122070	-154.759552
29595.893085	-1522.655000	834.939453	94.173088
29595.893085	-1522.655000	833.756836	42.740459
29595.893085	-1522.655000	832.573242	-74.577553
29595.893085	-1522.655000	831.389648	35.064907
29595.893085	-1522.655000	830.206055	-60.274757
29595.893085	-1522.655000	829.022461	132.220627
29595.893085	-1522.655000	827.838867	7.610435
29595.893085	-1522.655000	826.654297	-129.149948
29595.893085	-1522.655000	825.469727	136.325439
29595.893085	-1522.655000	824.284180	-73.544159
29595.893085	-1522.655000	823.099609	28.533936
29595.893085	-1522.655000	821.914063	16.061512
29595.893085	-1522.655000	820.728516	83.952881
29595.893085	-1522.655000	819.542969	81.184380
29595.893085	-1522.655000	818.356445	153.873444
29595.893085	-1522.655000	817.169922	63.436367
29595.893085	-1522.655000	815.983398	-202.193466
29595.893085	-1522.655000	814.796875	11.576487
29595.893085	-1522.655000	813.609375	-20.442049
29595.893085	-1522.655000	812.422852	20.495010
29595.893085	-1522.655000	811.235352	122.188042
29595.893085	-1522.655000	810.046875	119.289131
29595.893085	-1522.655000	808.859375	208.731918
29595.893085	-1522.655000	807.670898	225.220978
29595.893085	-1522.655000	806.482422	210.101471
29595.893085	-1522.655000	805.293945	224.119247
29595.893085	-1522.655000	804.104492	41.404301
29595.893085	-1522.655000	802.915039	259.367218
29595.893085	-1522.655000	801.725586	251.462891
29595.893085	-1522.655000	800.536133	364.893280
29595.893085	-1522.655000	799.345703	92.446442
29595.893085	-1522.655000	798.155273	162.157120
29595.893085	-1522.655000	796.964844	-25.282497
29595.893085	-1522.655000	795.774414	155.934021
29595.893085	-1522.655000	794.583008	167.342789
29595.893085	-1522.655000	793.392578	18.742105
29595.893085	-1522.655000	792.200195	-23.182241
29595.893085	-1522.655000	791.008789	121.458786
29595.893085	-1522.655000	789.816406	200.612518
29595.893085	-1522.655000	788.625000	146.504150
29595.893085	-1522.655000	787.432617	73.025291
29595.893085	-1522.655000	786.239258	176.287033
29595.893085	-1522.655000	785.046875	5.970767
29595.893085	-1522.655000	783.853516	138.200409
29595.893085	-1522.655000	782.660156	161.476746
29595.893085	-1522.655000	781.465820	218.588638
29595.893085	-1522.655000	780.272461	280.489136
29595.893085	-1522.655000	779.078125	381.030518
29595.893085	-1522.655000	777.883789	-6.818572
29595.893085	-1522.655000	776.688477	149.286377
29595.893085	-1522.655000	775.494141	143.400101
29595.893085	-1522.655000	774.298828	171.317154
29595.893085	-1522.655000	773.103516	162.967224
29595.893085	-1522.655000	771.907227	36.267006
29595.893085	-1522.655000	770.711914	-102.477615
29595.893085	-1522.655000	769.515625	94.350067
29595.893085	-1522.655000	768.318359	177.641495
29595.893085	-1522.655000	767.122070	-96.240662
29595.893085	-1522.655000	765.924805	126.929581
29595.893085	-1522.655000	764.727539	0.251981
29595.893085	-1522.655000	763.530273	68.929588
29595.893085	-1522.655000	762.333008	115.855888
29595.893085	-1522.655000	761.134766	128.992386
29595.893085	-1522.655000	759.936523	158.969208
29595.893085	-1522.655000	758.738281	140.720886
29595.893085	-1522.655000	757.540039	192.313782
29595.893085	-1522.655000	756.340820	-54.783825
29595.893085	-1522.655000	755.141602	-82.681923
29595.893085	-1522.655000	753.942383	-60.036785
29595.893085	-1522.655000	752.742188	-73.528595
29595.893085	-1522.655000	751.541992	-46.131531
29595.893085	-1522.655000	750.341797	113.554810
29595.893085	-1522.655000	749.141602	18.176914
29595.893085	-1522.655000	747.941406	28.629332
29595.893085	-1522.655000	746.740234	-131.659790
29595.893085	-1522.655000	745.539063	42.235916
29595.893085	-1522.655000	744.337891	35.779373
29595.893085	-1522.655000	743.135742	101.388931
29595.893085	-1522.655000	741.933594	58.837723
29595.893085	-1522.655000	740.731445	-17.347826
29595.893085	-1522.655000	739.529297	64.967133
29595.893085	-1522.655000	738.326172	310.485077
29595.893085	-1522.655000	737.124023	255.825699
29595.893085	-1522.655000	735.919922	301.960480
29595.893085	-1522.655000	734.716797	420.034393
29595.893085	-1522.655000	733.513672	499.651245
29595.893085	-1522.655000	732.309570	524.048706
29595.893085	-1522.655000	731.105469	526.831116
29595.893085	-1522.655000	729.900391	440.884521
29595.893085	-1522.655000	728.696289	287.837769
29595.893085	-1522.655000	727.491211	326.541779
29595.893085	-1522.655000	726.286133	374.790619
29595.893085	-1522.655000	725.080078	291.249481
29595.893085	-1522.655000	723.874023	195.745712
29595.893085	-1522.655000	722.668945	258.289215
29595.893085	-1522.655000	721.461914	172.362686
29595.893085	-1522.655000	720.255859	124.743668
29595.893085	-1522.655000	719.048828	93.872787
29595.893085	-1522.655000	717.841797	443.381165
29595.893085	-1522.655000	716.634766	99.076691
29595.893085	-1522.655000	715.427734	233.170547
29595.893085	-1522.655000	714.219727	118.535980
29595.893085	-1522.655000	713.011719	187.986816
29595.893085	-1522.655000	711.803711	-81.973709
29595.893085	-1522.655000	710.594727	-98.568085
29595.893085	-1522.655000	709.385742	52.045918
29595.893085	-1522.655000	708.176758	4.341303
29595.893085	-1522.655000	706.967773	28.274467
29595.893085	-1522.655000	705.758789	104.700264
29595.893085	-1522.655000	704.548828	23.541674
29595.893085	-1522.655000	703.338867	-86.237823
29595.893085	-1522.655000	702.127930	-59.994549
29595.893085	-1522.655000	700.917969	92.644478
29595.893085	-1522.655000	699.707031	-76.754456
29595.893085	-1522.655000	698.496094	102.018318
29595.893085	-1522.655000	697.285156	130.515976
29595.893085	-1522.655000	696.073242	44.584320
29595.893085	-1522.655000	694.861328	101.645027
29595.893085	-1522.655000	693.649414	-36.687183
29595.893085	-1522.655000	692.436523	48.919842
29595.893085	-1522.655000	691.224609	113.043465
29595.893085	-1522.655000	690.011719	-108.576294
29595.893085	-1522.655000	688.798828	-115.883888
29595.893085	-1522.655000	687.584961	-25.626244
29595.893085	-1522.655000	686.372070	9.856140
29595.893085	-1522.655000	685.158203	-45.084438
29595.893085	-1522.655000	683.943359	23.660948
29595.893085	-1522.655000	682.729492	70.966743
29595.893085	-1522.655000	681.514648	87.336594
29595.893085	-1522.655000	680.299805	108.444351
29595.893085	-1522.655000	679.084961	160.427338
29595.893085	-1522.655000	677.869141	-63.220135
29595.893085	-1522.655000	676.653320	-106.252876
29595.893085	-1522.655000	675.437500	157.081696
29595.893085	-1522.655000	674.221680	161.495178
29595.893085	-1522.655000	673.004883	234.742630
29595.893085	-1522.655000	671.789063	281.847107
29595.893085	-1522.655000	670.571289	224.521790
29595.893085	-1522.655000	669.354492	134.004089
29595.893085	-1522.655000	668.136719	121.792793
29595.893085	-1522.655000	666.919922	36.072159
29595.893085	-1522.655000	665.701172	80.783859
29595.893085	-1522.655000	664.483398	2.217161
29595.893085	-1522.655000	663.264648	-33.659409
29595.893085	-1522.655000	662.045898	-50.564358
29595.893085	-1522.655000	660.827148	62.826305
29595.893085	-1522.655000	659.608398	-65.401695
29595.893085	-1522.655000	658.388672	5.328123
29595.893085	-1522.655000	657.168945	-61.274990
29595.893085	-1522.655000	655.949219	25.999712
29595.893085	-1522.655000	654.728516	257.591064
29595.893085	-1522.655000	653.507813	4.090149
29595.893085	-1522.655000	652.287109	-29.317631
29595.893085	-1522.655000	651.066406	76.821663
29595.893085	-1522.655000	649.844727	74.165665
29595.893085	-1522.655000	648.623047	114.069153
29595.893085	-1522.655000	647.401367	57.068130
29595.893085	-1522.655000	646.179688	-28.250618
29595.893085	-1522.655000	644.957031	-113.522362
29595.893085	-1522.655000	643.734375	-57.032944
29595.893085	-1522.655000	642.511719	89.177483
29595.893085	-1522.655000	641.289063	-24.353104
29595.893085	-1522.655000	640.065430	164.305542
29595.893085	-1522.655000	638.841797	-52.994766
29595.893085	-1522.655000	637.618164	-53.124226
29595.893085	-1522.655000	636.393555	102.449020
29595.893085	-1522.655000	635.168945	-34.460339
29595.893085	-1522.655000	633.944336	5.548013
29595.893085	-1522.655000	632.719727	-53.448849
29595.893085	-1522.655000	631.494141	168.067352
29595.893085	-1522.655000	630.269531	-95.897163
29595.893085	-1522.655000	629.042969	-102.936760
29595.893085	-1522.655000	627.817383	-272.468903
29595.893085	-1522.655000	626.590820	78.521645
29595.893085	-1522.655000	625.365234	-123.885780
29595.893085	-1522.655000	624.137695	-177.885895
29595.893085	-1522.655000	622.911133	85.870193
29595.893085	-1522.655000	621.683594	1.319793
29595.893085	-1522.655000	620.456055	67.387733
29595.893085	-1522.655000	619.228516	32.328842
29595.893085	-1522.655000	618.000977	79.614738
29595.893085	-1522.655000	616.772461	171.580399
29595.893085	-1522.655000	615.543945	52.007977
29595.893085	-1522.655000	614.314453	10.068426
29595.893085	-1522.655000	613.085938	226.613022
29595.893085	-1522.655000	611.856445	79.027718
29595.893085	-1522.655000	610.626953	156.988098
29595.893085	-1522.655000	609.397461	-63.227592
29595.893085	-1522.655000	608.166992	265.978485
29595.893085	-1522.655000	606.936523	-76.122452
29595.893085	-1522.655000	605.706055	-272.560822
29595.893085	-1522.655000	604.474609	14.379519
29595.893085	-1522.655000	603.244141	-57.602104
29595.893085	-1522.655000	602.012695	-28.678822
29595.893085	-1522.655000	600.780273	47.166931
29595.893085	-1522.655000	599.548828	90.210426
29595.893085	-1522.655000	598.316406	81.729904
29595.893085	-1522.655000	597.083984	176.387787
29595.893085	-1522.655000	595.851563	74.293289
29595.893085	-1522.655000	594.618164	-46.442719
29595.893085	-1522.655000	593.384766	38.967045
29595.893085	-1522.655000	592.151367	-23.086025
29595.893085	-1522.655000	590.917969	1.535553
29595.893085	-1522.655000	589.683594	-196.090439
29595.893085	-1522.655000	588.449219	-131.565628
29595.893085	-1522.655000	587.214844	106.064827
29595.893085	-1522.655000	585.979492	-224.581192
29595.893085	-1522.655000	584.745117	-204.345749
29595.893085	-1522.655000	583.509766	119.801186
29595.893085	-1522.655000	582.273438	-219.813446
29595.893085	-1522.655000	581.038086	-131.661926
29595.893085	-1522.655000	579.801758	49.947113
29595.893085	-1522.655000	578.565430	35.363728
29595.893085	-1522.655000	577.329102	79.219337
29595.893085	-1522.655000	576.091797	-28.618940
29595.893085	-1522.655000	574.854492	-71.000481
29595.893085	-1522.655000	573.617188	96.706055
29595.893085	-1522.655000	572.378906	-36.542286
29595.893085	-1522.655000	571.141602	180.191422
29595.893085	-1522.655000	569.903320	14.460455
29595.893085	-1522.655000	568.664063	161.277054
29595.893085	-1522.655000	567.425781	16.727169
29595.893085	-1522.655000	566.186523	37.765659
29595.893085	-1522.655000	564.947266	68.180214
29595.893085	-1522.655000	563.708008	61.375385
29595.893085	-1522.655000	562.467773	108.205841
29595.893085	-1522.655000	561.227539	-68.448212
29595.893085	-1522.655000	559.987305	-91.317085
29595.893085	-1522.655000	558.747070	11.572966
29595.893085	-1522.655000	557.505859	-64.688957
29595.893085	-1522.655000	556.264648	-1.264981
29595.893085	-1522.655000	555.023438	13.352695
29595.893085	-1522.655000	553.781250	-88.239944
29595.893085	-1522.655000	552.539063	-10.700441
29595.893085	-1522.655000	551.296875	162.175186
29595.893085	-1522.655000	550.054688	14.334022
29595.893085	-1522.655000	548.811523	38.562504
29595.893085	-1522.655000	547.569336	-20.784187
29595.893085	-1522.655000	546.325195	66.281685
29595.893085	-1522.655000	545.082031	34.951385
29595.893085	-1522.655000	543.837891	115.132057
29595.893085	-1522.655000	542.593750	14.306967
29595.893085	-1522.655000	541.349609	-2.874008
29595.893085	-1522.655000	540.105469	91.375664
29595.893085	-1522.655000	538.860352	102.148071
29595.893085	-1522.655000	537.615234	38.769817
29595.893085	-1522.655000	536.369141	288.481415
29595.893085	-1522.655000	535.124023	176.534943
29595.893085	-1522.655000	533.877930	16.031219
29595.893085	-1522.655000	532.631836	205.523972
29595.893085	-1522.655000	531.384766	341.716522
29595.893085	-1522.655000	530.138672	318.099579
29595.893085	-1522.655000	528.891602	255.187164
29595.893085	-1522.655000	527.643555	319.687195
29595.893085	-1522.655000	526.396484	229.134857
29595.893085	-1522.655000	525.148438	381.651611
29595.893085	-1522.655000	523.900391	110.776695
29595.893085	-1522.655000	522.652344	388.256683
29595.893085	-1522.655000	521.403320	288.725342
29595.893085	-1522.655000	520.154297	237.834839
29595.893085	-1522.655000	518.905273	318.769958
29595.893085	-1522.655000	517.656250	191.718384
29595.893085	-1522.655000	516.406250	369.758972
29595.893085	-1522.655000	515.156250	390.678192
29595.893085	-1522.655000	513.906250	439.340210
29595.893085	-1522.655000	512.655273	518.037598
29595.893085	-1522.655000	511.404297	578.265442
29595.893085	-1522.655000	510.153320	562.330994
29595.893085	-1522.655000	508.902344	507.203552
29595.893085	-1522.655000	507.650391	334.466400
29595.893085	-1522.655000	506.398438	549.333862
29595.893085	-1522.655000	505.146484	944.004456
29595.893085	-1522.655000	503.893555	609.958618
29595.893085	-1522.655000	502.641602	783.187866
29595.893085	-1522.655000	501.388672	709.766052
29595.893085	-1522.655000	500.134766	774.635498
29595.893085	-1522.655000	498.881836	800.315613
29595.893085	-1522.655000	497.627930	814.475647
29595.893085	-1522.655000	496.374023	547.708069
29595.893085	-1522.655000	495.119141	727.666321
29595.893085	-1522.655000	493.865234	783.246460
29595.893085	-1522.655000	492.610352	866.408264
29595.893085	-1522.655000	491.355469	813.778870
29595.893085	-1522.655000	490.099609	809.459534
29595.893085	-1522.655000	488.843750	995.987183
29595.893085	-1522.655000	487.587891	975.481689
29595.893085	-1522.655000	486.332031	934.264648
29595.893085	-1522.655000	485.075195	1042.411499
29595.893085	-1522.655000	483.818359	863.259521
29595.893085	-1522.655000	482.561523	801.294128
29595.893085	-1522.655000	481.304688	996.529907
29595.893085	-1522.655000	480.046875	1164.073730
29595.893085	-1522.655000	478.789063	1076.661865
29595.893085	-1522.655000	477.531250	1044.302734
29595.893085	-1522.655000	476.272461	1080.729370
29595.893085	-1522.655000	475.013672	1009.231567
29595.893085	-1522.655000	473.754883	1086.771362
29595.893085	-1522.655000	472.496094	1157.306641
29595.893085	-1522.655000	471.236328	938.834351
29595.893085	-1522.655000	469.976563	1208.594971
29595.893085	-1522.655000	468.716797	1109.161377
29595.893085	-1522.655000	467.456055	1066.936768
29595.893085	-1522.655000	466.196289	1038.349365
29595.893085	-1522.655000	464.935547	1215.766724
29595.893085	-1522.655000	463.673828	1305.961914
29595.893085	-1522.655000	462.413086	1373.076782
29595.893085	-1522.655000	461.151367	1165.361816
29595.893085	-1522.655000	459.889648	1277.932861
29595.893085	-1522.655000	458.626953	1493.238159
29595.893085	-1522.655000	457.364258	1497.843750
29595.893085	-1522.655000	456.101563	1506.835205
29595.893085	-1522.655000	454.838867	1385.311768
29595.893085	-1522.655000	453.575195	1320.784790
29595.893085	-1522.655000	452.312500	1521.168457
29595.893085	-1522.655000	451.047852	1650.418335
29595.893085	-1522.655000	449.784180	1349.931152
29595.893085	-1522.655000	448.519531	1556.343750
29595.893085	-1522.655000	447.254883	1413.068726
29595.893085	-1522.655000	445.990234	1399.719360
29595.893085	-1522.655000	444.725586	1527.612793
29595.893085	-1522.655000	443.459961	1591.280029
29595.893085	-1522.655000	442.194336	1631.816650
29595.893085	-1522.655000	440.927734	1733.617920
29595.893085	-1522.655000	439.662109	1748.410522
29595.893085	-1522.655000	438.395508	1767.433838
29595.893085	-1522.655000	437.127930	1838.538208
29595.893085	-1522.655000	435.861328	1845.459961
29595.893085	-1522.655000	434.593750	1569.497681
29595.893085	-1522.655000	433.326172	1703.308105
29595.893085	-1522.655000	432.058594	1590.718018
29595.893085	-1522.655000	430.790039	1425.410278
29595.893085	-1522.655000	429.521484	1619.440063
29595.893085	-1522.655000	428.252930	1610.407837
29595.893085	-1522.655000	426.984375	1705.614990
29595.893085	-1522.655000	425.714844	1593.309692
29595.893085	-1522.655000	424.445313	1580.667480
29595.893085	-1522.655000	423.174805	1794.943848
29595.893085	-1522.655000	421.905273	1715.364746
29595.893085	-1522.655000	420.634766	1719.410522
29595.893085	-1522.655000	419.364258	1747.930908
29595.893085	-1522.655000	418.092773	1623.672974
29595.893085	-1522.655000	416.822266	1544.354858
29595.893085	-1522.655000	415.550781	1993.638306
29595.893085	-1522.655000	414.278320	1788.231812
29595.893085	-1522.655000	413.006836	2038.593628
29595.893085	-1522.655000	411.734375	1798.005737
29595.893085	-1522.655000	410.461914	1790.598145
29595.893085	-1522.655000	409.188477	1694.060181
29595.893085	-1522.655000	407.916016	1805.565552
29595.893085	-1522.655000	406.642578	1753.061279
29595.893085	-1522.655000	405.368164	1693.062134
29595.893085	-1522.655000	404.094727	1874.899414
29595.893085	-1522.655000	402.820313	1899.544312
29595.893085	-1522.655000	401.545898	1916.619507
29595.893085	-1522.655000	400.270508	1862.674316
29595.893085	-1522.655000	398.996094	1977.809937
29595.893085	-1522.655000	397.720703	1702.633423
29595.893085	-1522.655000	396.444336	1850.014404
29595.893085	-1522.655000	395.168945	1620.804810
29595.893085	-1522.655000	393.892578	1696.249512
29595.893085	-1522.655000	392.616211	1684.794189
29595.893085	-1522.655000	391.339844	1685.986084
29595.893085	-1522.655000	390.062500	1851.272949
29595.893085	-1522.655000	388.785156	1809.794067
29595.893085	-1522.655000	387.507813	1710.832764
29595.893085	-1522.655000	386.229492	1705.779785
29595.893085	-1522.655000	384.951172	1792.312866
29595.893085	-1522.655000	383.672852	1882.257080
29595.893085	-1522.655000	382.394531	1481.040039
29595.893085	-1522.655000	381.115234	1492.018555
29595.893085	-1522.655000	379.835938	1535.707886
29595.893085	-1522.655000	378.556641	1691.046875
29595.893085	-1522.655000	377.277344	1445.770508
29595.893085	-1522.655000	375.997070	1573.807495
29595.893085	-1522.655000	374.716797	1456.972900
29595.893085	-1522.655000	373.435547	1422.310791
29595.893085	-1522.655000	372.155273	1352.577637
29595.893085	-1522.655000	370.874023	1277.005615
29595.893085	-1522.655000	369.591797	1193.315063
29595.893085	-1522.655000	368.310547	1317.816162
29595.893085	-1522.655000	367.028320	1330.448486
29595.893085	-1522.655000	365.746094	1116.446045
29595.893085	-1522.655000	364.463867	1225.251587
29595.893085	-1522.655000	363.180664	1264.938843
29595.893085	-1522.655000	361.897461	1037.526978
29595.893085	-1522.655000	360.614258	1168.622559
29595.893085	-1522.655000	359.330078	1097.822632
29595.893085	-1522.655000	358.045898	978.190674
29595.893085	-1522.655000	356.761719	1142.489136
29595.893085	-1522.655000	355.477539	907.135498
29595.893085	-1522.655000	354.192383	1146.555908
29595.893085	-1522.655000	352.907227	916.741699
29595.893085	-1522.655000	351.622070	797.544617
29595.893085	-1522.655000	350.336914	997.732788
29595.893085	-1522.655000	349.050781	998.307190
29595.893085	-1522.655000	347.764648	736.553833
29595.893085	-1522.655000	346.477539	636.759033
29595.893085	-1522.655000	345.191406	678.693542
29595.893085	-1522.655000	343.904297	707.314087
29595.893085	-1522.655000	342.616211	745.016235
29595.893085	-1522.655000	341.329102	603.504211
29595.893085	-1522.655000	340.041016	446.401917
29595.893085	-1522.655000	338.752930	524.793274
29595.893085	-1522.655000	337.463867	589.662170
29595.893085	-1522.655000	336.175781	643.347961
29595.893085	-1522.655000	334.886719	349.672211
29595.893085	-1522.655000	333.596680	391.888977
29595.893085	-1522.655000	332.307617	268.320862
29595.893085	-1522.655000	331.017578	196.033554
29595.893085	-1522.655000	329.727539	322.740417
29595.893085	-1522.655000	328.436523	451.274628
29595.893085	-1522.655000	327.146484	212.619888
29595.893085	-1522.655000	325.855469	125.716629
29595.893085	-1522.655000	324.563477	342.473846
29595.893085	-1522.655000	323.272461	207.761276
29595.893085	-1522.655000	321.980469	121.689606
29595.893085	-1522.655000	320.688477	231.757263
29595.893085	-1522.655000	319.395508	-38.732971
29595.893085	-1522.655000	318.103516	-168.936050
29595.893085	-1522.655000	316.810547	50.742863
29595.893085	-1522.655000	315.516602	-112.321846
29595.893085	-1522.655000	314.223633	-173.330368
29595.893085	-1522.655000	312.929688	77.184013
29595.893085	-1522.655000	311.635742	94.634186
29595.893085	-1522.655000	310.340820	-2.756173
29595.893085	-1522.655000	309.045898	59.470272
29595.893085	-1522.655000	307.750977	-93.453323
29595.893085	-1522.655000	306.456055	-60.159576
29595.893085	-1522.655000	305.160156	-12.562838
29595.893085	-1522.655000	303.865234	-157.729996
29595.893085	-1522.655000	302.568359	-68.200493
29595.893085	-1522.655000	301.272461	89.127083
29595.893085	-1522.655000	299.975586	164.698059
29595.893085	-1522.655000	298.678711	249.918732
