#X		#Y		#Wave		#Intensity
19420.805053	16913.451833	2000.043945	-210.525818
19420.805053	16913.451833	1999.080078	-144.289429
19420.805053	16913.451833	1998.116211	243.474426
19420.805053	16913.451833	1997.151367	-85.653152
19420.805053	16913.451833	1996.186523	149.698120
19420.805053	16913.451833	1995.222656	37.599670
19420.805053	16913.451833	1994.256836	204.915863
19420.805053	16913.451833	1993.291992	121.543488
19420.805053	16913.451833	1992.327148	463.558990
19420.805053	16913.451833	1991.361328	413.864624
19420.805053	16913.451833	1990.395508	4.861372
19420.805053	16913.451833	1989.429688	28.595392
19420.805053	16913.451833	1988.463867	-178.196030
19420.805053	16913.451833	1987.497070	52.497726
19420.805053	16913.451833	1986.531250	282.693756
19420.805053	16913.451833	1985.564453	166.247635
19420.805053	16913.451833	1984.597656	-123.587151
19420.805053	16913.451833	1983.630859	-243.131393
19420.805053	16913.451833	1982.664063	148.567245
19420.805053	16913.451833	1981.696289	-174.279449
19420.805053	16913.451833	1980.728516	-3.265181
19420.805053	16913.451833	1979.761719	330.376770
19420.805053	16913.451833	1978.792969	-217.988434
19420.805053	16913.451833	1977.825195	38.434196
19420.805053	16913.451833	1976.857422	151.307587
19420.805053	16913.451833	1975.888672	145.402664
19420.805053	16913.451833	1974.919922	260.149536
19420.805053	16913.451833	1973.951172	-57.148224
19420.805053	16913.451833	1972.982422	264.304871
19420.805053	16913.451833	1972.013672	-68.145180
19420.805053	16913.451833	1971.043945	8.627612
19420.805053	16913.451833	1970.075195	95.017647
19420.805053	16913.451833	1969.105469	348.785858
19420.805053	16913.451833	1968.135742	185.784286
19420.805053	16913.451833	1967.165039	293.691925
19420.805053	16913.451833	1966.195313	248.644119
19420.805053	16913.451833	1965.224609	208.374008
19420.805053	16913.451833	1964.253906	-29.045721
19420.805053	16913.451833	1963.283203	403.162598
19420.805053	16913.451833	1962.312500	153.190430
19420.805053	16913.451833	1961.341797	-18.067772
19420.805053	16913.451833	1960.370117	103.437469
19420.805053	16913.451833	1959.399414	155.887146
19420.805053	16913.451833	1958.427734	395.147644
19420.805053	16913.451833	1957.455078	208.745071
19420.805053	16913.451833	1956.483398	177.217987
19420.805053	16913.451833	1955.511719	475.040466
19420.805053	16913.451833	1954.539063	153.250504
19420.805053	16913.451833	1953.566406	136.232635
19420.805053	16913.451833	1952.593750	219.883530
19420.805053	16913.451833	1951.621094	163.406281
19420.805053	16913.451833	1950.647461	-87.152336
19420.805053	16913.451833	1949.674805	15.943384
19420.805053	16913.451833	1948.701172	528.972351
19420.805053	16913.451833	1947.727539	15.660398
19420.805053	16913.451833	1946.753906	66.990997
19420.805053	16913.451833	1945.780273	-53.509495
19420.805053	16913.451833	1944.805664	304.419342
19420.805053	16913.451833	1943.831055	-5.024529
19420.805053	16913.451833	1942.856445	105.001221
19420.805053	16913.451833	1941.881836	-118.514778
19420.805053	16913.451833	1940.907227	187.580002
19420.805053	16913.451833	1939.932617	192.055161
19420.805053	16913.451833	1938.957031	375.420135
19420.805053	16913.451833	1937.981445	289.184692
19420.805053	16913.451833	1937.005859	-159.585083
19420.805053	16913.451833	1936.030273	6.588833
19420.805053	16913.451833	1935.054688	-280.333252
19420.805053	16913.451833	1934.078125	179.620361
19420.805053	16913.451833	1933.101563	323.628723
19420.805053	16913.451833	1932.125000	220.399857
19420.805053	16913.451833	1931.148438	-122.582985
19420.805053	16913.451833	1930.171875	-103.326889
19420.805053	16913.451833	1929.194336	-3.333345
19420.805053	16913.451833	1928.217773	255.613281
19420.805053	16913.451833	1927.240234	0.997509
19420.805053	16913.451833	1926.262695	-38.358002
19420.805053	16913.451833	1925.284180	403.857452
19420.805053	16913.451833	1924.306641	-33.840401
19420.805053	16913.451833	1923.328125	185.927322
19420.805053	16913.451833	1922.350586	-26.745850
19420.805053	16913.451833	1921.372070	163.704422
19420.805053	16913.451833	1920.392578	85.502518
19420.805053	16913.451833	1919.414063	214.901611
19420.805053	16913.451833	1918.434570	158.772629
19420.805053	16913.451833	1917.456055	383.384033
19420.805053	16913.451833	1916.476563	124.798119
19420.805053	16913.451833	1915.497070	-106.808403
19420.805053	16913.451833	1914.516602	147.136276
19420.805053	16913.451833	1913.537109	-106.240768
19420.805053	16913.451833	1912.556641	-252.185730
19420.805053	16913.451833	1911.576172	145.629868
19420.805053	16913.451833	1910.595703	-85.515900
19420.805053	16913.451833	1909.615234	234.238968
19420.805053	16913.451833	1908.633789	100.727821
19420.805053	16913.451833	1907.653320	-320.138184
19420.805053	16913.451833	1906.671875	-32.023045
19420.805053	16913.451833	1905.690430	-177.425217
19420.805053	16913.451833	1904.708984	3.536464
19420.805053	16913.451833	1903.727539	-78.417084
19420.805053	16913.451833	1902.745117	-223.563904
19420.805053	16913.451833	1901.762695	-322.367767
19420.805053	16913.451833	1900.780273	9.546381
19420.805053	16913.451833	1899.797852	171.117935
19420.805053	16913.451833	1898.815430	308.364410
19420.805053	16913.451833	1897.832031	49.273346
19420.805053	16913.451833	1896.849609	-17.611256
19420.805053	16913.451833	1895.866211	3.086185
19420.805053	16913.451833	1894.882813	-102.538353
19420.805053	16913.451833	1893.898438	129.664810
19420.805053	16913.451833	1892.915039	109.188210
19420.805053	16913.451833	1891.930664	256.362762
19420.805053	16913.451833	1890.947266	-286.123993
19420.805053	16913.451833	1889.962891	-265.077728
19420.805053	16913.451833	1888.977539	78.866333
19420.805053	16913.451833	1887.993164	170.321075
19420.805053	16913.451833	1887.007813	-87.630348
19420.805053	16913.451833	1886.023438	-90.695648
19420.805053	16913.451833	1885.038086	175.536575
19420.805053	16913.451833	1884.051758	114.317612
19420.805053	16913.451833	1883.066406	298.066284
19420.805053	16913.451833	1882.081055	355.729126
19420.805053	16913.451833	1881.094727	28.028101
19420.805053	16913.451833	1880.108398	-47.473438
19420.805053	16913.451833	1879.122070	-81.712029
19420.805053	16913.451833	1878.135742	43.985153
19420.805053	16913.451833	1877.148438	60.689777
19420.805053	16913.451833	1876.162109	28.993668
19420.805053	16913.451833	1875.174805	7.037291
19420.805053	16913.451833	1874.187500	-266.620392
19420.805053	16913.451833	1873.199219	28.609951
19420.805053	16913.451833	1872.211914	-227.938126
19420.805053	16913.451833	1871.223633	-133.555588
19420.805053	16913.451833	1870.236328	-27.082842
19420.805053	16913.451833	1869.248047	-118.922112
19420.805053	16913.451833	1868.258789	-140.572601
19420.805053	16913.451833	1867.270508	-183.945313
19420.805053	16913.451833	1866.282227	-33.911907
19420.805053	16913.451833	1865.292969	210.341614
19420.805053	16913.451833	1864.303711	-96.345085
19420.805053	16913.451833	1863.314453	-59.867897
19420.805053	16913.451833	1862.324219	-103.078819
19420.805053	16913.451833	1861.334961	49.341202
19420.805053	16913.451833	1860.344727	27.896549
19420.805053	16913.451833	1859.354492	146.481369
19420.805053	16913.451833	1858.364258	-128.341293
19420.805053	16913.451833	1857.374023	110.911507
19420.805053	16913.451833	1856.383789	29.226610
19420.805053	16913.451833	1855.392578	87.488380
19420.805053	16913.451833	1854.401367	251.850601
19420.805053	16913.451833	1853.410156	6.268836
19420.805053	16913.451833	1852.418945	-236.799408
19420.805053	16913.451833	1851.426758	318.016602
19420.805053	16913.451833	1850.435547	21.980764
19420.805053	16913.451833	1849.443359	-6.503861
19420.805053	16913.451833	1848.451172	99.921478
19420.805053	16913.451833	1847.458984	-188.668549
19420.805053	16913.451833	1846.466797	377.673798
19420.805053	16913.451833	1845.473633	329.891479
19420.805053	16913.451833	1844.480469	-112.631363
19420.805053	16913.451833	1843.487305	-52.013443
19420.805053	16913.451833	1842.494141	102.415634
19420.805053	16913.451833	1841.500977	105.220779
19420.805053	16913.451833	1840.506836	423.106659
19420.805053	16913.451833	1839.513672	113.210251
19420.805053	16913.451833	1838.519531	-95.598648
19420.805053	16913.451833	1837.525391	-15.873383
19420.805053	16913.451833	1836.530273	1.319191
19420.805053	16913.451833	1835.536133	364.516571
19420.805053	16913.451833	1834.541016	629.059143
19420.805053	16913.451833	1833.545898	372.231506
19420.805053	16913.451833	1832.550781	-117.475571
19420.805053	16913.451833	1831.555664	247.793884
19420.805053	16913.451833	1830.560547	209.583359
19420.805053	16913.451833	1829.564453	-169.472961
19420.805053	16913.451833	1828.568359	51.540565
19420.805053	16913.451833	1827.572266	428.401794
19420.805053	16913.451833	1826.576172	169.380844
19420.805053	16913.451833	1825.580078	462.070038
19420.805053	16913.451833	1824.583008	109.558578
19420.805053	16913.451833	1823.585938	-58.241650
19420.805053	16913.451833	1822.588867	18.490259
19420.805053	16913.451833	1821.591797	28.049828
19420.805053	16913.451833	1820.594727	183.736496
19420.805053	16913.451833	1819.596680	147.668640
19420.805053	16913.451833	1818.599609	202.593781
19420.805053	16913.451833	1817.601563	-147.269547
19420.805053	16913.451833	1816.603516	84.791649
19420.805053	16913.451833	1815.604492	194.631958
19420.805053	16913.451833	1814.606445	364.221954
19420.805053	16913.451833	1813.607422	220.215424
19420.805053	16913.451833	1812.608398	152.778702
19420.805053	16913.451833	1811.609375	161.863708
19420.805053	16913.451833	1810.610352	94.363777
19420.805053	16913.451833	1809.610352	206.180176
19420.805053	16913.451833	1808.611328	184.014572
19420.805053	16913.451833	1807.611328	1.657032
19420.805053	16913.451833	1806.611328	115.653168
19420.805053	16913.451833	1805.610352	126.808388
19420.805053	16913.451833	1804.610352	312.295593
19420.805053	16913.451833	1803.609375	442.716949
19420.805053	16913.451833	1802.608398	291.239441
19420.805053	16913.451833	1801.607422	309.278076
19420.805053	16913.451833	1800.606445	78.984116
19420.805053	16913.451833	1799.605469	326.053864
19420.805053	16913.451833	1798.603516	45.606873
19420.805053	16913.451833	1797.601563	113.527351
19420.805053	16913.451833	1796.599609	4.839724
19420.805053	16913.451833	1795.597656	323.021576
19420.805053	16913.451833	1794.595703	300.040741
19420.805053	16913.451833	1793.592773	181.639618
19420.805053	16913.451833	1792.589844	187.157898
19420.805053	16913.451833	1791.587891	204.517548
19420.805053	16913.451833	1790.583984	24.042959
19420.805053	16913.451833	1789.581055	246.152237
19420.805053	16913.451833	1788.577148	98.934242
19420.805053	16913.451833	1787.574219	132.675644
19420.805053	16913.451833	1786.570313	6.812697
19420.805053	16913.451833	1785.566406	178.468903
19420.805053	16913.451833	1784.561523	126.272942
19420.805053	16913.451833	1783.557617	226.303162
19420.805053	16913.451833	1782.552734	238.194534
19420.805053	16913.451833	1781.547852	278.545563
19420.805053	16913.451833	1780.542969	-90.238167
19420.805053	16913.451833	1779.538086	-78.532227
19420.805053	16913.451833	1778.532227	263.522186
19420.805053	16913.451833	1777.527344	179.922409
19420.805053	16913.451833	1776.521484	333.904236
19420.805053	16913.451833	1775.515625	402.213165
19420.805053	16913.451833	1774.508789	168.735184
19420.805053	16913.451833	1773.502930	118.134338
19420.805053	16913.451833	1772.496094	-136.742813
19420.805053	16913.451833	1771.489258	71.337936
19420.805053	16913.451833	1770.482422	174.813705
19420.805053	16913.451833	1769.475586	19.490728
19420.805053	16913.451833	1768.467773	146.490906
19420.805053	16913.451833	1767.460938	301.827087
19420.805053	16913.451833	1766.453125	226.946518
19420.805053	16913.451833	1765.445313	301.406342
19420.805053	16913.451833	1764.437500	212.155457
19420.805053	16913.451833	1763.428711	-14.639600
19420.805053	16913.451833	1762.420898	322.630676
19420.805053	16913.451833	1761.412109	190.506516
19420.805053	16913.451833	1760.403320	6.225298
19420.805053	16913.451833	1759.393555	23.257952
19420.805053	16913.451833	1758.384766	-156.363388
19420.805053	16913.451833	1757.375000	139.910721
19420.805053	16913.451833	1756.366211	232.396011
19420.805053	16913.451833	1755.356445	241.913101
19420.805053	16913.451833	1754.345703	182.709732
19420.805053	16913.451833	1753.335938	50.096336
19420.805053	16913.451833	1752.325195	125.605995
19420.805053	16913.451833	1751.315430	269.584686
19420.805053	16913.451833	1750.304688	-85.516869
19420.805053	16913.451833	1749.292969	-239.622665
19420.805053	16913.451833	1748.282227	126.258347
19420.805053	16913.451833	1747.270508	158.687805
19420.805053	16913.451833	1746.259766	105.956009
19420.805053	16913.451833	1745.248047	324.821533
19420.805053	16913.451833	1744.235352	54.596821
19420.805053	16913.451833	1743.223633	218.896896
19420.805053	16913.451833	1742.211914	-11.245600
19420.805053	16913.451833	1741.199219	32.432106
19420.805053	16913.451833	1740.186523	-112.805145
19420.805053	16913.451833	1739.173828	-102.339920
19420.805053	16913.451833	1738.160156	-11.757293
19420.805053	16913.451833	1737.147461	48.039406
19420.805053	16913.451833	1736.133789	482.692230
19420.805053	16913.451833	1735.120117	-66.135040
19420.805053	16913.451833	1734.106445	108.882172
19420.805053	16913.451833	1733.091797	-46.232147
19420.805053	16913.451833	1732.078125	-208.440948
19420.805053	16913.451833	1731.063477	-50.255264
19420.805053	16913.451833	1730.048828	-33.553749
19420.805053	16913.451833	1729.034180	232.699188
19420.805053	16913.451833	1728.019531	-122.874886
19420.805053	16913.451833	1727.003906	-108.785553
19420.805053	16913.451833	1725.988281	-35.944294
19420.805053	16913.451833	1724.972656	-182.075195
19420.805053	16913.451833	1723.957031	-43.535130
19420.805053	16913.451833	1722.941406	-274.466125
19420.805053	16913.451833	1721.924805	-74.981598
19420.805053	16913.451833	1720.909180	-59.071831
19420.805053	16913.451833	1719.892578	-363.003296
19420.805053	16913.451833	1718.875977	-434.188721
19420.805053	16913.451833	1717.858398	11.611768
19420.805053	16913.451833	1716.841797	-184.314133
19420.805053	16913.451833	1715.824219	-189.959946
19420.805053	16913.451833	1714.806641	182.484573
19420.805053	16913.451833	1713.789063	141.387344
19420.805053	16913.451833	1712.770508	203.532883
19420.805053	16913.451833	1711.752930	-81.846916
19420.805053	16913.451833	1710.734375	-8.099768
19420.805053	16913.451833	1709.715820	-406.125885
19420.805053	16913.451833	1708.697266	-4.035826
19420.805053	16913.451833	1707.678711	95.227875
19420.805053	16913.451833	1706.659180	-220.732208
19420.805053	16913.451833	1705.640625	-77.058289
19420.805053	16913.451833	1704.621094	96.957855
19420.805053	16913.451833	1703.600586	-308.112793
19420.805053	16913.451833	1702.581055	97.740326
19420.805053	16913.451833	1701.561523	39.455692
19420.805053	16913.451833	1700.541016	56.078941
19420.805053	16913.451833	1699.520508	203.786835
19420.805053	16913.451833	1698.500000	133.595932
19420.805053	16913.451833	1697.478516	-74.772469
19420.805053	16913.451833	1696.458008	16.499655
19420.805053	16913.451833	1695.436523	121.705475
19420.805053	16913.451833	1694.415039	25.580704
19420.805053	16913.451833	1693.393555	-234.328720
19420.805053	16913.451833	1692.372070	92.878586
19420.805053	16913.451833	1691.349609	113.548676
19420.805053	16913.451833	1690.327148	113.108948
19420.805053	16913.451833	1689.304688	243.515518
19420.805053	16913.451833	1688.282227	455.617126
19420.805053	16913.451833	1687.259766	270.338654
19420.805053	16913.451833	1686.236328	304.678284
19420.805053	16913.451833	1685.213867	362.314758
19420.805053	16913.451833	1684.190430	-72.891472
19420.805053	16913.451833	1683.166016	262.529358
19420.805053	16913.451833	1682.142578	450.707428
19420.805053	16913.451833	1681.119141	379.687775
19420.805053	16913.451833	1680.094727	457.985931
19420.805053	16913.451833	1679.070313	260.899109
19420.805053	16913.451833	1678.045898	133.823013
19420.805053	16913.451833	1677.020508	197.982101
19420.805053	16913.451833	1675.996094	413.645782
19420.805053	16913.451833	1674.970703	-4.941351
19420.805053	16913.451833	1673.945313	406.375580
19420.805053	16913.451833	1672.919922	393.359497
19420.805053	16913.451833	1671.893555	401.271851
19420.805053	16913.451833	1670.868164	371.876587
19420.805053	16913.451833	1669.841797	242.296906
19420.805053	16913.451833	1668.815430	312.994507
19420.805053	16913.451833	1667.789063	465.113281
19420.805053	16913.451833	1666.761719	214.437897
19420.805053	16913.451833	1665.735352	257.070618
19420.805053	16913.451833	1664.708008	292.667542
19420.805053	16913.451833	1663.680664	-27.713676
19420.805053	16913.451833	1662.653320	240.457504
19420.805053	16913.451833	1661.625000	610.809509
19420.805053	16913.451833	1660.597656	492.747559
19420.805053	16913.451833	1659.569336	118.993973
19420.805053	16913.451833	1658.541016	442.598724
19420.805053	16913.451833	1657.512695	236.258392
19420.805053	16913.451833	1656.483398	160.070145
19420.805053	16913.451833	1655.455078	397.472534
19420.805053	16913.451833	1654.425781	323.566711
19420.805053	16913.451833	1653.396484	337.902679
19420.805053	16913.451833	1652.366211	647.030701
19420.805053	16913.451833	1651.336914	809.811340
19420.805053	16913.451833	1650.306641	777.582031
19420.805053	16913.451833	1649.276367	511.027527
19420.805053	16913.451833	1648.246094	604.106323
19420.805053	16913.451833	1647.215820	673.948547
19420.805053	16913.451833	1646.185547	780.856445
19420.805053	16913.451833	1645.154297	896.981750
19420.805053	16913.451833	1644.123047	853.126526
19420.805053	16913.451833	1643.091797	772.204285
19420.805053	16913.451833	1642.060547	828.011292
19420.805053	16913.451833	1641.028320	881.472717
19420.805053	16913.451833	1639.997070	895.546936
19420.805053	16913.451833	1638.964844	1224.530273
19420.805053	16913.451833	1637.931641	708.353882
19420.805053	16913.451833	1636.899414	826.616577
19420.805053	16913.451833	1635.867188	1067.493652
19420.805053	16913.451833	1634.833984	982.031372
19420.805053	16913.451833	1633.800781	829.524109
19420.805053	16913.451833	1632.767578	906.063110
19420.805053	16913.451833	1631.734375	945.583252
19420.805053	16913.451833	1630.700195	1181.611450
19420.805053	16913.451833	1629.666016	1003.797302
19420.805053	16913.451833	1628.631836	1288.284912
19420.805053	16913.451833	1627.597656	1184.491577
19420.805053	16913.451833	1626.563477	1020.690125
19420.805053	16913.451833	1625.528320	1037.124390
19420.805053	16913.451833	1624.493164	1095.141113
19420.805053	16913.451833	1623.458008	1215.495728
19420.805053	16913.451833	1622.422852	1178.857422
19420.805053	16913.451833	1621.387695	1303.813477
19420.805053	16913.451833	1620.351563	1103.381348
19420.805053	16913.451833	1619.315430	1209.894043
19420.805053	16913.451833	1618.279297	843.538391
19420.805053	16913.451833	1617.243164	793.300171
19420.805053	16913.451833	1616.207031	1001.352539
19420.805053	16913.451833	1615.169922	923.496277
19420.805053	16913.451833	1614.132813	836.486084
19420.805053	16913.451833	1613.095703	1383.247070
19420.805053	16913.451833	1612.058594	1109.636108
19420.805053	16913.451833	1611.020508	1177.079102
19420.805053	16913.451833	1609.983398	977.390259
19420.805053	16913.451833	1608.945313	1148.527466
19420.805053	16913.451833	1607.907227	1096.333252
19420.805053	16913.451833	1606.868164	1150.075439
19420.805053	16913.451833	1605.830078	1045.061890
19420.805053	16913.451833	1604.791016	1347.368286
19420.805053	16913.451833	1603.751953	1037.715576
19420.805053	16913.451833	1602.712891	1121.513306
19420.805053	16913.451833	1601.673828	1465.163086
19420.805053	16913.451833	1600.633789	997.184998
19420.805053	16913.451833	1599.594727	929.392395
19420.805053	16913.451833	1598.554688	1158.126831
19420.805053	16913.451833	1597.513672	1062.854614
19420.805053	16913.451833	1596.473633	903.361389
19420.805053	16913.451833	1595.433594	1412.341064
19420.805053	16913.451833	1594.392578	1246.064209
19420.805053	16913.451833	1593.351563	1169.450195
19420.805053	16913.451833	1592.310547	1097.520020
19420.805053	16913.451833	1591.268555	1062.393677
19420.805053	16913.451833	1590.227539	1261.389282
19420.805053	16913.451833	1589.185547	1022.205078
19420.805053	16913.451833	1588.143555	1079.055176
19420.805053	16913.451833	1587.100586	922.681091
19420.805053	16913.451833	1586.058594	1243.326172
19420.805053	16913.451833	1585.015625	1336.978027
19420.805053	16913.451833	1583.972656	1513.169067
19420.805053	16913.451833	1582.929688	1393.781250
19420.805053	16913.451833	1581.886719	972.110596
19420.805053	16913.451833	1580.843750	1127.879028
19420.805053	16913.451833	1579.799805	1796.619385
19420.805053	16913.451833	1578.755859	1773.726929
19420.805053	16913.451833	1577.711914	1327.437012
19420.805053	16913.451833	1576.666992	1279.622925
19420.805053	16913.451833	1575.623047	1295.985107
19420.805053	16913.451833	1574.578125	1454.260742
19420.805053	16913.451833	1573.533203	1525.637695
19420.805053	16913.451833	1572.488281	1523.892334
19420.805053	16913.451833	1571.443359	1673.137085
19420.805053	16913.451833	1570.397461	1452.077271
19420.805053	16913.451833	1569.351563	1231.191406
19420.805053	16913.451833	1568.305664	1332.677734
19420.805053	16913.451833	1567.259766	961.293152
19420.805053	16913.451833	1566.213867	1341.644043
19420.805053	16913.451833	1565.166992	879.235168
19420.805053	16913.451833	1564.120117	1150.034546
19420.805053	16913.451833	1563.073242	1215.367554
19420.805053	16913.451833	1562.026367	1248.817017
19420.805053	16913.451833	1560.978516	1542.485596
19420.805053	16913.451833	1559.930664	1074.118408
19420.805053	16913.451833	1558.883789	1151.206299
19420.805053	16913.451833	1557.834961	1308.177002
19420.805053	16913.451833	1556.787109	1084.403320
19420.805053	16913.451833	1555.739258	1407.949097
19420.805053	16913.451833	1554.690430	915.491577
19420.805053	16913.451833	1553.641602	1359.919922
19420.805053	16913.451833	1552.592773	815.471130
19420.805053	16913.451833	1551.542969	533.297546
19420.805053	16913.451833	1550.494141	980.132446
19420.805053	16913.451833	1549.444336	1096.726807
19420.805053	16913.451833	1548.394531	947.025635
19420.805053	16913.451833	1547.344727	610.848206
19420.805053	16913.451833	1546.293945	968.991699
19420.805053	16913.451833	1545.244141	901.637451
19420.805053	16913.451833	1544.193359	861.717224
19420.805053	16913.451833	1543.142578	967.482056
19420.805053	16913.451833	1542.090820	977.811707
19420.805053	16913.451833	1541.040039	647.238098
19420.805053	16913.451833	1539.988281	473.742676
19420.805053	16913.451833	1538.936523	1043.550659
19420.805053	16913.451833	1537.884766	731.678223
19420.805053	16913.451833	1536.833008	592.690674
19420.805053	16913.451833	1535.780273	385.739624
19420.805053	16913.451833	1534.727539	-18.567297
19420.805053	16913.451833	1533.674805	385.626007
19420.805053	16913.451833	1532.622070	399.368958
19420.805053	16913.451833	1531.569336	469.959045
19420.805053	16913.451833	1530.515625	306.941040
19420.805053	16913.451833	1529.461914	162.255936
19420.805053	16913.451833	1528.408203	-7.197289
19420.805053	16913.451833	1527.354492	-146.982544
19420.805053	16913.451833	1526.299805	339.144623
19420.805053	16913.451833	1525.246094	77.191139
19420.805053	16913.451833	1524.191406	499.875946
19420.805053	16913.451833	1523.136719	140.813019
19420.805053	16913.451833	1522.081055	-156.817200
19420.805053	16913.451833	1521.026367	91.641609
19420.805053	16913.451833	1519.970703	-24.450108
19420.805053	16913.451833	1518.915039	126.786743
19420.805053	16913.451833	1517.859375	117.377991
19420.805053	16913.451833	1516.802734	162.416656
19420.805053	16913.451833	1515.747070	-2.864007
19420.805053	16913.451833	1514.690430	361.413147
19420.805053	16913.451833	1513.633789	483.663696
19420.805053	16913.451833	1512.577148	293.934845
19420.805053	16913.451833	1511.519531	339.544830
19420.805053	16913.451833	1510.461914	75.586479
19420.805053	16913.451833	1509.405273	35.603374
19420.805053	16913.451833	1508.346680	52.259087
19420.805053	16913.451833	1507.289063	233.953125
19420.805053	16913.451833	1506.231445	271.156219
19420.805053	16913.451833	1505.172852	-50.576469
19420.805053	16913.451833	1504.114258	63.698700
19420.805053	16913.451833	1503.055664	49.397972
19420.805053	16913.451833	1501.996094	-46.009075
19420.805053	16913.451833	1500.937500	23.472773
19420.805053	16913.451833	1499.877930	-85.156906
19420.805053	16913.451833	1498.818359	185.316299
19420.805053	16913.451833	1497.757813	-159.809433
19420.805053	16913.451833	1496.698242	-123.637642
19420.805053	16913.451833	1495.637695	-197.792770
19420.805053	16913.451833	1494.577148	174.452698
19420.805053	16913.451833	1493.516602	30.686777
19420.805053	16913.451833	1492.456055	344.438873
19420.805053	16913.451833	1491.394531	223.498016
19420.805053	16913.451833	1490.333008	-48.137306
19420.805053	16913.451833	1489.271484	-22.332281
19420.805053	16913.451833	1488.209961	-149.469681
19420.805053	16913.451833	1487.148438	182.700546
19420.805053	16913.451833	1486.085938	80.602783
19420.805053	16913.451833	1485.023438	203.652740
19420.805053	16913.451833	1483.960938	77.125832
19420.805053	16913.451833	1482.898438	-307.823700
19420.805053	16913.451833	1481.834961	128.170441
19420.805053	16913.451833	1480.772461	-36.055931
19420.805053	16913.451833	1479.708984	-54.008427
19420.805053	16913.451833	1478.644531	-134.708237
19420.805053	16913.451833	1477.581055	-37.792938
19420.805053	16913.451833	1476.517578	-115.868767
19420.805053	16913.451833	1475.453125	-404.873444
19420.805053	16913.451833	1474.388672	-62.918083
19420.805053	16913.451833	1473.323242	29.913345
19420.805053	16913.451833	1472.258789	-22.787624
19420.805053	16913.451833	1471.193359	247.461624
19420.805053	16913.451833	1470.127930	183.633438
19420.805053	16913.451833	1469.062500	160.532333
19420.805053	16913.451833	1467.997070	38.687382
19420.805053	16913.451833	1466.930664	4.677381
19420.805053	16913.451833	1465.865234	420.992676
19420.805053	16913.451833	1464.798828	288.443481
19420.805053	16913.451833	1463.731445	341.391205
19420.805053	16913.451833	1462.665039	118.147743
19420.805053	16913.451833	1461.597656	292.844299
19420.805053	16913.451833	1460.530273	69.371902
19420.805053	16913.451833	1459.462891	618.595520
19420.805053	16913.451833	1458.395508	65.881981
19420.805053	16913.451833	1457.327148	428.090393
19420.805053	16913.451833	1456.259766	44.847427
19420.805053	16913.451833	1455.191406	-16.276770
19420.805053	16913.451833	1454.123047	498.057251
19420.805053	16913.451833	1453.053711	461.568390
19420.805053	16913.451833	1451.985352	-35.678280
19420.805053	16913.451833	1450.916016	314.208679
19420.805053	16913.451833	1449.846680	605.198975
19420.805053	16913.451833	1448.776367	457.248322
19420.805053	16913.451833	1447.707031	73.662994
19420.805053	16913.451833	1446.636719	145.096985
19420.805053	16913.451833	1445.566406	99.623070
19420.805053	16913.451833	1444.496094	12.584531
19420.805053	16913.451833	1443.425781	219.994553
19420.805053	16913.451833	1442.354492	-44.534279
19420.805053	16913.451833	1441.283203	-66.638741
19420.805053	16913.451833	1440.211914	115.291992
19420.805053	16913.451833	1439.140625	-52.506279
19420.805053	16913.451833	1438.069336	528.721802
19420.805053	16913.451833	1436.997070	103.808014
19420.805053	16913.451833	1435.924805	77.472443
19420.805053	16913.451833	1434.852539	305.821930
19420.805053	16913.451833	1433.780273	94.377365
19420.805053	16913.451833	1432.707031	253.931976
19420.805053	16913.451833	1431.633789	255.912292
19420.805053	16913.451833	1430.560547	72.634132
19420.805053	16913.451833	1429.487305	147.475769
19420.805053	16913.451833	1428.413086	1.180045
19420.805053	16913.451833	1427.339844	-320.845947
19420.805053	16913.451833	1426.265625	-103.367775
19420.805053	16913.451833	1425.191406	-8.281907
19420.805053	16913.451833	1424.116211	94.430283
19420.805053	16913.451833	1423.041992	-146.016418
19420.805053	16913.451833	1421.966797	130.712830
19420.805053	16913.451833	1420.891602	8.676208
19420.805053	16913.451833	1419.816406	-193.570358
19420.805053	16913.451833	1418.740234	-51.609329
19420.805053	16913.451833	1417.665039	-317.260254
19420.805053	16913.451833	1416.588867	84.914352
19420.805053	16913.451833	1415.512695	-143.221329
19420.805053	16913.451833	1414.435547	-221.712250
19420.805053	16913.451833	1413.359375	110.769592
19420.805053	16913.451833	1412.282227	128.611694
19420.805053	16913.451833	1411.205078	135.464905
19420.805053	16913.451833	1410.127930	-390.976257
19420.805053	16913.451833	1409.049805	-51.924198
19420.805053	16913.451833	1407.972656	180.000717
19420.805053	16913.451833	1406.894531	-104.254448
19420.805053	16913.451833	1405.816406	-105.435867
19420.805053	16913.451833	1404.737305	-201.503677
19420.805053	16913.451833	1403.659180	393.213959
19420.805053	16913.451833	1402.580078	1.780044
19420.805053	16913.451833	1401.500977	118.274193
19420.805053	16913.451833	1400.421875	140.720932
19420.805053	16913.451833	1399.341797	93.646889
19420.805053	16913.451833	1398.262695	-322.032959
19420.805053	16913.451833	1397.182617	92.221916
19420.805053	16913.451833	1396.102539	205.383148
19420.805053	16913.451833	1395.021484	94.421051
19420.805053	16913.451833	1393.941406	48.945164
19420.805053	16913.451833	1392.860352	-19.792358
19420.805053	16913.451833	1391.779297	214.152390
19420.805053	16913.451833	1390.698242	-127.139458
19420.805053	16913.451833	1389.616211	168.830170
19420.805053	16913.451833	1388.535156	509.679657
19420.805053	16913.451833	1387.453125	141.234253
19420.805053	16913.451833	1386.371094	181.056549
19420.805053	16913.451833	1385.288086	248.383240
19420.805053	16913.451833	1384.206055	221.253845
19420.805053	16913.451833	1383.123047	274.615387
19420.805053	16913.451833	1382.040039	288.936340
19420.805053	16913.451833	1380.957031	280.635681
19420.805053	16913.451833	1379.873047	398.364532
19420.805053	16913.451833	1378.789063	422.214111
19420.805053	16913.451833	1377.705078	286.960815
19420.805053	16913.451833	1376.621094	536.961121
19420.805053	16913.451833	1375.537109	469.299927
19420.805053	16913.451833	1374.452148	499.109222
19420.805053	16913.451833	1373.367188	525.356750
19420.805053	16913.451833	1372.282227	697.764282
19420.805053	16913.451833	1371.197266	574.084656
19420.805053	16913.451833	1370.112305	685.869629
19420.805053	16913.451833	1369.026367	433.923309
19420.805053	16913.451833	1367.940430	406.039337
19420.805053	16913.451833	1366.854492	763.048706
19420.805053	16913.451833	1365.767578	397.318329
19420.805053	16913.451833	1364.681641	591.259888
19420.805053	16913.451833	1363.594727	747.825012
19420.805053	16913.451833	1362.507813	395.283447
19420.805053	16913.451833	1361.419922	594.269897
19420.805053	16913.451833	1360.333008	466.621368
19420.805053	16913.451833	1359.245117	408.026245
19420.805053	16913.451833	1358.157227	284.068542
19420.805053	16913.451833	1357.069336	336.526459
19420.805053	16913.451833	1355.981445	270.998596
19420.805053	16913.451833	1354.892578	287.026276
19420.805053	16913.451833	1353.803711	279.759552
19420.805053	16913.451833	1352.714844	16.724762
19420.805053	16913.451833	1351.625000	492.941864
19420.805053	16913.451833	1350.536133	229.420578
19420.805053	16913.451833	1349.446289	430.994904
19420.805053	16913.451833	1348.356445	530.246338
19420.805053	16913.451833	1347.266602	417.779205
19420.805053	16913.451833	1346.175781	706.664612
19420.805053	16913.451833	1345.085938	508.860870
19420.805053	16913.451833	1343.995117	374.267029
19420.805053	16913.451833	1342.903320	464.901672
19420.805053	16913.451833	1341.812500	610.465088
19420.805053	16913.451833	1340.720703	446.960114
19420.805053	16913.451833	1339.629883	509.455902
19420.805053	16913.451833	1338.538086	859.389038
19420.805053	16913.451833	1337.445313	454.887543
19420.805053	16913.451833	1336.353516	707.379700
19420.805053	16913.451833	1335.260742	577.237976
19420.805053	16913.451833	1334.167969	486.785278
19420.805053	16913.451833	1333.075195	469.602600
19420.805053	16913.451833	1331.981445	332.779114
19420.805053	16913.451833	1330.888672	507.301361
19420.805053	16913.451833	1329.794922	567.659302
19420.805053	16913.451833	1328.701172	577.302612
19420.805053	16913.451833	1327.606445	479.252380
19420.805053	16913.451833	1326.512695	433.272064
19420.805053	16913.451833	1325.417969	457.992615
19420.805053	16913.451833	1324.323242	602.269836
19420.805053	16913.451833	1323.227539	601.661987
19420.805053	16913.451833	1322.132813	475.293671
19420.805053	16913.451833	1321.037109	306.206177
19420.805053	16913.451833	1319.941406	486.128326
19420.805053	16913.451833	1318.845703	410.791473
19420.805053	16913.451833	1317.750000	466.073486
19420.805053	16913.451833	1316.653320	479.753479
19420.805053	16913.451833	1315.556641	531.970215
19420.805053	16913.451833	1314.459961	406.728638
19420.805053	16913.451833	1313.363281	260.560791
19420.805053	16913.451833	1312.265625	502.132690
19420.805053	16913.451833	1311.167969	376.870117
19420.805053	16913.451833	1310.070313	150.031815
19420.805053	16913.451833	1308.972656	334.927338
19420.805053	16913.451833	1307.874023	220.978546
19420.805053	16913.451833	1306.776367	259.397278
19420.805053	16913.451833	1305.677734	480.897461
19420.805053	16913.451833	1304.579102	327.689941
19420.805053	16913.451833	1303.479492	358.819763
19420.805053	16913.451833	1302.380859	314.762268
19420.805053	16913.451833	1301.281250	25.587030
19420.805053	16913.451833	1300.181641	235.506790
19420.805053	16913.451833	1299.081055	-27.017349
19420.805053	16913.451833	1297.981445	103.612938
19420.805053	16913.451833	1296.880859	182.773941
19420.805053	16913.451833	1295.780273	-42.684879
19420.805053	16913.451833	1294.679688	266.577301
19420.805053	16913.451833	1293.578125	260.927917
19420.805053	16913.451833	1292.476563	1.692914
19420.805053	16913.451833	1291.375000	-160.306366
19420.805053	16913.451833	1290.273438	-61.275951
19420.805053	16913.451833	1289.171875	-207.169922
19420.805053	16913.451833	1288.069336	103.785416
19420.805053	16913.451833	1286.966797	20.265676
19420.805053	16913.451833	1285.864258	-66.737892
19420.805053	16913.451833	1284.761719	67.006203
19420.805053	16913.451833	1283.658203	136.955292
19420.805053	16913.451833	1282.554688	348.423645
19420.805053	16913.451833	1281.451172	137.599792
19420.805053	16913.451833	1280.347656	207.295349
19420.805053	16913.451833	1279.244141	138.185196
19420.805053	16913.451833	1278.139648	5.988365
19420.805053	16913.451833	1277.035156	94.329735
19420.805053	16913.451833	1275.930664	-57.137291
19420.805053	16913.451833	1274.825195	-166.258102
19420.805053	16913.451833	1273.720703	260.065613
19420.805053	16913.451833	1272.615234	29.206434
19420.805053	16913.451833	1271.508789	53.317787
19420.805053	16913.451833	1270.403320	70.306648
19420.805053	16913.451833	1269.297852	89.382309
19420.805053	16913.451833	1268.191406	124.982567
19420.805053	16913.451833	1267.084961	-17.687531
19420.805053	16913.451833	1265.977539	26.637915
19420.805053	16913.451833	1264.871094	-5.921095
19420.805053	16913.451833	1263.763672	68.746201
19420.805053	16913.451833	1262.656250	62.198425
19420.805053	16913.451833	1261.548828	285.126190
19420.805053	16913.451833	1260.440430	102.504341
19420.805053	16913.451833	1259.333008	204.011642
19420.805053	16913.451833	1258.224609	120.198196
19420.805053	16913.451833	1257.115234	317.248718
19420.805053	16913.451833	1256.006836	225.572586
19420.805053	16913.451833	1254.897461	298.555725
19420.805053	16913.451833	1253.788086	286.526489
19420.805053	16913.451833	1252.678711	49.464603
19420.805053	16913.451833	1251.569336	72.580254
19420.805053	16913.451833	1250.458984	149.754440
19420.805053	16913.451833	1249.349609	-11.560236
19420.805053	16913.451833	1248.239258	-86.202629
19420.805053	16913.451833	1247.127930	202.521790
19420.805053	16913.451833	1246.017578	110.977913
19420.805053	16913.451833	1244.906250	177.500565
19420.805053	16913.451833	1243.794922	130.484772
19420.805053	16913.451833	1242.683594	75.021645
19420.805053	16913.451833	1241.571289	30.349455
19420.805053	16913.451833	1240.459961	-12.623659
19420.805053	16913.451833	1239.347656	12.202559
19420.805053	16913.451833	1238.234375	-65.342545
19420.805053	16913.451833	1237.122070	112.389587
19420.805053	16913.451833	1236.008789	49.061569
19420.805053	16913.451833	1234.896484	67.630684
19420.805053	16913.451833	1233.782227	-26.124861
19420.805053	16913.451833	1232.668945	-166.211060
19420.805053	16913.451833	1231.555664	-104.733490
19420.805053	16913.451833	1230.441406	205.971695
19420.805053	16913.451833	1229.327148	60.659332
19420.805053	16913.451833	1228.211914	54.893600
19420.805053	16913.451833	1227.097656	200.124481
19420.805053	16913.451833	1225.982422	-106.899994
19420.805053	16913.451833	1224.867188	-99.233391
19420.805053	16913.451833	1223.751953	-97.163368
19420.805053	16913.451833	1222.635742	-115.284081
19420.805053	16913.451833	1221.520508	-93.901024
19420.805053	16913.451833	1220.404297	-66.723495
19420.805053	16913.451833	1219.287109	-14.945471
19420.805053	16913.451833	1218.170898	58.944202
19420.805053	16913.451833	1217.053711	-59.974892
19420.805053	16913.451833	1215.936523	-98.545052
19420.805053	16913.451833	1214.819336	12.416833
19420.805053	16913.451833	1213.702148	-134.171722
19420.805053	16913.451833	1212.583984	-61.967651
19420.805053	16913.451833	1211.465820	19.665459
19420.805053	16913.451833	1210.347656	130.963486
19420.805053	16913.451833	1209.229492	105.320549
19420.805053	16913.451833	1208.110352	304.845215
19420.805053	16913.451833	1206.992188	175.567062
19420.805053	16913.451833	1205.873047	-154.394012
19420.805053	16913.451833	1204.752930	-0.774839
19420.805053	16913.451833	1203.633789	-49.313141
19420.805053	16913.451833	1202.513672	-150.590424
19420.805053	16913.451833	1201.393555	42.219620
19420.805053	16913.451833	1200.273438	5.009199
19420.805053	16913.451833	1199.152344	-75.578224
19420.805053	16913.451833	1198.032227	89.374413
19420.805053	16913.451833	1196.911133	-81.013618
19420.805053	16913.451833	1195.790039	-170.820038
19420.805053	16913.451833	1194.667969	-107.878120
19420.805053	16913.451833	1193.545898	28.701324
19420.805053	16913.451833	1192.424805	-121.215790
19420.805053	16913.451833	1191.301758	-182.865158
19420.805053	16913.451833	1190.179688	-254.078064
19420.805053	16913.451833	1189.056641	-13.390106
19420.805053	16913.451833	1187.933594	-375.488037
19420.805053	16913.451833	1186.810547	-169.438492
19420.805053	16913.451833	1185.687500	-67.302307
19420.805053	16913.451833	1184.563477	-156.897415
19420.805053	16913.451833	1183.440430	58.196484
19420.805053	16913.451833	1182.316406	-3.709053
19420.805053	16913.451833	1181.191406	-47.096809
19420.805053	16913.451833	1180.067383	-119.380142
19420.805053	16913.451833	1178.942383	-48.423542
19420.805053	16913.451833	1177.817383	-62.520672
19420.805053	16913.451833	1176.692383	-159.779129
19420.805053	16913.451833	1175.566406	-285.310181
19420.805053	16913.451833	1174.440430	-75.622116
19420.805053	16913.451833	1173.314453	195.314163
19420.805053	16913.451833	1172.188477	68.109833
19420.805053	16913.451833	1171.062500	270.749146
19420.805053	16913.451833	1169.935547	291.146027
19420.805053	16913.451833	1168.808594	-1.072784
19420.805053	16913.451833	1167.681641	164.678513
19420.805053	16913.451833	1166.553711	-3.977292
19420.805053	16913.451833	1165.426758	-9.262709
19420.805053	16913.451833	1164.298828	-28.402779
19420.805053	16913.451833	1163.170898	-135.741196
19420.805053	16913.451833	1162.041992	-26.053768
19420.805053	16913.451833	1160.914063	9.109282
19420.805053	16913.451833	1159.785156	-47.272369
19420.805053	16913.451833	1158.656250	-392.528503
19420.805053	16913.451833	1157.526367	-193.235916
19420.805053	16913.451833	1156.397461	-120.241226
19420.805053	16913.451833	1155.267578	-46.740932
19420.805053	16913.451833	1154.137695	-44.900532
19420.805053	16913.451833	1153.006836	-134.080154
19420.805053	16913.451833	1151.876953	-75.723686
19420.805053	16913.451833	1150.746094	-54.315083
19420.805053	16913.451833	1149.615234	179.128815
19420.805053	16913.451833	1148.484375	182.065063
19420.805053	16913.451833	1147.352539	-109.696770
19420.805053	16913.451833	1146.220703	62.084476
19420.805053	16913.451833	1145.088867	-144.040390
19420.805053	16913.451833	1143.957031	-200.649445
19420.805053	16913.451833	1142.825195	-120.748489
19420.805053	16913.451833	1141.692383	3.817523
19420.805053	16913.451833	1140.559570	-103.049805
19420.805053	16913.451833	1139.426758	6.510928
19420.805053	16913.451833	1138.292969	-33.433239
19420.805053	16913.451833	1137.159180	115.749931
19420.805053	16913.451833	1136.025391	34.085926
19420.805053	16913.451833	1134.891602	40.354137
19420.805053	16913.451833	1133.757813	232.662094
19420.805053	16913.451833	1132.623047	-56.271046
19420.805053	16913.451833	1131.488281	278.945068
19420.805053	16913.451833	1130.353516	46.166008
19420.805053	16913.451833	1129.217773	13.593248
19420.805053	16913.451833	1128.083008	-11.367190
19420.805053	16913.451833	1126.947266	114.857361
19420.805053	16913.451833	1125.811523	35.790333
19420.805053	16913.451833	1124.674805	36.707226
19420.805053	16913.451833	1123.539063	-36.557777
19420.805053	16913.451833	1122.402344	-180.770264
19420.805053	16913.451833	1121.265625	81.749649
19420.805053	16913.451833	1120.127930	93.974579
19420.805053	16913.451833	1118.990234	-0.341258
19420.805053	16913.451833	1117.853516	50.228447
19420.805053	16913.451833	1116.714844	231.768829
19420.805053	16913.451833	1115.577148	190.206863
19420.805053	16913.451833	1114.439453	157.921326
19420.805053	16913.451833	1113.300781	239.673630
19420.805053	16913.451833	1112.162109	204.923386
19420.805053	16913.451833	1111.022461	313.015930
19420.805053	16913.451833	1109.883789	84.450684
19420.805053	16913.451833	1108.744141	247.761780
19420.805053	16913.451833	1107.604492	123.215691
19420.805053	16913.451833	1106.463867	177.688797
19420.805053	16913.451833	1105.324219	43.329395
19420.805053	16913.451833	1104.183594	133.973969
19420.805053	16913.451833	1103.042969	144.076706
19420.805053	16913.451833	1101.902344	246.114410
19420.805053	16913.451833	1100.760742	460.662506
19420.805053	16913.451833	1099.619141	310.870605
19420.805053	16913.451833	1098.477539	241.393311
19420.805053	16913.451833	1097.335938	162.455475
19420.805053	16913.451833	1096.193359	252.034714
19420.805053	16913.451833	1095.051758	173.354370
19420.805053	16913.451833	1093.909180	410.638824
19420.805053	16913.451833	1092.765625	335.083557
19420.805053	16913.451833	1091.623047	217.023499
19420.805053	16913.451833	1090.479492	194.268768
19420.805053	16913.451833	1089.335938	480.088562
19420.805053	16913.451833	1088.192383	-32.655499
19420.805053	16913.451833	1087.047852	213.152542
19420.805053	16913.451833	1085.903320	184.065231
19420.805053	16913.451833	1084.758789	239.424683
19420.805053	16913.451833	1083.614258	393.127686
19420.805053	16913.451833	1082.469727	240.655060
19420.805053	16913.451833	1081.324219	231.747513
19420.805053	16913.451833	1080.178711	181.108246
19420.805053	16913.451833	1079.033203	226.147720
19420.805053	16913.451833	1077.886719	92.756958
19420.805053	16913.451833	1076.740234	126.336540
19420.805053	16913.451833	1075.593750	225.205154
19420.805053	16913.451833	1074.447266	116.572128
19420.805053	16913.451833	1073.300781	247.584274
19420.805053	16913.451833	1072.153320	116.339462
19420.805053	16913.451833	1071.005859	153.175964
19420.805053	16913.451833	1069.858398	141.299210
19420.805053	16913.451833	1068.709961	180.732727
19420.805053	16913.451833	1067.561523	246.676239
19420.805053	16913.451833	1066.413086	2.782468
19420.805053	16913.451833	1065.264648	301.584930
19420.805053	16913.451833	1064.116211	54.429714
19420.805053	16913.451833	1062.966797	417.810852
19420.805053	16913.451833	1061.817383	138.666534
19420.805053	16913.451833	1060.667969	347.790131
19420.805053	16913.451833	1059.517578	29.269302
19420.805053	16913.451833	1058.368164	96.236328
19420.805053	16913.451833	1057.217773	174.670914
19420.805053	16913.451833	1056.067383	277.238007
19420.805053	16913.451833	1054.916016	304.585693
19420.805053	16913.451833	1053.764648	184.269684
19420.805053	16913.451833	1052.613281	116.626244
19420.805053	16913.451833	1051.461914	148.864716
19420.805053	16913.451833	1050.310547	94.358482
19420.805053	16913.451833	1049.158203	-131.937851
19420.805053	16913.451833	1048.005859	240.869431
19420.805053	16913.451833	1046.853516	35.710354
19420.805053	16913.451833	1045.700195	96.851913
19420.805053	16913.451833	1044.547852	256.565857
19420.805053	16913.451833	1043.394531	159.081085
19420.805053	16913.451833	1042.240234	257.247437
19420.805053	16913.451833	1041.086914	251.024399
19420.805053	16913.451833	1039.932617	69.458984
19420.805053	16913.451833	1038.778320	-2.007935
19420.805053	16913.451833	1037.624023	292.379852
19420.805053	16913.451833	1036.469727	145.185150
19420.805053	16913.451833	1035.314453	312.557526
19420.805053	16913.451833	1034.159180	350.994537
19420.805053	16913.451833	1033.003906	386.803223
19420.805053	16913.451833	1031.847656	368.027466
19420.805053	16913.451833	1030.692383	431.834320
19420.805053	16913.451833	1029.536133	482.194122
19420.805053	16913.451833	1028.378906	529.261353
19420.805053	16913.451833	1027.222656	309.099731
19420.805053	16913.451833	1026.065430	385.232147
19420.805053	16913.451833	1024.908203	203.070465
19420.805053	16913.451833	1023.750977	19.687288
19420.805053	16913.451833	1022.593750	-63.378002
19420.805053	16913.451833	1021.435547	173.887024
19420.805053	16913.451833	1020.277344	52.425621
19420.805053	16913.451833	1019.119141	-11.310742
19420.805053	16913.451833	1017.959961	141.619980
19420.805053	16913.451833	1016.800781	156.674759
19420.805053	16913.451833	1015.641602	-306.946869
19420.805053	16913.451833	1014.482422	96.776871
19420.805053	16913.451833	1013.323242	43.984974
19420.805053	16913.451833	1012.163086	99.752136
19420.805053	16913.451833	1011.002930	-19.372751
19420.805053	16913.451833	1009.842773	-53.899166
19420.805053	16913.451833	1008.681641	55.735806
19420.805053	16913.451833	1007.520508	-152.813416
19420.805053	16913.451833	1006.359375	134.416321
19420.805053	16913.451833	1005.198242	40.888218
19420.805053	16913.451833	1004.037109	34.239250
19420.805053	16913.451833	1002.875000	-133.495148
19420.805053	16913.451833	1001.712891	132.562195
19420.805053	16913.451833	1000.550781	36.194752
19420.805053	16913.451833	999.387695	134.269897
19420.805053	16913.451833	998.224609	113.293777
19420.805053	16913.451833	997.061523	229.647491
19420.805053	16913.451833	995.898438	-70.883545
19420.805053	16913.451833	994.734375	-73.855888
19420.805053	16913.451833	993.571289	-38.630352
19420.805053	16913.451833	992.407227	18.626970
19420.805053	16913.451833	991.242188	17.301008
19420.805053	16913.451833	990.078125	13.392385
19420.805053	16913.451833	988.913086	-3.616695
19420.805053	16913.451833	987.748047	168.182388
19420.805053	16913.451833	986.583008	202.090652
19420.805053	16913.451833	985.416992	-191.602982
19420.805053	16913.451833	984.250977	-94.890205
19420.805053	16913.451833	983.084961	-204.054031
19420.805053	16913.451833	981.918945	-99.209511
19420.805053	16913.451833	980.751953	-37.063862
19420.805053	16913.451833	979.584961	122.885384
19420.805053	16913.451833	978.417969	83.077858
19420.805053	16913.451833	977.250977	-121.468689
19420.805053	16913.451833	976.083008	-208.440109
19420.805053	16913.451833	974.915039	-109.023300
19420.805053	16913.451833	973.747070	-289.307983
19420.805053	16913.451833	972.579102	35.045872
19420.805053	16913.451833	971.410156	-188.667236
19420.805053	16913.451833	970.242188	62.946465
19420.805053	16913.451833	969.072266	87.756546
19420.805053	16913.451833	967.903320	86.044090
19420.805053	16913.451833	966.733398	200.440857
19420.805053	16913.451833	965.563477	175.488571
19420.805053	16913.451833	964.393555	-49.486515
19420.805053	16913.451833	963.223633	-210.699127
19420.805053	16913.451833	962.052734	49.795460
19420.805053	16913.451833	960.881836	45.720638
19420.805053	16913.451833	959.710938	-127.771164
19420.805053	16913.451833	958.540039	-21.289255
19420.805053	16913.451833	957.368164	-46.133121
19420.805053	16913.451833	956.196289	-366.813721
19420.805053	16913.451833	955.024414	54.350674
19420.805053	16913.451833	953.851563	-15.222736
19420.805053	16913.451833	952.679688	221.381729
19420.805053	16913.451833	951.506836	82.142998
19420.805053	16913.451833	950.333984	41.472034
19420.805053	16913.451833	949.160156	50.959812
19420.805053	16913.451833	947.986328	-29.222902
19420.805053	16913.451833	946.812500	-22.322186
19420.805053	16913.451833	945.638672	-30.777479
19420.805053	16913.451833	944.464844	167.754959
19420.805053	16913.451833	943.290039	-121.100792
19420.805053	16913.451833	942.115234	-75.195419
19420.805053	16913.451833	940.940430	-100.185181
19420.805053	16913.451833	939.764648	102.719933
19420.805053	16913.451833	938.588867	-61.639320
19420.805053	16913.451833	937.413086	88.035858
19420.805053	16913.451833	936.237305	-203.529953
19420.805053	16913.451833	935.060547	-70.279282
19420.805053	16913.451833	933.883789	-199.111542
19420.805053	16913.451833	932.707031	35.240791
19420.805053	16913.451833	931.530273	161.849915
19420.805053	16913.451833	930.352539	90.029060
19420.805053	16913.451833	929.175781	-167.612167
19420.805053	16913.451833	927.998047	-169.861298
19420.805053	16913.451833	926.819336	-49.585651
19420.805053	16913.451833	925.641602	148.675995
19420.805053	16913.451833	924.462891	175.975845
19420.805053	16913.451833	923.284180	175.789566
19420.805053	16913.451833	922.104492	118.647064
19420.805053	16913.451833	920.924805	-221.120514
19420.805053	16913.451833	919.746094	-210.875275
19420.805053	16913.451833	919.551758	-164.760483
19420.805053	16913.451833	918.386719	-146.088745
19420.805053	16913.451833	917.220703	-205.426086
19420.805053	16913.451833	916.054688	51.351662
19420.805053	16913.451833	914.887695	-260.868347
19420.805053	16913.451833	913.721680	-166.427261
19420.805053	16913.451833	912.554688	302.855530
19420.805053	16913.451833	911.387695	-209.325348
19420.805053	16913.451833	910.220703	-37.106823
19420.805053	16913.451833	909.052734	-121.762009
19420.805053	16913.451833	907.885742	174.489151
19420.805053	16913.451833	906.717773	144.489227
19420.805053	16913.451833	905.548828	-36.967102
19420.805053	16913.451833	904.380859	111.812424
19420.805053	16913.451833	903.211914	29.221031
19420.805053	16913.451833	902.042969	-179.493881
19420.805053	16913.451833	900.874023	-68.666512
19420.805053	16913.451833	899.704102	-126.011597
19420.805053	16913.451833	898.535156	14.130101
19420.805053	16913.451833	897.365234	13.464082
19420.805053	16913.451833	896.194336	-64.922066
19420.805053	16913.451833	895.024414	83.459129
19420.805053	16913.451833	893.853516	317.836456
19420.805053	16913.451833	892.682617	50.471107
19420.805053	16913.451833	891.511719	154.608917
19420.805053	16913.451833	890.340820	9.021120
19420.805053	16913.451833	889.168945	220.061096
19420.805053	16913.451833	887.997070	227.568222
19420.805053	16913.451833	886.825195	251.821533
19420.805053	16913.451833	885.653320	-95.001518
19420.805053	16913.451833	884.480469	-288.703918
19420.805053	16913.451833	883.307617	49.883888
19420.805053	16913.451833	882.134766	46.822140
19420.805053	16913.451833	880.961914	269.950378
19420.805053	16913.451833	879.788086	208.164764
19420.805053	16913.451833	878.614258	18.660278
19420.805053	16913.451833	877.440430	67.840912
19420.805053	16913.451833	876.266602	-33.711620
19420.805053	16913.451833	875.091797	-45.269264
19420.805053	16913.451833	873.916992	18.460724
19420.805053	16913.451833	872.742188	100.960434
19420.805053	16913.451833	871.567383	233.583054
19420.805053	16913.451833	870.391602	129.880753
19420.805053	16913.451833	869.215820	-19.795071
19420.805053	16913.451833	868.040039	31.186115
19420.805053	16913.451833	866.864258	-24.445566
19420.805053	16913.451833	865.687500	-182.438858
19420.805053	16913.451833	864.510742	-4.139521
19420.805053	16913.451833	863.333984	-124.547897
19420.805053	16913.451833	862.157227	72.390350
19420.805053	16913.451833	860.979492	89.719307
19420.805053	16913.451833	859.802734	180.039139
19420.805053	16913.451833	858.625000	34.530159
19420.805053	16913.451833	857.446289	3.785668
19420.805053	16913.451833	856.268555	-120.840103
19420.805053	16913.451833	855.089844	8.946259
19420.805053	16913.451833	853.911133	42.746502
19420.805053	16913.451833	852.731445	-194.452148
19420.805053	16913.451833	851.552734	1.847378
19420.805053	16913.451833	850.373047	189.703842
19420.805053	16913.451833	849.193359	96.240601
19420.805053	16913.451833	848.013672	-180.488037
19420.805053	16913.451833	846.833008	-169.797729
19420.805053	16913.451833	845.652344	-84.205681
19420.805053	16913.451833	844.471680	32.531891
19420.805053	16913.451833	843.291016	-8.964309
19420.805053	16913.451833	842.110352	-191.950516
19420.805053	16913.451833	840.928711	-73.293365
19420.805053	16913.451833	839.747070	-102.375107
19420.805053	16913.451833	838.564453	249.007889
19420.805053	16913.451833	837.382813	13.996022
19420.805053	16913.451833	836.200195	-21.434759
19420.805053	16913.451833	835.017578	3.364675
19420.805053	16913.451833	833.834961	102.901756
19420.805053	16913.451833	832.651367	104.741264
19420.805053	16913.451833	831.467773	131.456253
19420.805053	16913.451833	830.284180	25.241663
19420.805053	16913.451833	829.100586	-2.092335
19420.805053	16913.451833	827.916992	-147.753143
19420.805053	16913.451833	826.732422	179.681229
19420.805053	16913.451833	825.547852	-46.942509
19420.805053	16913.451833	824.363281	114.322540
19420.805053	16913.451833	823.177734	202.908035
19420.805053	16913.451833	821.992188	140.069000
19420.805053	16913.451833	820.806641	87.572632
19420.805053	16913.451833	819.621094	95.149048
19420.805053	16913.451833	818.434570	-46.492897
19420.805053	16913.451833	817.249023	-41.059147
19420.805053	16913.451833	816.062500	86.522629
19420.805053	16913.451833	814.875000	-40.675777
19420.805053	16913.451833	813.688477	389.001282
19420.805053	16913.451833	812.500977	2.977436
19420.805053	16913.451833	811.313477	159.224915
19420.805053	16913.451833	810.125977	373.286346
19420.805053	16913.451833	808.937500	196.276505
19420.805053	16913.451833	807.749023	-313.664276
19420.805053	16913.451833	806.560547	26.338655
19420.805053	16913.451833	805.372070	-32.812672
19420.805053	16913.451833	804.182617	329.629181
19420.805053	16913.451833	802.994141	231.074585
19420.805053	16913.451833	801.803711	347.371887
19420.805053	16913.451833	800.614258	168.201370
19420.805053	16913.451833	799.424805	-66.705116
19420.805053	16913.451833	798.234375	286.852783
19420.805053	16913.451833	797.043945	33.340065
19420.805053	16913.451833	795.852539	70.873009
19420.805053	16913.451833	794.662109	312.600922
19420.805053	16913.451833	793.470703	310.756653
19420.805053	16913.451833	792.279297	57.235088
19420.805053	16913.451833	791.087891	179.055481
19420.805053	16913.451833	789.895508	-47.638695
19420.805053	16913.451833	788.703125	197.719421
19420.805053	16913.451833	787.510742	41.069061
19420.805053	16913.451833	786.318359	154.331848
19420.805053	16913.451833	785.125000	213.938202
19420.805053	16913.451833	783.931641	-119.900246
19420.805053	16913.451833	782.738281	-45.963020
19420.805053	16913.451833	781.544922	-29.756180
19420.805053	16913.451833	780.350586	120.173965
19420.805053	16913.451833	779.156250	302.908386
19420.805053	16913.451833	777.961914	-148.154617
19420.805053	16913.451833	776.767578	89.980820
19420.805053	16913.451833	775.572266	52.391304
19420.805053	16913.451833	774.376953	53.824055
19420.805053	16913.451833	773.181641	90.142204
19420.805053	16913.451833	771.986328	-21.587978
19420.805053	16913.451833	770.790039	-92.233437
19420.805053	16913.451833	769.593750	126.757965
19420.805053	16913.451833	768.397461	99.124413
19420.805053	16913.451833	767.201172	270.635315
19420.805053	16913.451833	766.003906	-221.129135
19420.805053	16913.451833	764.806641	237.631470
19420.805053	16913.451833	763.609375	275.432678
19420.805053	16913.451833	762.412109	253.655289
19420.805053	16913.451833	761.213867	361.068756
19420.805053	16913.451833	760.015625	302.249176
19420.805053	16913.451833	758.817383	136.764816
19420.805053	16913.451833	757.618164	112.750290
19420.805053	16913.451833	756.419922	359.237122
19420.805053	16913.451833	755.220703	150.631195
19420.805053	16913.451833	754.021484	157.178757
19420.805053	16913.451833	752.821289	231.260330
19420.805053	16913.451833	751.621094	170.087173
19420.805053	16913.451833	750.420898	186.682770
19420.805053	16913.451833	749.220703	-9.687206
19420.805053	16913.451833	748.020508	270.838654
19420.805053	16913.451833	746.819336	315.871155
19420.805053	16913.451833	745.618164	101.004662
19420.805053	16913.451833	744.416992	231.838882
19420.805053	16913.451833	743.214844	-68.927612
19420.805053	16913.451833	742.012695	153.772400
19420.805053	16913.451833	740.810547	139.202744
19420.805053	16913.451833	739.608398	324.859680
19420.805053	16913.451833	738.406250	312.182800
19420.805053	16913.451833	737.203125	387.296295
19420.805053	16913.451833	736.000000	427.595825
19420.805053	16913.451833	734.795898	331.010193
19420.805053	16913.451833	733.592773	432.432373
19420.805053	16913.451833	732.388672	737.868164
19420.805053	16913.451833	731.184570	679.871765
19420.805053	16913.451833	729.979492	415.775940
19420.805053	16913.451833	728.775391	321.036804
19420.805053	16913.451833	727.570313	318.054291
19420.805053	16913.451833	726.365234	166.167908
19420.805053	16913.451833	725.160156	-4.059517
19420.805053	16913.451833	723.954102	17.312208
19420.805053	16913.451833	722.748047	85.488022
19420.805053	16913.451833	721.541992	104.681175
19420.805053	16913.451833	720.334961	-118.574478
19420.805053	16913.451833	719.128906	-42.439281
19420.805053	16913.451833	717.921875	-9.146703
19420.805053	16913.451833	716.714844	180.817078
19420.805053	16913.451833	715.506836	-46.559120
19420.805053	16913.451833	714.298828	-43.970337
19420.805053	16913.451833	713.090820	-86.193451
19420.805053	16913.451833	711.882813	237.647018
19420.805053	16913.451833	710.674805	79.367989
19420.805053	16913.451833	709.465820	-223.239151
19420.805053	16913.451833	708.256836	-135.513672
19420.805053	16913.451833	707.047852	-175.904236
19420.805053	16913.451833	705.837891	-177.723068
19420.805053	16913.451833	704.627930	-27.244789
19420.805053	16913.451833	703.417969	13.451097
19420.805053	16913.451833	702.208008	-57.593788
19420.805053	16913.451833	700.998047	-83.999924
19420.805053	16913.451833	699.787109	-287.017120
19420.805053	16913.451833	698.576172	-25.312344
19420.805053	16913.451833	697.364258	-185.748734
19420.805053	16913.451833	696.153320	-39.885132
19420.805053	16913.451833	694.941406	49.088593
19420.805053	16913.451833	693.729492	40.661961
19420.805053	16913.451833	692.516602	42.329155
19420.805053	16913.451833	691.304688	-93.858948
19420.805053	16913.451833	690.091797	88.079445
19420.805053	16913.451833	688.878906	22.755136
19420.805053	16913.451833	687.665039	4.000138
19420.805053	16913.451833	686.451172	-85.660583
19420.805053	16913.451833	685.237305	-47.780910
19420.805053	16913.451833	684.023438	-177.955719
19420.805053	16913.451833	682.809570	-6.588489
19420.805053	16913.451833	681.594727	85.760139
19420.805053	16913.451833	680.379883	91.054802
19420.805053	16913.451833	679.165039	1.259282
19420.805053	16913.451833	677.949219	16.605835
19420.805053	16913.451833	676.733398	50.106117
19420.805053	16913.451833	675.517578	206.846985
19420.805053	16913.451833	674.301758	-24.483135
19420.805053	16913.451833	673.084961	45.271801
19420.805053	16913.451833	671.869141	44.271263
19420.805053	16913.451833	670.651367	-174.852524
19420.805053	16913.451833	669.434570	7.861955
19420.805053	16913.451833	668.216797	6.782426
19420.805053	16913.451833	667.000000	221.615463
19420.805053	16913.451833	665.781250	369.748932
19420.805053	16913.451833	664.563477	37.683746
19420.805053	16913.451833	663.344727	82.885139
19420.805053	16913.451833	662.125977	124.011688
19420.805053	16913.451833	660.907227	76.394539
19420.805053	16913.451833	659.688477	0.558187
19420.805053	16913.451833	658.468750	11.385149
19420.805053	16913.451833	657.249023	328.424744
19420.805053	16913.451833	656.029297	28.941713
19420.805053	16913.451833	654.808594	222.965073
19420.805053	16913.451833	653.587891	364.540283
19420.805053	16913.451833	652.367188	63.178230
19420.805053	16913.451833	651.146484	-28.760569
19420.805053	16913.451833	649.924805	-120.670967
19420.805053	16913.451833	648.704102	175.708893
19420.805053	16913.451833	647.482422	182.326477
19420.805053	16913.451833	646.259766	80.343063
19420.805053	16913.451833	645.037109	279.964417
19420.805053	16913.451833	643.815430	127.740074
19420.805053	16913.451833	642.591797	154.428467
19420.805053	16913.451833	641.369141	88.679771
19420.805053	16913.451833	640.145508	-1.148429
19420.805053	16913.451833	638.921875	103.866463
19420.805053	16913.451833	637.698242	4.030334
19420.805053	16913.451833	636.474609	-107.807968
19420.805053	16913.451833	635.250000	103.540726
19420.805053	16913.451833	634.025391	150.256851
19420.805053	16913.451833	632.800781	184.921661
19420.805053	16913.451833	631.575195	83.183365
19420.805053	16913.451833	630.349609	87.778992
19420.805053	16913.451833	629.124023	60.301563
19420.805053	16913.451833	627.898438	-109.476242
19420.805053	16913.451833	626.671875	83.568382
19420.805053	16913.451833	625.445313	-124.188850
19420.805053	16913.451833	624.218750	247.089188
19420.805053	16913.451833	622.992188	85.475967
19420.805053	16913.451833	621.764648	150.215408
19420.805053	16913.451833	620.537109	-117.379318
19420.805053	16913.451833	619.309570	-104.629311
19420.805053	16913.451833	618.081055	-159.903885
19420.805053	16913.451833	616.852539	279.033905
19420.805053	16913.451833	615.624023	141.732056
19420.805053	16913.451833	614.395508	42.506207
19420.805053	16913.451833	613.166992	-206.609314
19420.805053	16913.451833	611.937500	-3.821654
19420.805053	16913.451833	610.708008	210.895035
19420.805053	16913.451833	609.477539	-293.781586
19420.805053	16913.451833	608.248047	-41.082397
19420.805053	16913.451833	607.017578	-197.905151
19420.805053	16913.451833	605.787109	-21.155792
19420.805053	16913.451833	604.555664	-231.758194
19420.805053	16913.451833	603.325195	-350.421967
19420.805053	16913.451833	602.093750	-37.954895
19420.805053	16913.451833	600.861328	-34.836388
19420.805053	16913.451833	599.629883	-187.274307
19420.805053	16913.451833	598.397461	-84.336090
19420.805053	16913.451833	597.165039	-212.697525
19420.805053	16913.451833	595.932617	-155.574463
19420.805053	16913.451833	594.699219	-54.586025
19420.805053	16913.451833	593.465820	-122.974525
19420.805053	16913.451833	592.232422	-390.512543
19420.805053	16913.451833	590.999023	55.160099
19420.805053	16913.451833	589.764648	0.857953
19420.805053	16913.451833	588.530273	-19.530693
19420.805053	16913.451833	587.295898	-250.860565
19420.805053	16913.451833	586.061523	150.796799
19420.805053	16913.451833	584.826172	-124.150322
19420.805053	16913.451833	583.590820	-74.688881
19420.805053	16913.451833	582.355469	139.867279
19420.805053	16913.451833	581.119141	165.487015
19420.805053	16913.451833	579.882813	-116.990677
19420.805053	16913.451833	578.646484	22.059696
19420.805053	16913.451833	577.410156	127.318306
19420.805053	16913.451833	576.172852	137.222748
19420.805053	16913.451833	574.935547	302.099976
19420.805053	16913.451833	573.698242	149.225754
19420.805053	16913.451833	572.460938	220.819092
19420.805053	16913.451833	571.222656	427.413300
19420.805053	16913.451833	569.984375	100.124077
19420.805053	16913.451833	568.746094	46.836315
19420.805053	16913.451833	567.506836	-125.395218
19420.805053	16913.451833	566.267578	81.304649
19420.805053	16913.451833	565.028320	159.084351
19420.805053	16913.451833	563.789063	10.883283
19420.805053	16913.451833	562.548828	140.281540
19420.805053	16913.451833	561.309570	140.872482
19420.805053	16913.451833	560.068359	290.105621
19420.805053	16913.451833	558.828125	332.364868
19420.805053	16913.451833	557.586914	109.294930
19420.805053	16913.451833	556.345703	409.065063
19420.805053	16913.451833	555.104492	136.688416
19420.805053	16913.451833	553.863281	113.838303
19420.805053	16913.451833	552.621094	340.358276
19420.805053	16913.451833	551.378906	487.700409
19420.805053	16913.451833	550.136719	520.317017
19420.805053	16913.451833	548.893555	630.084778
19420.805053	16913.451833	547.650391	506.574554
19420.805053	16913.451833	546.407227	410.832184
19420.805053	16913.451833	545.164063	317.151489
19420.805053	16913.451833	543.919922	727.352356
19420.805053	16913.451833	542.675781	485.587158
19420.805053	16913.451833	541.431641	488.844757
19420.805053	16913.451833	540.186523	492.142090
19420.805053	16913.451833	538.941406	467.840210
19420.805053	16913.451833	537.696289	548.181580
19420.805053	16913.451833	536.451172	662.068848
19420.805053	16913.451833	535.205078	501.733429
19420.805053	16913.451833	533.959961	574.226318
19420.805053	16913.451833	532.712891	490.942841
19420.805053	16913.451833	531.466797	638.378052
19420.805053	16913.451833	530.219727	632.039490
19420.805053	16913.451833	528.972656	539.017517
19420.805053	16913.451833	527.725586	603.669128
19420.805053	16913.451833	526.478516	735.280762
19420.805053	16913.451833	525.230469	673.858582
19420.805053	16913.451833	523.982422	642.008118
19420.805053	16913.451833	522.734375	769.628784
19420.805053	16913.451833	521.485352	820.447083
19420.805053	16913.451833	520.236328	782.700928
19420.805053	16913.451833	518.987305	802.019897
19420.805053	16913.451833	517.737305	677.753113
19420.805053	16913.451833	516.488281	1027.426025
19420.805053	16913.451833	515.238281	1070.250122
19420.805053	16913.451833	513.988281	879.142090
19420.805053	16913.451833	512.737305	1116.491699
19420.805053	16913.451833	511.486328	1316.387329
19420.805053	16913.451833	510.235352	1072.244629
19420.805053	16913.451833	508.984375	1116.858154
19420.805053	16913.451833	507.732422	1116.261108
19420.805053	16913.451833	506.480469	1152.916504
19420.805053	16913.451833	505.228516	1046.243286
19420.805053	16913.451833	503.976563	1114.193481
19420.805053	16913.451833	502.723633	1148.709595
19420.805053	16913.451833	501.470703	1455.771851
19420.805053	16913.451833	500.217773	1084.163574
19420.805053	16913.451833	498.963867	1502.711792
19420.805053	16913.451833	497.709961	1501.550171
19420.805053	16913.451833	496.456055	1480.706055
19420.805053	16913.451833	495.202148	1704.674927
19420.805053	16913.451833	493.947266	1442.675049
19420.805053	16913.451833	492.692383	1550.810669
19420.805053	16913.451833	491.437500	1727.311279
19420.805053	16913.451833	490.181641	2013.239990
19420.805053	16913.451833	488.926758	1870.310059
19420.805053	16913.451833	487.670898	1813.400635
19420.805053	16913.451833	486.414063	1801.368896
19420.805053	16913.451833	485.158203	1988.681885
19420.805053	16913.451833	483.901367	2150.334717
19420.805053	16913.451833	482.644531	1850.374023
19420.805053	16913.451833	481.386719	2169.962158
19420.805053	16913.451833	480.128906	2174.606201
19420.805053	16913.451833	478.871094	2304.092529
19420.805053	16913.451833	477.613281	2405.971924
19420.805053	16913.451833	476.355469	2263.481201
19420.805053	16913.451833	475.096680	2435.173096
19420.805053	16913.451833	473.837891	2608.507568
19420.805053	16913.451833	472.578125	2422.423828
19420.805053	16913.451833	471.319336	2413.721680
19420.805053	16913.451833	470.059570	2439.870361
19420.805053	16913.451833	468.799805	2918.210449
19420.805053	16913.451833	467.539063	2844.221680
19420.805053	16913.451833	466.278320	2890.830566
19420.805053	16913.451833	465.017578	2755.839600
19420.805053	16913.451833	463.756836	2959.648682
19420.805053	16913.451833	462.495117	2656.483643
19420.805053	16913.451833	461.233398	2653.059814
19420.805053	16913.451833	459.971680	2565.533936
19420.805053	16913.451833	458.709961	3246.726563
19420.805053	16913.451833	457.447266	2903.332031
19420.805053	16913.451833	456.184570	3063.731445
19420.805053	16913.451833	454.921875	3104.947510
19420.805053	16913.451833	453.658203	3241.023926
19420.805053	16913.451833	452.394531	3170.429932
19420.805053	16913.451833	451.130859	2976.896240
19420.805053	16913.451833	449.867188	3103.729492
19420.805053	16913.451833	448.602539	3173.634766
19420.805053	16913.451833	447.337891	3277.971680
19420.805053	16913.451833	446.073242	3206.876221
19420.805053	16913.451833	444.807617	3012.882568
19420.805053	16913.451833	443.542969	3356.329102
19420.805053	16913.451833	442.276367	3524.285400
19420.805053	16913.451833	441.010742	3221.823730
19420.805053	16913.451833	439.744141	3345.809814
19420.805053	16913.451833	438.478516	3346.867188
19420.805053	16913.451833	437.210938	3258.009033
19420.805053	16913.451833	435.944336	3416.759521
19420.805053	16913.451833	434.676758	3388.580566
19420.805053	16913.451833	433.409180	3212.354004
19420.805053	16913.451833	432.141602	3442.471191
19420.805053	16913.451833	430.873047	3315.162109
19420.805053	16913.451833	429.604492	3549.393311
19420.805053	16913.451833	428.335938	3323.663818
19420.805053	16913.451833	427.067383	3434.140625
19420.805053	16913.451833	425.797852	3464.315674
19420.805053	16913.451833	424.528320	3201.309570
19420.805053	16913.451833	423.258789	3295.524902
19420.805053	16913.451833	421.988281	3282.330322
19420.805053	16913.451833	420.717773	3540.931396
19420.805053	16913.451833	419.447266	3430.979004
19420.805053	16913.451833	418.175781	3482.459473
19420.805053	16913.451833	416.905273	3424.640625
19420.805053	16913.451833	415.633789	3441.137695
19420.805053	16913.451833	414.362305	3425.613281
19420.805053	16913.451833	413.089844	3648.503174
19420.805053	16913.451833	411.817383	3406.593506
19420.805053	16913.451833	410.544922	3312.295166
19420.805053	16913.451833	409.272461	3143.461914
19420.805053	16913.451833	407.999023	3251.381348
19420.805053	16913.451833	406.725586	3307.805908
19420.805053	16913.451833	405.452148	3258.712891
19420.805053	16913.451833	404.177734	3092.539307
19420.805053	16913.451833	402.903320	3304.982422
19420.805053	16913.451833	401.628906	3407.957031
19420.805053	16913.451833	400.354492	3366.797607
19420.805053	16913.451833	399.079102	3227.788330
19420.805053	16913.451833	397.803711	3247.257080
19420.805053	16913.451833	396.528320	2941.534668
19420.805053	16913.451833	395.251953	3119.679199
19420.805053	16913.451833	393.976563	3028.509766
19420.805053	16913.451833	392.700195	3174.408203
19420.805053	16913.451833	391.422852	2881.590088
19420.805053	16913.451833	390.145508	2850.797852
19420.805053	16913.451833	388.869141	2920.256592
19420.805053	16913.451833	387.590820	2803.127686
19420.805053	16913.451833	386.313477	2790.010986
19420.805053	16913.451833	385.035156	2778.802002
19420.805053	16913.451833	383.756836	2763.737305
19420.805053	16913.451833	382.478516	2683.278076
19420.805053	16913.451833	381.199219	2804.446289
19420.805053	16913.451833	379.919922	2721.788330
19420.805053	16913.451833	378.640625	2721.554932
19420.805053	16913.451833	377.360352	2694.143311
19420.805053	16913.451833	376.080078	2459.123047
19420.805053	16913.451833	374.799805	2532.880127
19420.805053	16913.451833	373.519531	2416.247314
19420.805053	16913.451833	372.238281	2596.537354
19420.805053	16913.451833	370.957031	2423.337158
19420.805053	16913.451833	369.675781	2433.772461
19420.805053	16913.451833	368.394531	2236.557373
19420.805053	16913.451833	367.112305	2157.562744
19420.805053	16913.451833	365.830078	2156.481445
19420.805053	16913.451833	364.546875	2194.815186
19420.805053	16913.451833	363.264648	2014.030273
19420.805053	16913.451833	361.981445	1979.857544
19420.805053	16913.451833	360.698242	2195.614014
19420.805053	16913.451833	359.414063	1895.273682
19420.805053	16913.451833	358.129883	1708.865234
19420.805053	16913.451833	356.845703	1940.500122
19420.805053	16913.451833	355.561523	1713.662354
19420.805053	16913.451833	354.276367	1808.860596
19420.805053	16913.451833	352.991211	1744.027100
19420.805053	16913.451833	351.706055	1500.090332
19420.805053	16913.451833	350.420898	1575.974365
19420.805053	16913.451833	349.134766	1403.746704
19420.805053	16913.451833	347.848633	1409.656250
19420.805053	16913.451833	346.561523	1641.166016
19420.805053	16913.451833	345.275391	1223.623535
19420.805053	16913.451833	343.988281	1096.544678
19420.805053	16913.451833	342.700195	1009.597412
19420.805053	16913.451833	341.413086	669.013977
19420.805053	16913.451833	340.125000	820.703003
19420.805053	16913.451833	338.836914	960.768982
19420.805053	16913.451833	337.548828	885.077637
19420.805053	16913.451833	336.259766	877.676819
19420.805053	16913.451833	334.970703	532.512695
19420.805053	16913.451833	333.681641	638.803589
19420.805053	16913.451833	332.391602	435.719391
19420.805053	16913.451833	331.101563	727.489929
19420.805053	16913.451833	329.811523	454.681915
19420.805053	16913.451833	328.521484	78.433388
19420.805053	16913.451833	327.230469	445.806885
19420.805053	16913.451833	325.939453	124.962914
19420.805053	16913.451833	324.648438	39.258957
19420.805053	16913.451833	323.356445	315.769012
19420.805053	16913.451833	322.064453	-57.663563
19420.805053	16913.451833	320.772461	26.161169
19420.805053	16913.451833	319.480469	93.404938
19420.805053	16913.451833	318.187500	65.872124
19420.805053	16913.451833	316.894531	8.324605
19420.805053	16913.451833	315.601563	61.301559
19420.805053	16913.451833	314.307617	-132.703110
19420.805053	16913.451833	313.013672	-343.622437
19420.805053	16913.451833	311.719727	-201.248856
19420.805053	16913.451833	310.425781	-81.811523
19420.805053	16913.451833	309.130859	-76.715286
19420.805053	16913.451833	307.835938	-11.193833
19420.805053	16913.451833	306.541016	201.887238
19420.805053	16913.451833	305.245117	13.916327
19420.805053	16913.451833	303.949219	83.331299
19420.805053	16913.451833	302.653320	150.104599
19420.805053	16913.451833	301.356445	229.059692
19420.805053	16913.451833	300.060547	525.230774
19420.805053	16913.451833	298.763672	149.244919
