#X		#Y		#Wave		#Intensity
19421.769096	16906.596500	2000.043945	148.823059
19421.769096	16906.596500	1999.080078	-219.635773
19421.769096	16906.596500	1998.116211	-99.538269
19421.769096	16906.596500	1997.151367	-135.947464
19421.769096	16906.596500	1996.186523	-105.785385
19421.769096	16906.596500	1995.222656	-18.992403
19421.769096	16906.596500	1994.256836	245.796158
19421.769096	16906.596500	1993.291992	334.351166
19421.769096	16906.596500	1992.327148	75.953629
19421.769096	16906.596500	1991.361328	-66.282921
19421.769096	16906.596500	1990.395508	90.720360
19421.769096	16906.596500	1989.429688	89.029419
19421.769096	16906.596500	1988.463867	275.102600
19421.769096	16906.596500	1987.497070	260.502838
19421.769096	16906.596500	1986.531250	-239.072525
19421.769096	16906.596500	1985.564453	317.129608
19421.769096	16906.596500	1984.597656	225.184753
19421.769096	16906.596500	1983.630859	19.353060
19421.769096	16906.596500	1982.664063	65.459023
19421.769096	16906.596500	1981.696289	264.537811
19421.769096	16906.596500	1980.728516	55.739376
19421.769096	16906.596500	1979.761719	177.788559
19421.769096	16906.596500	1978.792969	487.298828
19421.769096	16906.596500	1977.825195	253.341309
19421.769096	16906.596500	1976.857422	229.125717
19421.769096	16906.596500	1975.888672	412.079742
19421.769096	16906.596500	1974.919922	93.888733
19421.769096	16906.596500	1973.951172	-4.755168
19421.769096	16906.596500	1972.982422	320.765869
19421.769096	16906.596500	1972.013672	251.434708
19421.769096	16906.596500	1971.043945	34.058464
19421.769096	16906.596500	1970.075195	-104.472450
19421.769096	16906.596500	1969.105469	131.590179
19421.769096	16906.596500	1968.135742	167.839874
19421.769096	16906.596500	1967.165039	-17.782499
19421.769096	16906.596500	1966.195313	373.014221
19421.769096	16906.596500	1965.224609	298.064728
19421.769096	16906.596500	1964.253906	26.046440
19421.769096	16906.596500	1963.283203	273.548431
19421.769096	16906.596500	1962.312500	274.712402
19421.769096	16906.596500	1961.341797	290.570496
19421.769096	16906.596500	1960.370117	-23.385216
19421.769096	16906.596500	1959.399414	169.523483
19421.769096	16906.596500	1958.427734	197.494492
19421.769096	16906.596500	1957.455078	-99.235626
19421.769096	16906.596500	1956.483398	233.567993
19421.769096	16906.596500	1955.511719	374.439667
19421.769096	16906.596500	1954.539063	104.731781
19421.769096	16906.596500	1953.566406	-66.617073
19421.769096	16906.596500	1952.593750	221.533585
19421.769096	16906.596500	1951.621094	369.517517
19421.769096	16906.596500	1950.647461	198.116150
19421.769096	16906.596500	1949.674805	147.077850
19421.769096	16906.596500	1948.701172	-105.292122
19421.769096	16906.596500	1947.727539	3.264730
19421.769096	16906.596500	1946.753906	141.216385
19421.769096	16906.596500	1945.780273	72.976013
19421.769096	16906.596500	1944.805664	230.465012
19421.769096	16906.596500	1943.831055	235.804825
19421.769096	16906.596500	1942.856445	147.939621
19421.769096	16906.596500	1941.881836	-62.497101
19421.769096	16906.596500	1940.907227	148.817505
19421.769096	16906.596500	1939.932617	215.436691
19421.769096	16906.596500	1938.957031	22.265631
19421.769096	16906.596500	1937.981445	-1.760265
19421.769096	16906.596500	1937.005859	177.560410
19421.769096	16906.596500	1936.030273	50.661415
19421.769096	16906.596500	1935.054688	-303.922028
19421.769096	16906.596500	1934.078125	-68.292946
19421.769096	16906.596500	1933.101563	189.298096
19421.769096	16906.596500	1932.125000	101.714203
19421.769096	16906.596500	1931.148438	-39.650364
19421.769096	16906.596500	1930.171875	-122.223663
19421.769096	16906.596500	1929.194336	267.359772
19421.769096	16906.596500	1928.217773	133.447815
19421.769096	16906.596500	1927.240234	-19.947075
19421.769096	16906.596500	1926.262695	-29.015612
19421.769096	16906.596500	1925.284180	140.382874
19421.769096	16906.596500	1924.306641	114.238350
19421.769096	16906.596500	1923.328125	-126.882103
19421.769096	16906.596500	1922.350586	-218.863785
19421.769096	16906.596500	1921.372070	216.799850
19421.769096	16906.596500	1920.392578	-72.942902
19421.769096	16906.596500	1919.414063	-62.231663
19421.769096	16906.596500	1918.434570	258.533905
19421.769096	16906.596500	1917.456055	154.538101
19421.769096	16906.596500	1916.476563	28.660603
19421.769096	16906.596500	1915.497070	-45.897800
19421.769096	16906.596500	1914.516602	79.636070
19421.769096	16906.596500	1913.537109	-11.899674
19421.769096	16906.596500	1912.556641	77.083664
19421.769096	16906.596500	1911.576172	-170.361923
19421.769096	16906.596500	1910.595703	-159.302505
19421.769096	16906.596500	1909.615234	-287.116699
19421.769096	16906.596500	1908.633789	-197.984528
19421.769096	16906.596500	1907.653320	0.775083
19421.769096	16906.596500	1906.671875	226.295914
19421.769096	16906.596500	1905.690430	198.516144
19421.769096	16906.596500	1904.708984	-153.032944
19421.769096	16906.596500	1903.727539	121.201401
19421.769096	16906.596500	1902.745117	108.185593
19421.769096	16906.596500	1901.762695	270.419952
19421.769096	16906.596500	1900.780273	-39.351498
19421.769096	16906.596500	1899.797852	234.824188
19421.769096	16906.596500	1898.815430	68.745628
19421.769096	16906.596500	1897.832031	60.824558
19421.769096	16906.596500	1896.849609	-202.323792
19421.769096	16906.596500	1895.866211	161.776611
19421.769096	16906.596500	1894.882813	-50.173294
19421.769096	16906.596500	1893.898438	17.417902
19421.769096	16906.596500	1892.915039	-114.180710
19421.769096	16906.596500	1891.930664	125.921120
19421.769096	16906.596500	1890.947266	-143.990173
19421.769096	16906.596500	1889.962891	229.637863
19421.769096	16906.596500	1888.977539	-224.595612
19421.769096	16906.596500	1887.993164	115.003716
19421.769096	16906.596500	1887.007813	141.490387
19421.769096	16906.596500	1886.023438	-28.515705
19421.769096	16906.596500	1885.038086	371.606476
19421.769096	16906.596500	1884.051758	119.241074
19421.769096	16906.596500	1883.066406	58.554592
19421.769096	16906.596500	1882.081055	53.679440
19421.769096	16906.596500	1881.094727	339.703217
19421.769096	16906.596500	1880.108398	-130.441742
19421.769096	16906.596500	1879.122070	-93.992569
19421.769096	16906.596500	1878.135742	194.411209
19421.769096	16906.596500	1877.148438	39.509560
19421.769096	16906.596500	1876.162109	230.972290
19421.769096	16906.596500	1875.174805	-127.196404
19421.769096	16906.596500	1874.187500	47.337906
19421.769096	16906.596500	1873.199219	-329.968018
19421.769096	16906.596500	1872.211914	142.215546
19421.769096	16906.596500	1871.223633	-109.116867
19421.769096	16906.596500	1870.236328	84.727608
19421.769096	16906.596500	1869.248047	51.196720
19421.769096	16906.596500	1868.258789	-105.610893
19421.769096	16906.596500	1867.270508	-388.055298
19421.769096	16906.596500	1866.282227	1.556615
19421.769096	16906.596500	1865.292969	33.390610
19421.769096	16906.596500	1864.303711	-212.623566
19421.769096	16906.596500	1863.314453	181.618469
19421.769096	16906.596500	1862.324219	-189.889404
19421.769096	16906.596500	1861.334961	187.322632
19421.769096	16906.596500	1860.344727	378.509125
19421.769096	16906.596500	1859.354492	125.484436
19421.769096	16906.596500	1858.364258	-42.967415
19421.769096	16906.596500	1857.374023	-88.287033
19421.769096	16906.596500	1856.383789	139.026367
19421.769096	16906.596500	1855.392578	115.413956
19421.769096	16906.596500	1854.401367	-98.700592
19421.769096	16906.596500	1853.410156	32.060459
19421.769096	16906.596500	1852.418945	119.381454
19421.769096	16906.596500	1851.426758	-164.499573
19421.769096	16906.596500	1850.435547	-57.896252
19421.769096	16906.596500	1849.443359	-91.069618
19421.769096	16906.596500	1848.451172	-20.652683
19421.769096	16906.596500	1847.458984	20.833817
19421.769096	16906.596500	1846.466797	283.830078
19421.769096	16906.596500	1845.473633	-79.226700
19421.769096	16906.596500	1844.480469	-102.758575
19421.769096	16906.596500	1843.487305	30.137531
19421.769096	16906.596500	1842.494141	-17.486862
19421.769096	16906.596500	1841.500977	334.240082
19421.769096	16906.596500	1840.506836	50.843388
19421.769096	16906.596500	1839.513672	29.656061
19421.769096	16906.596500	1838.519531	99.830933
19421.769096	16906.596500	1837.525391	203.617889
19421.769096	16906.596500	1836.530273	-2.690508
19421.769096	16906.596500	1835.536133	19.338463
19421.769096	16906.596500	1834.541016	-23.523338
19421.769096	16906.596500	1833.545898	490.890076
19421.769096	16906.596500	1832.550781	198.141922
19421.769096	16906.596500	1831.555664	200.824799
19421.769096	16906.596500	1830.560547	371.531250
19421.769096	16906.596500	1829.564453	278.124023
19421.769096	16906.596500	1828.568359	254.318069
19421.769096	16906.596500	1827.572266	170.508682
19421.769096	16906.596500	1826.576172	65.112656
19421.769096	16906.596500	1825.580078	67.654243
19421.769096	16906.596500	1824.583008	-90.498077
19421.769096	16906.596500	1823.585938	39.081726
19421.769096	16906.596500	1822.588867	216.521423
19421.769096	16906.596500	1821.591797	405.839417
19421.769096	16906.596500	1820.594727	226.038513
19421.769096	16906.596500	1819.596680	161.266327
19421.769096	16906.596500	1818.599609	340.794556
19421.769096	16906.596500	1817.601563	237.628525
19421.769096	16906.596500	1816.603516	201.503174
19421.769096	16906.596500	1815.604492	50.444920
19421.769096	16906.596500	1814.606445	150.710175
19421.769096	16906.596500	1813.607422	337.048157
19421.769096	16906.596500	1812.608398	109.354111
19421.769096	16906.596500	1811.609375	73.068451
19421.769096	16906.596500	1810.610352	120.457710
19421.769096	16906.596500	1809.610352	134.307861
19421.769096	16906.596500	1808.611328	-490.237335
19421.769096	16906.596500	1807.611328	-12.655776
19421.769096	16906.596500	1806.611328	208.975555
19421.769096	16906.596500	1805.610352	413.751038
19421.769096	16906.596500	1804.610352	288.713318
19421.769096	16906.596500	1803.609375	137.397827
19421.769096	16906.596500	1802.608398	-80.781944
19421.769096	16906.596500	1801.607422	312.292206
19421.769096	16906.596500	1800.606445	461.670166
19421.769096	16906.596500	1799.605469	207.579575
19421.769096	16906.596500	1798.603516	156.360626
19421.769096	16906.596500	1797.601563	171.903687
19421.769096	16906.596500	1796.599609	464.078979
19421.769096	16906.596500	1795.597656	155.086884
19421.769096	16906.596500	1794.595703	158.512497
19421.769096	16906.596500	1793.592773	-5.003432
19421.769096	16906.596500	1792.589844	167.556778
19421.769096	16906.596500	1791.587891	258.957184
19421.769096	16906.596500	1790.583984	214.451401
19421.769096	16906.596500	1789.581055	343.794037
19421.769096	16906.596500	1788.577148	139.577621
19421.769096	16906.596500	1787.574219	102.057945
19421.769096	16906.596500	1786.570313	226.383896
19421.769096	16906.596500	1785.566406	-54.074738
19421.769096	16906.596500	1784.561523	203.369232
19421.769096	16906.596500	1783.557617	265.524933
19421.769096	16906.596500	1782.552734	70.652138
19421.769096	16906.596500	1781.547852	61.308437
19421.769096	16906.596500	1780.542969	125.616287
19421.769096	16906.596500	1779.538086	4.366116
19421.769096	16906.596500	1778.532227	108.926392
19421.769096	16906.596500	1777.527344	265.659943
19421.769096	16906.596500	1776.521484	94.323822
19421.769096	16906.596500	1775.515625	58.403877
19421.769096	16906.596500	1774.508789	219.578918
19421.769096	16906.596500	1773.502930	200.118683
19421.769096	16906.596500	1772.496094	147.342163
19421.769096	16906.596500	1771.489258	111.128189
19421.769096	16906.596500	1770.482422	338.318115
19421.769096	16906.596500	1769.475586	43.245499
19421.769096	16906.596500	1768.467773	-95.194427
19421.769096	16906.596500	1767.460938	29.657763
19421.769096	16906.596500	1766.453125	225.536255
19421.769096	16906.596500	1765.445313	-81.470581
19421.769096	16906.596500	1764.437500	313.347870
19421.769096	16906.596500	1763.428711	188.804474
19421.769096	16906.596500	1762.420898	230.123993
19421.769096	16906.596500	1761.412109	363.758667
19421.769096	16906.596500	1760.403320	395.387177
19421.769096	16906.596500	1759.393555	-136.822357
19421.769096	16906.596500	1758.384766	193.115280
19421.769096	16906.596500	1757.375000	-2.799411
19421.769096	16906.596500	1756.366211	180.046082
19421.769096	16906.596500	1755.356445	-37.262093
19421.769096	16906.596500	1754.345703	292.066681
19421.769096	16906.596500	1753.335938	86.477455
19421.769096	16906.596500	1752.325195	-7.938166
19421.769096	16906.596500	1751.315430	228.702759
19421.769096	16906.596500	1750.304688	122.300095
19421.769096	16906.596500	1749.292969	-76.351563
19421.769096	16906.596500	1748.282227	-90.644104
19421.769096	16906.596500	1747.270508	162.030869
19421.769096	16906.596500	1746.259766	-166.725983
19421.769096	16906.596500	1745.248047	140.027451
19421.769096	16906.596500	1744.235352	-28.166117
19421.769096	16906.596500	1743.223633	-31.080488
19421.769096	16906.596500	1742.211914	-60.050354
19421.769096	16906.596500	1741.199219	99.747482
19421.769096	16906.596500	1740.186523	-177.221146
19421.769096	16906.596500	1739.173828	225.407104
19421.769096	16906.596500	1738.160156	125.285332
19421.769096	16906.596500	1737.147461	117.107605
19421.769096	16906.596500	1736.133789	-117.550522
19421.769096	16906.596500	1735.120117	218.392487
19421.769096	16906.596500	1734.106445	127.430954
19421.769096	16906.596500	1733.091797	24.633648
19421.769096	16906.596500	1732.078125	34.902561
19421.769096	16906.596500	1731.063477	144.033218
19421.769096	16906.596500	1730.048828	-109.726318
19421.769096	16906.596500	1729.034180	34.546066
19421.769096	16906.596500	1728.019531	-242.811478
19421.769096	16906.596500	1727.003906	-42.240314
19421.769096	16906.596500	1725.988281	-239.620911
19421.769096	16906.596500	1724.972656	-22.822117
19421.769096	16906.596500	1723.957031	-88.538895
19421.769096	16906.596500	1722.941406	-10.815831
19421.769096	16906.596500	1721.924805	149.112427
19421.769096	16906.596500	1720.909180	-3.858026
19421.769096	16906.596500	1719.892578	-225.036743
19421.769096	16906.596500	1718.875977	204.913269
19421.769096	16906.596500	1717.858398	0.061794
19421.769096	16906.596500	1716.841797	-275.282288
19421.769096	16906.596500	1715.824219	-214.657593
19421.769096	16906.596500	1714.806641	-215.205276
19421.769096	16906.596500	1713.789063	-194.700272
19421.769096	16906.596500	1712.770508	-460.735168
19421.769096	16906.596500	1711.752930	-146.914337
19421.769096	16906.596500	1710.734375	42.310810
19421.769096	16906.596500	1709.715820	-73.673080
19421.769096	16906.596500	1708.697266	40.230240
19421.769096	16906.596500	1707.678711	-96.976707
19421.769096	16906.596500	1706.659180	-168.547058
19421.769096	16906.596500	1705.640625	-43.199421
19421.769096	16906.596500	1704.621094	-293.075439
19421.769096	16906.596500	1703.600586	50.071369
19421.769096	16906.596500	1702.581055	-45.209545
19421.769096	16906.596500	1701.561523	-138.187012
19421.769096	16906.596500	1700.541016	159.998764
19421.769096	16906.596500	1699.520508	-399.210022
19421.769096	16906.596500	1698.500000	46.288860
19421.769096	16906.596500	1697.478516	-39.912498
19421.769096	16906.596500	1696.458008	124.314339
19421.769096	16906.596500	1695.436523	-93.067909
19421.769096	16906.596500	1694.415039	185.611832
19421.769096	16906.596500	1693.393555	293.338715
19421.769096	16906.596500	1692.372070	218.515793
19421.769096	16906.596500	1691.349609	82.850121
19421.769096	16906.596500	1690.327148	82.774796
19421.769096	16906.596500	1689.304688	103.671471
19421.769096	16906.596500	1688.282227	77.751892
19421.769096	16906.596500	1687.259766	248.059860
19421.769096	16906.596500	1686.236328	380.852936
19421.769096	16906.596500	1685.213867	97.762962
19421.769096	16906.596500	1684.190430	272.444824
19421.769096	16906.596500	1683.166016	129.444168
19421.769096	16906.596500	1682.142578	147.520172
19421.769096	16906.596500	1681.119141	95.510414
19421.769096	16906.596500	1680.094727	335.148743
19421.769096	16906.596500	1679.070313	261.999878
19421.769096	16906.596500	1678.045898	247.138977
19421.769096	16906.596500	1677.020508	159.922806
19421.769096	16906.596500	1675.996094	163.628845
19421.769096	16906.596500	1674.970703	181.260696
19421.769096	16906.596500	1673.945313	296.727142
19421.769096	16906.596500	1672.919922	381.800659
19421.769096	16906.596500	1671.893555	660.171753
19421.769096	16906.596500	1670.868164	493.452515
19421.769096	16906.596500	1669.841797	231.249573
19421.769096	16906.596500	1668.815430	111.143883
19421.769096	16906.596500	1667.789063	684.829834
19421.769096	16906.596500	1666.761719	78.089577
19421.769096	16906.596500	1665.735352	353.576630
19421.769096	16906.596500	1664.708008	279.881683
19421.769096	16906.596500	1663.680664	636.550781
19421.769096	16906.596500	1662.653320	251.071304
19421.769096	16906.596500	1661.625000	419.153015
19421.769096	16906.596500	1660.597656	749.887329
19421.769096	16906.596500	1659.569336	480.706390
19421.769096	16906.596500	1658.541016	583.451416
19421.769096	16906.596500	1657.512695	769.769958
19421.769096	16906.596500	1656.483398	516.883362
19421.769096	16906.596500	1655.455078	510.279938
19421.769096	16906.596500	1654.425781	296.950104
19421.769096	16906.596500	1653.396484	424.985291
19421.769096	16906.596500	1652.366211	357.932892
19421.769096	16906.596500	1651.336914	571.718994
19421.769096	16906.596500	1650.306641	664.716553
19421.769096	16906.596500	1649.276367	525.642212
19421.769096	16906.596500	1648.246094	968.821289
19421.769096	16906.596500	1647.215820	838.963928
19421.769096	16906.596500	1646.185547	704.491150
19421.769096	16906.596500	1645.154297	590.905457
19421.769096	16906.596500	1644.123047	876.007446
19421.769096	16906.596500	1643.091797	845.811951
19421.769096	16906.596500	1642.060547	722.927612
19421.769096	16906.596500	1641.028320	875.727844
19421.769096	16906.596500	1639.997070	789.904846
19421.769096	16906.596500	1638.964844	676.301941
19421.769096	16906.596500	1637.931641	1025.748413
19421.769096	16906.596500	1636.899414	983.868225
19421.769096	16906.596500	1635.867188	803.134399
19421.769096	16906.596500	1634.833984	1189.330444
19421.769096	16906.596500	1633.800781	1001.655701
19421.769096	16906.596500	1632.767578	707.650452
19421.769096	16906.596500	1631.734375	762.927185
19421.769096	16906.596500	1630.700195	1139.537109
19421.769096	16906.596500	1629.666016	901.120850
19421.769096	16906.596500	1628.631836	1134.255859
19421.769096	16906.596500	1627.597656	1113.123047
19421.769096	16906.596500	1626.563477	1078.133789
19421.769096	16906.596500	1625.528320	1006.194763
19421.769096	16906.596500	1624.493164	1024.343018
19421.769096	16906.596500	1623.458008	996.308533
19421.769096	16906.596500	1622.422852	942.895081
19421.769096	16906.596500	1621.387695	1023.363708
19421.769096	16906.596500	1620.351563	1147.642578
19421.769096	16906.596500	1619.315430	1036.557983
19421.769096	16906.596500	1618.279297	1156.183350
19421.769096	16906.596500	1617.243164	1266.547363
19421.769096	16906.596500	1616.207031	1268.506714
19421.769096	16906.596500	1615.169922	1037.635986
19421.769096	16906.596500	1614.132813	1085.749756
19421.769096	16906.596500	1613.095703	1094.683105
19421.769096	16906.596500	1612.058594	1334.019531
19421.769096	16906.596500	1611.020508	1395.904053
19421.769096	16906.596500	1609.983398	1123.846924
19421.769096	16906.596500	1608.945313	1063.744751
19421.769096	16906.596500	1607.907227	764.263306
19421.769096	16906.596500	1606.868164	1229.069336
19421.769096	16906.596500	1605.830078	1104.606689
19421.769096	16906.596500	1604.791016	1320.724854
19421.769096	16906.596500	1603.751953	1081.316528
19421.769096	16906.596500	1602.712891	1106.511841
19421.769096	16906.596500	1601.673828	1182.311768
19421.769096	16906.596500	1600.633789	1214.422363
19421.769096	16906.596500	1599.594727	1253.451050
19421.769096	16906.596500	1598.554688	1051.189453
19421.769096	16906.596500	1597.513672	1182.187500
19421.769096	16906.596500	1596.473633	1094.941284
19421.769096	16906.596500	1595.433594	1338.492676
19421.769096	16906.596500	1594.392578	989.534119
19421.769096	16906.596500	1593.351563	1203.231079
19421.769096	16906.596500	1592.310547	1125.364014
19421.769096	16906.596500	1591.268555	1309.186157
19421.769096	16906.596500	1590.227539	1364.489746
19421.769096	16906.596500	1589.185547	1263.809082
19421.769096	16906.596500	1588.143555	1066.879883
19421.769096	16906.596500	1587.100586	1280.539185
19421.769096	16906.596500	1586.058594	1546.899536
19421.769096	16906.596500	1585.015625	1402.880249
19421.769096	16906.596500	1583.972656	1320.841675
19421.769096	16906.596500	1582.929688	995.999939
19421.769096	16906.596500	1581.886719	1085.990845
19421.769096	16906.596500	1580.843750	1260.743408
19421.769096	16906.596500	1579.799805	1183.571655
19421.769096	16906.596500	1578.755859	1239.277100
19421.769096	16906.596500	1577.711914	1359.110840
19421.769096	16906.596500	1576.666992	1545.318970
19421.769096	16906.596500	1575.623047	1644.563477
19421.769096	16906.596500	1574.578125	1206.194214
19421.769096	16906.596500	1573.533203	1188.922852
19421.769096	16906.596500	1572.488281	1135.129272
19421.769096	16906.596500	1571.443359	1326.064697
19421.769096	16906.596500	1570.397461	1427.828735
19421.769096	16906.596500	1569.351563	1134.220581
19421.769096	16906.596500	1568.305664	936.764526
19421.769096	16906.596500	1567.259766	1242.069214
19421.769096	16906.596500	1566.213867	1081.348755
19421.769096	16906.596500	1565.166992	1208.505615
19421.769096	16906.596500	1564.120117	899.572998
19421.769096	16906.596500	1563.073242	899.014832
19421.769096	16906.596500	1562.026367	1204.369385
19421.769096	16906.596500	1560.978516	909.518005
19421.769096	16906.596500	1559.930664	731.214233
19421.769096	16906.596500	1558.883789	858.719177
19421.769096	16906.596500	1557.834961	792.388489
19421.769096	16906.596500	1556.787109	771.768921
19421.769096	16906.596500	1555.739258	737.556458
19421.769096	16906.596500	1554.690430	869.818604
19421.769096	16906.596500	1553.641602	512.163818
19421.769096	16906.596500	1552.592773	735.712219
19421.769096	16906.596500	1551.542969	298.654510
19421.769096	16906.596500	1550.494141	205.754837
19421.769096	16906.596500	1549.444336	427.198395
19421.769096	16906.596500	1548.394531	653.192810
19421.769096	16906.596500	1547.344727	476.311371
19421.769096	16906.596500	1546.293945	502.116180
19421.769096	16906.596500	1545.244141	607.636169
19421.769096	16906.596500	1544.193359	510.744781
19421.769096	16906.596500	1543.142578	730.112122
19421.769096	16906.596500	1542.090820	476.515594
19421.769096	16906.596500	1541.040039	261.760620
19421.769096	16906.596500	1539.988281	490.410828
19421.769096	16906.596500	1538.936523	480.448456
19421.769096	16906.596500	1537.884766	329.716156
19421.769096	16906.596500	1536.833008	319.978424
19421.769096	16906.596500	1535.780273	176.339218
19421.769096	16906.596500	1534.727539	609.620239
19421.769096	16906.596500	1533.674805	354.931702
19421.769096	16906.596500	1532.622070	522.631775
19421.769096	16906.596500	1531.569336	724.408752
19421.769096	16906.596500	1530.515625	225.097565
19421.769096	16906.596500	1529.461914	218.349380
19421.769096	16906.596500	1528.408203	30.262657
19421.769096	16906.596500	1527.354492	259.592041
19421.769096	16906.596500	1526.299805	393.713745
19421.769096	16906.596500	1525.246094	303.483124
19421.769096	16906.596500	1524.191406	75.149956
19421.769096	16906.596500	1523.136719	202.747726
19421.769096	16906.596500	1522.081055	232.988907
19421.769096	16906.596500	1521.026367	537.382324
19421.769096	16906.596500	1519.970703	246.207825
19421.769096	16906.596500	1518.915039	-28.894173
19421.769096	16906.596500	1517.859375	497.526215
19421.769096	16906.596500	1516.802734	129.916336
19421.769096	16906.596500	1515.747070	-38.321587
19421.769096	16906.596500	1514.690430	-124.939880
19421.769096	16906.596500	1513.633789	112.021606
19421.769096	16906.596500	1512.577148	52.770489
19421.769096	16906.596500	1511.519531	61.483124
19421.769096	16906.596500	1510.461914	70.306801
19421.769096	16906.596500	1509.405273	47.603203
19421.769096	16906.596500	1508.346680	151.559052
19421.769096	16906.596500	1507.289063	68.086365
19421.769096	16906.596500	1506.231445	-24.271139
19421.769096	16906.596500	1505.172852	-93.891212
19421.769096	16906.596500	1504.114258	78.214500
19421.769096	16906.596500	1503.055664	-196.574585
19421.769096	16906.596500	1501.996094	124.674622
19421.769096	16906.596500	1500.937500	64.583801
19421.769096	16906.596500	1499.877930	-132.973434
19421.769096	16906.596500	1498.818359	-334.843323
19421.769096	16906.596500	1497.757813	-198.248596
19421.769096	16906.596500	1496.698242	37.615055
19421.769096	16906.596500	1495.637695	352.405304
19421.769096	16906.596500	1494.577148	51.929745
19421.769096	16906.596500	1493.516602	-86.067123
19421.769096	16906.596500	1492.456055	-59.428673
19421.769096	16906.596500	1491.394531	-228.628983
19421.769096	16906.596500	1490.333008	199.123398
19421.769096	16906.596500	1489.271484	27.936201
19421.769096	16906.596500	1488.209961	-152.059372
19421.769096	16906.596500	1487.148438	23.736601
19421.769096	16906.596500	1486.085938	-97.426781
19421.769096	16906.596500	1485.023438	211.278381
19421.769096	16906.596500	1483.960938	335.549622
19421.769096	16906.596500	1482.898438	7.893088
19421.769096	16906.596500	1481.834961	229.091492
19421.769096	16906.596500	1480.772461	-30.712738
19421.769096	16906.596500	1479.708984	-11.589048
19421.769096	16906.596500	1478.644531	-360.823975
19421.769096	16906.596500	1477.581055	143.798370
19421.769096	16906.596500	1476.517578	300.314789
19421.769096	16906.596500	1475.453125	191.870041
19421.769096	16906.596500	1474.388672	61.181282
19421.769096	16906.596500	1473.323242	-179.215927
19421.769096	16906.596500	1472.258789	101.035637
19421.769096	16906.596500	1471.193359	343.151520
19421.769096	16906.596500	1470.127930	269.213654
19421.769096	16906.596500	1469.062500	343.476044
19421.769096	16906.596500	1467.997070	106.069649
19421.769096	16906.596500	1466.930664	115.321663
19421.769096	16906.596500	1465.865234	167.427628
19421.769096	16906.596500	1464.798828	157.389648
19421.769096	16906.596500	1463.731445	242.850708
19421.769096	16906.596500	1462.665039	156.427429
19421.769096	16906.596500	1461.597656	176.474197
19421.769096	16906.596500	1460.530273	290.972107
19421.769096	16906.596500	1459.462891	267.967987
19421.769096	16906.596500	1458.395508	470.659149
19421.769096	16906.596500	1457.327148	326.563171
19421.769096	16906.596500	1456.259766	136.586258
19421.769096	16906.596500	1455.191406	395.214935
19421.769096	16906.596500	1454.123047	350.497925
19421.769096	16906.596500	1453.053711	265.113403
19421.769096	16906.596500	1451.985352	460.646210
19421.769096	16906.596500	1450.916016	270.365082
19421.769096	16906.596500	1449.846680	260.935364
19421.769096	16906.596500	1448.776367	252.768143
19421.769096	16906.596500	1447.707031	141.656174
19421.769096	16906.596500	1446.636719	273.191406
19421.769096	16906.596500	1445.566406	399.222229
19421.769096	16906.596500	1444.496094	187.764069
19421.769096	16906.596500	1443.425781	101.896843
19421.769096	16906.596500	1442.354492	208.692429
19421.769096	16906.596500	1441.283203	104.488930
19421.769096	16906.596500	1440.211914	214.088837
19421.769096	16906.596500	1439.140625	-15.789330
19421.769096	16906.596500	1438.069336	163.110046
19421.769096	16906.596500	1436.997070	285.628937
19421.769096	16906.596500	1435.924805	58.794197
19421.769096	16906.596500	1434.852539	285.931732
19421.769096	16906.596500	1433.780273	65.877205
19421.769096	16906.596500	1432.707031	-259.923492
19421.769096	16906.596500	1431.633789	-54.963558
19421.769096	16906.596500	1430.560547	180.274292
19421.769096	16906.596500	1429.487305	-75.331390
19421.769096	16906.596500	1428.413086	195.687225
19421.769096	16906.596500	1427.339844	-142.936554
19421.769096	16906.596500	1426.265625	-297.137726
19421.769096	16906.596500	1425.191406	-381.435608
19421.769096	16906.596500	1424.116211	-311.477234
19421.769096	16906.596500	1423.041992	-107.657181
19421.769096	16906.596500	1421.966797	-30.263081
19421.769096	16906.596500	1420.891602	-29.664408
19421.769096	16906.596500	1419.816406	-158.299103
19421.769096	16906.596500	1418.740234	326.752777
19421.769096	16906.596500	1417.665039	-220.144821
19421.769096	16906.596500	1416.588867	24.657104
19421.769096	16906.596500	1415.512695	52.483784
19421.769096	16906.596500	1414.435547	-55.929993
19421.769096	16906.596500	1413.359375	65.833473
19421.769096	16906.596500	1412.282227	189.670135
19421.769096	16906.596500	1411.205078	224.166443
19421.769096	16906.596500	1410.127930	-91.975021
19421.769096	16906.596500	1409.049805	34.713467
19421.769096	16906.596500	1407.972656	159.833984
19421.769096	16906.596500	1406.894531	-232.872711
19421.769096	16906.596500	1405.816406	17.890158
19421.769096	16906.596500	1404.737305	210.450089
19421.769096	16906.596500	1403.659180	43.037144
19421.769096	16906.596500	1402.580078	270.295258
19421.769096	16906.596500	1401.500977	143.495361
19421.769096	16906.596500	1400.421875	208.890701
19421.769096	16906.596500	1399.341797	-6.848943
19421.769096	16906.596500	1398.262695	245.587418
19421.769096	16906.596500	1397.182617	389.977570
19421.769096	16906.596500	1396.102539	-138.634781
19421.769096	16906.596500	1395.021484	97.942047
19421.769096	16906.596500	1393.941406	-142.534576
19421.769096	16906.596500	1392.860352	192.376007
19421.769096	16906.596500	1391.779297	-44.423527
19421.769096	16906.596500	1390.698242	-146.652618
19421.769096	16906.596500	1389.616211	-56.689503
19421.769096	16906.596500	1388.535156	-7.807154
19421.769096	16906.596500	1387.453125	-192.577621
19421.769096	16906.596500	1386.371094	59.610226
19421.769096	16906.596500	1385.288086	-24.443754
19421.769096	16906.596500	1384.206055	125.842125
19421.769096	16906.596500	1383.123047	69.660217
19421.769096	16906.596500	1382.040039	-33.068222
19421.769096	16906.596500	1380.957031	-18.617422
19421.769096	16906.596500	1379.873047	177.797287
19421.769096	16906.596500	1378.789063	-43.287914
19421.769096	16906.596500	1377.705078	275.083191
19421.769096	16906.596500	1376.621094	87.605057
19421.769096	16906.596500	1375.537109	56.261257
19421.769096	16906.596500	1374.452148	-73.717804
19421.769096	16906.596500	1373.367188	140.344162
19421.769096	16906.596500	1372.282227	196.469727
19421.769096	16906.596500	1371.197266	386.304504
19421.769096	16906.596500	1370.112305	228.166031
19421.769096	16906.596500	1369.026367	112.783119
19421.769096	16906.596500	1367.940430	254.540573
19421.769096	16906.596500	1366.854492	163.373047
19421.769096	16906.596500	1365.767578	258.247894
19421.769096	16906.596500	1364.681641	200.479752
19421.769096	16906.596500	1363.594727	340.801178
19421.769096	16906.596500	1362.507813	217.807419
19421.769096	16906.596500	1361.419922	-95.801407
19421.769096	16906.596500	1360.333008	111.290558
19421.769096	16906.596500	1359.245117	153.757919
19421.769096	16906.596500	1358.157227	218.519836
19421.769096	16906.596500	1357.069336	101.413208
19421.769096	16906.596500	1355.981445	310.173431
19421.769096	16906.596500	1354.892578	105.788147
19421.769096	16906.596500	1353.803711	120.164413
19421.769096	16906.596500	1352.714844	538.820801
19421.769096	16906.596500	1351.625000	192.674789
19421.769096	16906.596500	1350.536133	144.786957
19421.769096	16906.596500	1349.446289	264.659393
19421.769096	16906.596500	1348.356445	395.382324
19421.769096	16906.596500	1347.266602	215.411835
19421.769096	16906.596500	1346.175781	400.982147
19421.769096	16906.596500	1345.085938	361.760468
19421.769096	16906.596500	1343.995117	458.722260
19421.769096	16906.596500	1342.903320	465.862762
19421.769096	16906.596500	1341.812500	486.063629
19421.769096	16906.596500	1340.720703	326.335815
19421.769096	16906.596500	1339.629883	276.513824
19421.769096	16906.596500	1338.538086	356.944855
19421.769096	16906.596500	1337.445313	190.168976
19421.769096	16906.596500	1336.353516	197.985214
19421.769096	16906.596500	1335.260742	188.633621
19421.769096	16906.596500	1334.167969	125.945740
19421.769096	16906.596500	1333.075195	82.772072
19421.769096	16906.596500	1331.981445	195.314423
19421.769096	16906.596500	1330.888672	212.777390
19421.769096	16906.596500	1329.794922	134.348877
19421.769096	16906.596500	1328.701172	116.016357
19421.769096	16906.596500	1327.606445	97.796295
19421.769096	16906.596500	1326.512695	133.470963
19421.769096	16906.596500	1325.417969	213.658371
19421.769096	16906.596500	1324.323242	85.486389
19421.769096	16906.596500	1323.227539	156.944336
19421.769096	16906.596500	1322.132813	173.665604
19421.769096	16906.596500	1321.037109	-63.571232
19421.769096	16906.596500	1319.941406	24.054844
19421.769096	16906.596500	1318.845703	299.611084
19421.769096	16906.596500	1317.750000	244.498764
19421.769096	16906.596500	1316.653320	2.724995
19421.769096	16906.596500	1315.556641	20.647720
19421.769096	16906.596500	1314.459961	329.431854
19421.769096	16906.596500	1313.363281	343.742279
19421.769096	16906.596500	1312.265625	251.475021
19421.769096	16906.596500	1311.167969	288.491699
19421.769096	16906.596500	1310.070313	58.019722
19421.769096	16906.596500	1308.972656	-7.469359
19421.769096	16906.596500	1307.874023	92.133461
19421.769096	16906.596500	1306.776367	226.911560
19421.769096	16906.596500	1305.677734	87.754005
19421.769096	16906.596500	1304.579102	254.315201
19421.769096	16906.596500	1303.479492	11.674979
19421.769096	16906.596500	1302.380859	163.791443
19421.769096	16906.596500	1301.281250	82.538315
19421.769096	16906.596500	1300.181641	74.333519
19421.769096	16906.596500	1299.081055	-61.573078
19421.769096	16906.596500	1297.981445	-123.057587
19421.769096	16906.596500	1296.880859	82.296898
19421.769096	16906.596500	1295.780273	-41.904308
19421.769096	16906.596500	1294.679688	5.921666
19421.769096	16906.596500	1293.578125	-62.416592
19421.769096	16906.596500	1292.476563	39.170536
19421.769096	16906.596500	1291.375000	-63.505569
19421.769096	16906.596500	1290.273438	80.413361
19421.769096	16906.596500	1289.171875	67.340263
19421.769096	16906.596500	1288.069336	76.581894
19421.769096	16906.596500	1286.966797	-122.971466
19421.769096	16906.596500	1285.864258	-93.440056
19421.769096	16906.596500	1284.761719	-62.657024
19421.769096	16906.596500	1283.658203	-59.713993
19421.769096	16906.596500	1282.554688	-144.861374
19421.769096	16906.596500	1281.451172	-23.367823
19421.769096	16906.596500	1280.347656	227.208893
19421.769096	16906.596500	1279.244141	69.232925
19421.769096	16906.596500	1278.139648	-76.824799
19421.769096	16906.596500	1277.035156	98.068474
19421.769096	16906.596500	1275.930664	-52.863735
19421.769096	16906.596500	1274.825195	96.267494
19421.769096	16906.596500	1273.720703	-178.750595
19421.769096	16906.596500	1272.615234	20.095335
19421.769096	16906.596500	1271.508789	10.478035
19421.769096	16906.596500	1270.403320	17.540194
19421.769096	16906.596500	1269.297852	240.153183
19421.769096	16906.596500	1268.191406	12.596601
19421.769096	16906.596500	1267.084961	179.301605
19421.769096	16906.596500	1265.977539	-65.432701
19421.769096	16906.596500	1264.871094	-18.332741
19421.769096	16906.596500	1263.763672	-30.430067
19421.769096	16906.596500	1262.656250	57.321728
19421.769096	16906.596500	1261.548828	161.056351
19421.769096	16906.596500	1260.440430	-89.860657
19421.769096	16906.596500	1259.333008	80.949776
19421.769096	16906.596500	1258.224609	-164.207993
19421.769096	16906.596500	1257.115234	140.155212
19421.769096	16906.596500	1256.006836	-205.483810
19421.769096	16906.596500	1254.897461	170.021057
19421.769096	16906.596500	1253.788086	-7.465333
19421.769096	16906.596500	1252.678711	5.231768
19421.769096	16906.596500	1251.569336	-9.312479
19421.769096	16906.596500	1250.458984	124.454895
19421.769096	16906.596500	1249.349609	43.266705
19421.769096	16906.596500	1248.239258	-27.033779
19421.769096	16906.596500	1247.127930	36.460602
19421.769096	16906.596500	1246.017578	11.392930
19421.769096	16906.596500	1244.906250	-35.877987
19421.769096	16906.596500	1243.794922	110.653488
19421.769096	16906.596500	1242.683594	152.369186
19421.769096	16906.596500	1241.571289	124.962593
19421.769096	16906.596500	1240.459961	98.010605
19421.769096	16906.596500	1239.347656	123.985146
19421.769096	16906.596500	1238.234375	91.156670
19421.769096	16906.596500	1237.122070	71.190117
19421.769096	16906.596500	1236.008789	24.934237
19421.769096	16906.596500	1234.896484	61.657589
19421.769096	16906.596500	1233.782227	-13.327352
19421.769096	16906.596500	1232.668945	-206.916946
19421.769096	16906.596500	1231.555664	14.631034
19421.769096	16906.596500	1230.441406	-176.626846
19421.769096	16906.596500	1229.327148	-196.975601
19421.769096	16906.596500	1228.211914	-60.052052
19421.769096	16906.596500	1227.097656	-261.866516
19421.769096	16906.596500	1225.982422	-146.119492
19421.769096	16906.596500	1224.867188	-213.179855
19421.769096	16906.596500	1223.751953	-2.655894
19421.769096	16906.596500	1222.635742	-251.756836
19421.769096	16906.596500	1221.520508	-189.934036
19421.769096	16906.596500	1220.404297	-19.552364
19421.769096	16906.596500	1219.287109	-106.745605
19421.769096	16906.596500	1218.170898	-105.636734
19421.769096	16906.596500	1217.053711	-289.860382
19421.769096	16906.596500	1215.936523	-74.257683
19421.769096	16906.596500	1214.819336	92.834572
19421.769096	16906.596500	1213.702148	-210.793396
19421.769096	16906.596500	1212.583984	-298.778870
19421.769096	16906.596500	1211.465820	-53.984253
19421.769096	16906.596500	1210.347656	75.015404
19421.769096	16906.596500	1209.229492	-10.815822
19421.769096	16906.596500	1208.110352	-46.144623
19421.769096	16906.596500	1206.992188	-28.511047
19421.769096	16906.596500	1205.873047	70.394836
19421.769096	16906.596500	1204.752930	107.429565
19421.769096	16906.596500	1203.633789	37.590504
19421.769096	16906.596500	1202.513672	14.273257
19421.769096	16906.596500	1201.393555	-19.837296
19421.769096	16906.596500	1200.273438	-134.919601
19421.769096	16906.596500	1199.152344	-90.222694
19421.769096	16906.596500	1198.032227	159.430984
19421.769096	16906.596500	1196.911133	-184.719650
19421.769096	16906.596500	1195.790039	-106.510902
19421.769096	16906.596500	1194.667969	82.411514
19421.769096	16906.596500	1193.545898	52.871555
19421.769096	16906.596500	1192.424805	-75.824196
19421.769096	16906.596500	1191.301758	-28.307083
19421.769096	16906.596500	1190.179688	-95.173599
19421.769096	16906.596500	1189.056641	-117.421837
19421.769096	16906.596500	1187.933594	-22.555645
19421.769096	16906.596500	1186.810547	-132.970184
19421.769096	16906.596500	1185.687500	-172.494156
19421.769096	16906.596500	1184.563477	-72.416267
19421.769096	16906.596500	1183.440430	-130.309387
19421.769096	16906.596500	1182.316406	-210.732758
19421.769096	16906.596500	1181.191406	128.539429
19421.769096	16906.596500	1180.067383	51.268677
19421.769096	16906.596500	1178.942383	-59.247181
19421.769096	16906.596500	1177.817383	-120.028992
19421.769096	16906.596500	1176.692383	-42.407360
19421.769096	16906.596500	1175.566406	-32.519032
19421.769096	16906.596500	1174.440430	-39.712780
19421.769096	16906.596500	1173.314453	190.809723
19421.769096	16906.596500	1172.188477	11.813617
19421.769096	16906.596500	1171.062500	147.866776
19421.769096	16906.596500	1169.935547	279.478699
19421.769096	16906.596500	1168.808594	160.916183
19421.769096	16906.596500	1167.681641	16.928768
19421.769096	16906.596500	1166.553711	-62.997650
19421.769096	16906.596500	1165.426758	-84.986595
19421.769096	16906.596500	1164.298828	9.053218
19421.769096	16906.596500	1163.170898	64.431938
19421.769096	16906.596500	1162.041992	4.506320
19421.769096	16906.596500	1160.914063	-1.123949
19421.769096	16906.596500	1159.785156	-135.758682
19421.769096	16906.596500	1158.656250	-168.054230
19421.769096	16906.596500	1157.526367	30.316624
19421.769096	16906.596500	1156.397461	-247.692337
19421.769096	16906.596500	1155.267578	-75.529846
19421.769096	16906.596500	1154.137695	-112.109787
19421.769096	16906.596500	1153.006836	-121.527016
19421.769096	16906.596500	1151.876953	60.539989
19421.769096	16906.596500	1150.746094	79.724022
19421.769096	16906.596500	1149.615234	379.894745
19421.769096	16906.596500	1148.484375	82.790131
19421.769096	16906.596500	1147.352539	-84.446701
19421.769096	16906.596500	1146.220703	97.880318
19421.769096	16906.596500	1145.088867	65.040451
19421.769096	16906.596500	1143.957031	91.371353
19421.769096	16906.596500	1142.825195	-91.590096
19421.769096	16906.596500	1141.692383	-9.400321
19421.769096	16906.596500	1140.559570	6.277768
19421.769096	16906.596500	1139.426758	-123.483772
19421.769096	16906.596500	1138.292969	127.004562
19421.769096	16906.596500	1137.159180	-87.148422
19421.769096	16906.596500	1136.025391	44.629356
19421.769096	16906.596500	1134.891602	98.611183
19421.769096	16906.596500	1133.757813	130.691422
19421.769096	16906.596500	1132.623047	-6.245414
19421.769096	16906.596500	1131.488281	63.253632
19421.769096	16906.596500	1130.353516	271.549774
19421.769096	16906.596500	1129.217773	322.896423
19421.769096	16906.596500	1128.083008	449.108582
19421.769096	16906.596500	1126.947266	273.624847
19421.769096	16906.596500	1125.811523	364.937622
19421.769096	16906.596500	1124.674805	350.696655
19421.769096	16906.596500	1123.539063	340.869781
19421.769096	16906.596500	1122.402344	322.348236
19421.769096	16906.596500	1121.265625	121.695114
19421.769096	16906.596500	1120.127930	98.417244
19421.769096	16906.596500	1118.990234	114.308342
19421.769096	16906.596500	1117.853516	520.234680
19421.769096	16906.596500	1116.714844	354.786835
19421.769096	16906.596500	1115.577148	272.780457
19421.769096	16906.596500	1114.439453	406.784851
19421.769096	16906.596500	1113.300781	419.154083
19421.769096	16906.596500	1112.162109	412.076965
19421.769096	16906.596500	1111.022461	258.091034
19421.769096	16906.596500	1109.883789	415.578217
19421.769096	16906.596500	1108.744141	321.431946
19421.769096	16906.596500	1107.604492	412.257324
19421.769096	16906.596500	1106.463867	384.021362
19421.769096	16906.596500	1105.324219	173.116333
19421.769096	16906.596500	1104.183594	447.105103
19421.769096	16906.596500	1103.042969	228.585236
19421.769096	16906.596500	1101.902344	349.799042
19421.769096	16906.596500	1100.760742	265.139008
19421.769096	16906.596500	1099.619141	382.611206
19421.769096	16906.596500	1098.477539	209.973541
19421.769096	16906.596500	1097.335938	443.790649
19421.769096	16906.596500	1096.193359	234.862976
19421.769096	16906.596500	1095.051758	516.302917
19421.769096	16906.596500	1093.909180	301.123199
19421.769096	16906.596500	1092.765625	303.532867
19421.769096	16906.596500	1091.623047	588.621338
19421.769096	16906.596500	1090.479492	443.281769
19421.769096	16906.596500	1089.335938	404.378418
19421.769096	16906.596500	1088.192383	296.880219
19421.769096	16906.596500	1087.047852	404.120361
19421.769096	16906.596500	1085.903320	386.037445
19421.769096	16906.596500	1084.758789	224.350510
19421.769096	16906.596500	1083.614258	232.518753
19421.769096	16906.596500	1082.469727	342.431091
19421.769096	16906.596500	1081.324219	235.369629
19421.769096	16906.596500	1080.178711	307.929596
19421.769096	16906.596500	1079.033203	228.763672
19421.769096	16906.596500	1077.886719	269.227905
19421.769096	16906.596500	1076.740234	388.853363
19421.769096	16906.596500	1075.593750	184.288834
19421.769096	16906.596500	1074.447266	23.620525
19421.769096	16906.596500	1073.300781	114.987434
19421.769096	16906.596500	1072.153320	160.364487
19421.769096	16906.596500	1071.005859	175.921814
19421.769096	16906.596500	1069.858398	269.300354
19421.769096	16906.596500	1068.709961	160.344040
19421.769096	16906.596500	1067.561523	457.721222
19421.769096	16906.596500	1066.413086	228.590515
19421.769096	16906.596500	1065.264648	330.159271
19421.769096	16906.596500	1064.116211	394.935669
19421.769096	16906.596500	1062.966797	286.898132
19421.769096	16906.596500	1061.817383	490.957550
19421.769096	16906.596500	1060.667969	379.987366
19421.769096	16906.596500	1059.517578	117.247040
19421.769096	16906.596500	1058.368164	446.523529
19421.769096	16906.596500	1057.217773	226.132111
19421.769096	16906.596500	1056.067383	169.415741
19421.769096	16906.596500	1054.916016	248.797684
19421.769096	16906.596500	1053.764648	-55.160217
19421.769096	16906.596500	1052.613281	165.015121
19421.769096	16906.596500	1051.461914	204.525330
19421.769096	16906.596500	1050.310547	156.265396
19421.769096	16906.596500	1049.158203	345.418030
19421.769096	16906.596500	1048.005859	379.445831
19421.769096	16906.596500	1046.853516	270.804352
19421.769096	16906.596500	1045.700195	159.305069
19421.769096	16906.596500	1044.547852	162.937698
19421.769096	16906.596500	1043.394531	348.797333
19421.769096	16906.596500	1042.240234	102.983910
19421.769096	16906.596500	1041.086914	96.530472
19421.769096	16906.596500	1039.932617	-161.852966
19421.769096	16906.596500	1038.778320	139.456833
19421.769096	16906.596500	1037.624023	308.134216
19421.769096	16906.596500	1036.469727	457.751984
19421.769096	16906.596500	1035.314453	221.792953
19421.769096	16906.596500	1034.159180	463.027191
19421.769096	16906.596500	1033.003906	706.738342
19421.769096	16906.596500	1031.847656	654.461975
19421.769096	16906.596500	1030.692383	749.894226
19421.769096	16906.596500	1029.536133	815.929688
19421.769096	16906.596500	1028.378906	601.629272
19421.769096	16906.596500	1027.222656	810.613403
19421.769096	16906.596500	1026.065430	530.303711
19421.769096	16906.596500	1024.908203	377.796783
19421.769096	16906.596500	1023.750977	223.800186
19421.769096	16906.596500	1022.593750	252.095779
19421.769096	16906.596500	1021.435547	139.324020
19421.769096	16906.596500	1020.277344	32.988018
19421.769096	16906.596500	1019.119141	120.186005
19421.769096	16906.596500	1017.959961	151.165741
19421.769096	16906.596500	1016.800781	327.270325
19421.769096	16906.596500	1015.641602	298.152710
19421.769096	16906.596500	1014.482422	251.807587
19421.769096	16906.596500	1013.323242	371.309753
19421.769096	16906.596500	1012.163086	209.520050
19421.769096	16906.596500	1011.002930	211.625565
19421.769096	16906.596500	1009.842773	163.410095
19421.769096	16906.596500	1008.681641	115.138649
19421.769096	16906.596500	1007.520508	96.348076
19421.769096	16906.596500	1006.359375	52.757725
19421.769096	16906.596500	1005.198242	321.948273
19421.769096	16906.596500	1004.037109	390.853882
19421.769096	16906.596500	1002.875000	140.426849
19421.769096	16906.596500	1001.712891	239.061691
19421.769096	16906.596500	1000.550781	296.688690
19421.769096	16906.596500	999.387695	369.293213
19421.769096	16906.596500	998.224609	199.726913
19421.769096	16906.596500	997.061523	242.300980
19421.769096	16906.596500	995.898438	211.676147
19421.769096	16906.596500	994.734375	173.861053
19421.769096	16906.596500	993.571289	198.474960
19421.769096	16906.596500	992.407227	51.731731
19421.769096	16906.596500	991.242188	93.797882
19421.769096	16906.596500	990.078125	73.281197
19421.769096	16906.596500	988.913086	32.606251
19421.769096	16906.596500	987.748047	-60.158089
19421.769096	16906.596500	986.583008	-72.524902
19421.769096	16906.596500	985.416992	-133.534683
19421.769096	16906.596500	984.250977	7.822927
19421.769096	16906.596500	983.084961	11.111033
19421.769096	16906.596500	981.918945	-151.421722
19421.769096	16906.596500	980.751953	-18.153887
19421.769096	16906.596500	979.584961	-48.666737
19421.769096	16906.596500	978.417969	110.854774
19421.769096	16906.596500	977.250977	-226.979401
19421.769096	16906.596500	976.083008	-80.729561
19421.769096	16906.596500	974.915039	25.116877
19421.769096	16906.596500	973.747070	9.132764
19421.769096	16906.596500	972.579102	-80.911781
19421.769096	16906.596500	971.410156	83.106377
19421.769096	16906.596500	970.242188	-64.477257
19421.769096	16906.596500	969.072266	145.100021
19421.769096	16906.596500	967.903320	40.242672
19421.769096	16906.596500	966.733398	74.848587
19421.769096	16906.596500	965.563477	-229.124100
19421.769096	16906.596500	964.393555	-102.083008
19421.769096	16906.596500	963.223633	-156.095963
19421.769096	16906.596500	962.052734	38.083015
19421.769096	16906.596500	960.881836	126.564484
19421.769096	16906.596500	959.710938	-152.711548
19421.769096	16906.596500	958.540039	163.163681
19421.769096	16906.596500	957.368164	-110.190948
19421.769096	16906.596500	956.196289	-12.408917
19421.769096	16906.596500	955.024414	-51.454521
19421.769096	16906.596500	953.851563	-138.417953
19421.769096	16906.596500	952.679688	69.406181
19421.769096	16906.596500	951.506836	-94.702126
19421.769096	16906.596500	950.333984	-19.864513
19421.769096	16906.596500	949.160156	-238.954483
19421.769096	16906.596500	947.986328	-306.121002
19421.769096	16906.596500	946.812500	-71.679947
19421.769096	16906.596500	945.638672	-97.673790
19421.769096	16906.596500	944.464844	59.743671
19421.769096	16906.596500	943.290039	251.347244
19421.769096	16906.596500	942.115234	145.349411
19421.769096	16906.596500	940.940430	35.676407
19421.769096	16906.596500	939.764648	49.976036
19421.769096	16906.596500	938.588867	-12.265763
19421.769096	16906.596500	937.413086	-26.513367
19421.769096	16906.596500	936.237305	37.766891
19421.769096	16906.596500	935.060547	-49.246040
19421.769096	16906.596500	933.883789	199.842026
19421.769096	16906.596500	932.707031	-51.320015
19421.769096	16906.596500	931.530273	-67.858688
19421.769096	16906.596500	930.352539	96.065033
19421.769096	16906.596500	929.175781	35.883755
19421.769096	16906.596500	927.998047	44.071941
19421.769096	16906.596500	926.819336	116.651436
19421.769096	16906.596500	925.641602	149.726822
19421.769096	16906.596500	924.462891	-124.067429
19421.769096	16906.596500	923.284180	242.827042
19421.769096	16906.596500	922.104492	-144.928635
19421.769096	16906.596500	920.924805	-55.899136
19421.769096	16906.596500	919.746094	-50.488964
19421.769096	16906.596500	919.551758	135.497604
19421.769096	16906.596500	918.386719	79.337791
19421.769096	16906.596500	917.220703	-61.726208
19421.769096	16906.596500	916.054688	112.000702
19421.769096	16906.596500	914.887695	167.644363
19421.769096	16906.596500	913.721680	-4.436558
19421.769096	16906.596500	912.554688	-97.816895
19421.769096	16906.596500	911.387695	-137.375763
19421.769096	16906.596500	910.220703	-9.374570
19421.769096	16906.596500	909.052734	-104.794975
19421.769096	16906.596500	907.885742	-40.973572
19421.769096	16906.596500	906.717773	159.260773
19421.769096	16906.596500	905.548828	-118.052628
19421.769096	16906.596500	904.380859	197.818024
19421.769096	16906.596500	903.211914	-27.757008
19421.769096	16906.596500	902.042969	-160.295471
19421.769096	16906.596500	900.874023	47.974339
19421.769096	16906.596500	899.704102	-47.372700
19421.769096	16906.596500	898.535156	-101.407486
19421.769096	16906.596500	897.365234	75.742081
19421.769096	16906.596500	896.194336	120.748077
19421.769096	16906.596500	895.024414	-15.833422
19421.769096	16906.596500	893.853516	-34.788578
19421.769096	16906.596500	892.682617	-49.617577
19421.769096	16906.596500	891.511719	-6.718681
19421.769096	16906.596500	890.340820	139.230545
19421.769096	16906.596500	889.168945	99.623199
19421.769096	16906.596500	887.997070	121.841881
19421.769096	16906.596500	886.825195	-57.851543
19421.769096	16906.596500	885.653320	-72.699112
19421.769096	16906.596500	884.480469	-21.643755
19421.769096	16906.596500	883.307617	154.980347
19421.769096	16906.596500	882.134766	78.327614
19421.769096	16906.596500	880.961914	18.163767
19421.769096	16906.596500	879.788086	-161.321365
19421.769096	16906.596500	878.614258	-163.815475
19421.769096	16906.596500	877.440430	-96.382950
19421.769096	16906.596500	876.266602	-18.703411
19421.769096	16906.596500	875.091797	243.981293
19421.769096	16906.596500	873.916992	144.774445
19421.769096	16906.596500	872.742188	-67.431343
19421.769096	16906.596500	871.567383	-96.686790
19421.769096	16906.596500	870.391602	26.088428
19421.769096	16906.596500	869.215820	-27.828571
19421.769096	16906.596500	868.040039	203.702835
19421.769096	16906.596500	866.864258	75.850639
19421.769096	16906.596500	865.687500	-19.107632
19421.769096	16906.596500	864.510742	204.056305
19421.769096	16906.596500	863.333984	18.818972
19421.769096	16906.596500	862.157227	190.586594
19421.769096	16906.596500	860.979492	1.320256
19421.769096	16906.596500	859.802734	105.341774
19421.769096	16906.596500	858.625000	67.864357
19421.769096	16906.596500	857.446289	50.895733
19421.769096	16906.596500	856.268555	-19.357515
19421.769096	16906.596500	855.089844	-1.484966
19421.769096	16906.596500	853.911133	32.763103
19421.769096	16906.596500	852.731445	226.736343
19421.769096	16906.596500	851.552734	-126.083244
19421.769096	16906.596500	850.373047	-259.715027
19421.769096	16906.596500	849.193359	-243.885834
19421.769096	16906.596500	848.013672	-39.812637
19421.769096	16906.596500	846.833008	-87.470055
19421.769096	16906.596500	845.652344	259.661133
19421.769096	16906.596500	844.471680	-168.432877
19421.769096	16906.596500	843.291016	-160.851913
19421.769096	16906.596500	842.110352	-316.820770
19421.769096	16906.596500	840.928711	162.889008
19421.769096	16906.596500	839.747070	-172.908493
19421.769096	16906.596500	838.564453	-149.016129
19421.769096	16906.596500	837.382813	-100.635422
19421.769096	16906.596500	836.200195	104.960075
19421.769096	16906.596500	835.017578	-44.788540
19421.769096	16906.596500	833.834961	130.073578
19421.769096	16906.596500	832.651367	-50.248741
19421.769096	16906.596500	831.467773	153.093826
19421.769096	16906.596500	830.284180	172.741608
19421.769096	16906.596500	829.100586	243.358414
19421.769096	16906.596500	827.916992	103.902924
19421.769096	16906.596500	826.732422	-165.984558
19421.769096	16906.596500	825.547852	145.150772
19421.769096	16906.596500	824.363281	58.755833
19421.769096	16906.596500	823.177734	0.912303
19421.769096	16906.596500	821.992188	-36.550041
19421.769096	16906.596500	820.806641	-21.057314
19421.769096	16906.596500	819.621094	-231.605957
19421.769096	16906.596500	818.434570	-12.520629
19421.769096	16906.596500	817.249023	-7.260497
19421.769096	16906.596500	816.062500	61.070354
19421.769096	16906.596500	814.875000	-124.956223
19421.769096	16906.596500	813.688477	-133.955582
19421.769096	16906.596500	812.500977	-108.391289
19421.769096	16906.596500	811.313477	65.576248
19421.769096	16906.596500	810.125977	62.597012
19421.769096	16906.596500	808.937500	-96.892113
19421.769096	16906.596500	807.749023	58.630131
19421.769096	16906.596500	806.560547	157.184799
19421.769096	16906.596500	805.372070	-51.027374
19421.769096	16906.596500	804.182617	37.322998
19421.769096	16906.596500	802.994141	-8.389005
19421.769096	16906.596500	801.803711	-92.662735
19421.769096	16906.596500	800.614258	-124.157944
19421.769096	16906.596500	799.424805	53.335556
19421.769096	16906.596500	798.234375	70.471245
19421.769096	16906.596500	797.043945	-155.808640
19421.769096	16906.596500	795.852539	-254.260834
19421.769096	16906.596500	794.662109	85.220413
19421.769096	16906.596500	793.470703	0.901392
19421.769096	16906.596500	792.279297	13.868916
19421.769096	16906.596500	791.087891	-31.949783
19421.769096	16906.596500	789.895508	-209.443390
19421.769096	16906.596500	788.703125	-22.333643
19421.769096	16906.596500	787.510742	4.706091
19421.769096	16906.596500	786.318359	-75.587402
19421.769096	16906.596500	785.125000	38.437126
19421.769096	16906.596500	783.931641	166.551163
19421.769096	16906.596500	782.738281	-103.985077
19421.769096	16906.596500	781.544922	-68.997330
19421.769096	16906.596500	780.350586	218.744644
19421.769096	16906.596500	779.156250	-116.420197
19421.769096	16906.596500	777.961914	-95.688698
19421.769096	16906.596500	776.767578	-111.374893
19421.769096	16906.596500	775.572266	-9.883408
19421.769096	16906.596500	774.376953	-49.884987
19421.769096	16906.596500	773.181641	55.526062
19421.769096	16906.596500	771.986328	277.987854
19421.769096	16906.596500	770.790039	181.323151
19421.769096	16906.596500	769.593750	238.077148
19421.769096	16906.596500	768.397461	256.428955
19421.769096	16906.596500	767.201172	123.405373
19421.769096	16906.596500	766.003906	-31.786219
19421.769096	16906.596500	764.806641	-11.479424
19421.769096	16906.596500	763.609375	-71.877945
19421.769096	16906.596500	762.412109	81.416077
19421.769096	16906.596500	761.213867	41.106022
19421.769096	16906.596500	760.015625	286.938477
19421.769096	16906.596500	758.817383	149.813217
19421.769096	16906.596500	757.618164	353.140594
19421.769096	16906.596500	756.419922	151.529831
19421.769096	16906.596500	755.220703	-35.939117
19421.769096	16906.596500	754.021484	253.741241
19421.769096	16906.596500	752.821289	-12.250389
19421.769096	16906.596500	751.621094	180.630661
19421.769096	16906.596500	750.420898	172.198257
19421.769096	16906.596500	749.220703	85.277985
19421.769096	16906.596500	748.020508	-13.716657
19421.769096	16906.596500	746.819336	42.104790
19421.769096	16906.596500	745.618164	3.376024
19421.769096	16906.596500	744.416992	175.643341
19421.769096	16906.596500	743.214844	84.568604
19421.769096	16906.596500	742.012695	134.107864
19421.769096	16906.596500	740.810547	235.799637
19421.769096	16906.596500	739.608398	241.010529
19421.769096	16906.596500	738.406250	340.531006
19421.769096	16906.596500	737.203125	327.553955
19421.769096	16906.596500	736.000000	455.010315
19421.769096	16906.596500	734.795898	560.294006
19421.769096	16906.596500	733.592773	561.166199
19421.769096	16906.596500	732.388672	463.712250
19421.769096	16906.596500	731.184570	346.195251
19421.769096	16906.596500	729.979492	371.011017
19421.769096	16906.596500	728.775391	281.512756
19421.769096	16906.596500	727.570313	304.219177
19421.769096	16906.596500	726.365234	110.481445
19421.769096	16906.596500	725.160156	58.986526
19421.769096	16906.596500	723.954102	177.684708
19421.769096	16906.596500	722.748047	168.130463
19421.769096	16906.596500	721.541992	106.477577
19421.769096	16906.596500	720.334961	178.885193
19421.769096	16906.596500	719.128906	133.142883
19421.769096	16906.596500	717.921875	-44.672825
19421.769096	16906.596500	716.714844	17.540674
19421.769096	16906.596500	715.506836	49.672810
19421.769096	16906.596500	714.298828	-152.187393
19421.769096	16906.596500	713.090820	51.748657
19421.769096	16906.596500	711.882813	109.647514
19421.769096	16906.596500	710.674805	-24.351610
19421.769096	16906.596500	709.465820	25.424677
19421.769096	16906.596500	708.256836	137.029556
19421.769096	16906.596500	707.047852	2.918654
19421.769096	16906.596500	705.837891	236.131470
19421.769096	16906.596500	704.627930	-11.842134
19421.769096	16906.596500	703.417969	-128.072861
19421.769096	16906.596500	702.208008	-108.652878
19421.769096	16906.596500	700.998047	-105.265182
19421.769096	16906.596500	699.787109	-89.978912
19421.769096	16906.596500	698.576172	-162.496262
19421.769096	16906.596500	697.364258	-91.523155
19421.769096	16906.596500	696.153320	51.100204
19421.769096	16906.596500	694.941406	-31.568005
19421.769096	16906.596500	693.729492	234.361084
19421.769096	16906.596500	692.516602	139.601288
19421.769096	16906.596500	691.304688	-58.738846
19421.769096	16906.596500	690.091797	250.620117
19421.769096	16906.596500	688.878906	127.839783
19421.769096	16906.596500	687.665039	110.515610
19421.769096	16906.596500	686.451172	300.053497
19421.769096	16906.596500	685.237305	-149.110306
19421.769096	16906.596500	684.023438	143.679291
19421.769096	16906.596500	682.809570	243.395691
19421.769096	16906.596500	681.594727	217.756226
19421.769096	16906.596500	680.379883	144.354599
19421.769096	16906.596500	679.165039	27.191618
19421.769096	16906.596500	677.949219	267.619232
19421.769096	16906.596500	676.733398	283.417908
19421.769096	16906.596500	675.517578	122.393158
19421.769096	16906.596500	674.301758	108.287064
19421.769096	16906.596500	673.084961	84.188698
19421.769096	16906.596500	671.869141	288.261353
19421.769096	16906.596500	670.651367	230.254745
19421.769096	16906.596500	669.434570	134.508865
19421.769096	16906.596500	668.216797	280.699799
19421.769096	16906.596500	667.000000	400.979584
19421.769096	16906.596500	665.781250	372.441132
19421.769096	16906.596500	664.563477	288.339203
19421.769096	16906.596500	663.344727	275.542816
19421.769096	16906.596500	662.125977	488.543243
19421.769096	16906.596500	660.907227	317.088623
19421.769096	16906.596500	659.688477	48.591064
19421.769096	16906.596500	658.468750	219.701660
19421.769096	16906.596500	657.249023	299.601410
19421.769096	16906.596500	656.029297	56.782623
19421.769096	16906.596500	654.808594	447.204803
19421.769096	16906.596500	653.587891	394.230865
19421.769096	16906.596500	652.367188	539.003479
19421.769096	16906.596500	651.146484	228.806107
19421.769096	16906.596500	649.924805	244.889038
19421.769096	16906.596500	648.704102	395.308685
19421.769096	16906.596500	647.482422	340.055878
19421.769096	16906.596500	646.259766	421.087646
19421.769096	16906.596500	645.037109	424.968567
19421.769096	16906.596500	643.815430	302.374817
19421.769096	16906.596500	642.591797	148.163773
19421.769096	16906.596500	641.369141	82.785248
19421.769096	16906.596500	640.145508	133.813416
19421.769096	16906.596500	638.921875	84.106186
19421.769096	16906.596500	637.698242	89.591621
19421.769096	16906.596500	636.474609	339.596252
19421.769096	16906.596500	635.250000	78.647331
19421.769096	16906.596500	634.025391	137.149902
19421.769096	16906.596500	632.800781	234.983292
19421.769096	16906.596500	631.575195	131.676559
19421.769096	16906.596500	630.349609	30.314693
19421.769096	16906.596500	629.124023	1.818046
19421.769096	16906.596500	627.898438	103.257408
19421.769096	16906.596500	626.671875	371.962494
19421.769096	16906.596500	625.445313	-70.238304
19421.769096	16906.596500	624.218750	-102.902084
19421.769096	16906.596500	622.992188	51.335938
19421.769096	16906.596500	621.764648	-7.055008
19421.769096	16906.596500	620.537109	13.200025
19421.769096	16906.596500	619.309570	37.312550
19421.769096	16906.596500	618.081055	-182.470001
19421.769096	16906.596500	616.852539	-270.511139
19421.769096	16906.596500	615.624023	-59.833691
19421.769096	16906.596500	614.395508	-126.375504
19421.769096	16906.596500	613.166992	-106.508972
19421.769096	16906.596500	611.937500	-163.318863
19421.769096	16906.596500	610.708008	-180.891037
19421.769096	16906.596500	609.477539	-135.693146
19421.769096	16906.596500	608.248047	103.759964
19421.769096	16906.596500	607.017578	-27.867098
19421.769096	16906.596500	605.787109	-153.610168
19421.769096	16906.596500	604.555664	-338.210449
19421.769096	16906.596500	603.325195	-1.093496
19421.769096	16906.596500	602.093750	-177.918289
19421.769096	16906.596500	600.861328	70.683029
19421.769096	16906.596500	599.629883	66.287109
19421.769096	16906.596500	598.397461	191.168381
19421.769096	16906.596500	597.165039	-17.117783
19421.769096	16906.596500	595.932617	-66.707306
19421.769096	16906.596500	594.699219	48.168144
19421.769096	16906.596500	593.465820	-17.185936
19421.769096	16906.596500	592.232422	119.059418
19421.769096	16906.596500	590.999023	-34.450432
19421.769096	16906.596500	589.764648	-107.724625
19421.769096	16906.596500	588.530273	-171.233841
19421.769096	16906.596500	587.295898	-119.368828
19421.769096	16906.596500	586.061523	100.592957
19421.769096	16906.596500	584.826172	1.744792
19421.769096	16906.596500	583.590820	-13.056694
19421.769096	16906.596500	582.355469	-131.468826
19421.769096	16906.596500	581.119141	37.325199
19421.769096	16906.596500	579.882813	-26.442858
19421.769096	16906.596500	578.646484	-207.399094
19421.769096	16906.596500	577.410156	-113.017220
19421.769096	16906.596500	576.172852	-184.646561
19421.769096	16906.596500	574.935547	-66.971268
19421.769096	16906.596500	573.698242	11.589605
19421.769096	16906.596500	572.460938	88.128723
19421.769096	16906.596500	571.222656	-90.910362
19421.769096	16906.596500	569.984375	244.893753
19421.769096	16906.596500	568.746094	-76.493248
19421.769096	16906.596500	567.506836	-109.303665
19421.769096	16906.596500	566.267578	-144.080887
19421.769096	16906.596500	565.028320	-97.046745
19421.769096	16906.596500	563.789063	199.270279
19421.769096	16906.596500	562.548828	14.391669
19421.769096	16906.596500	561.309570	-36.084446
19421.769096	16906.596500	560.068359	67.211258
19421.769096	16906.596500	558.828125	265.803589
19421.769096	16906.596500	557.586914	180.187668
19421.769096	16906.596500	556.345703	-59.109543
19421.769096	16906.596500	555.104492	-66.872452
19421.769096	16906.596500	553.863281	139.247299
19421.769096	16906.596500	552.621094	8.905663
19421.769096	16906.596500	551.378906	-181.661377
19421.769096	16906.596500	550.136719	-49.574261
19421.769096	16906.596500	548.893555	113.514252
19421.769096	16906.596500	547.650391	173.558868
19421.769096	16906.596500	546.407227	361.734009
19421.769096	16906.596500	545.164063	136.227676
19421.769096	16906.596500	543.919922	-178.505600
19421.769096	16906.596500	542.675781	50.313049
19421.769096	16906.596500	541.431641	160.648911
19421.769096	16906.596500	540.186523	158.389969
19421.769096	16906.596500	538.941406	-51.423267
19421.769096	16906.596500	537.696289	237.205643
19421.769096	16906.596500	536.451172	73.956680
19421.769096	16906.596500	535.205078	112.344574
19421.769096	16906.596500	533.959961	-118.671120
19421.769096	16906.596500	532.712891	1.076172
19421.769096	16906.596500	531.466797	-65.202873
19421.769096	16906.596500	530.219727	-104.364082
19421.769096	16906.596500	528.972656	-9.919903
19421.769096	16906.596500	527.725586	53.489006
19421.769096	16906.596500	526.478516	101.370384
19421.769096	16906.596500	525.230469	371.736511
19421.769096	16906.596500	523.982422	351.775909
19421.769096	16906.596500	522.734375	269.910248
19421.769096	16906.596500	521.485352	8.214042
19421.769096	16906.596500	520.236328	158.418671
19421.769096	16906.596500	518.987305	-93.515388
19421.769096	16906.596500	517.737305	10.220580
19421.769096	16906.596500	516.488281	127.421585
19421.769096	16906.596500	515.238281	76.484695
19421.769096	16906.596500	513.988281	324.900726
19421.769096	16906.596500	512.737305	84.667496
19421.769096	16906.596500	511.486328	458.402618
19421.769096	16906.596500	510.235352	343.648102
19421.769096	16906.596500	508.984375	157.518082
19421.769096	16906.596500	507.732422	419.017792
19421.769096	16906.596500	506.480469	381.411041
19421.769096	16906.596500	505.228516	409.354736
19421.769096	16906.596500	503.976563	475.816101
19421.769096	16906.596500	502.723633	468.962036
19421.769096	16906.596500	501.470703	363.790436
19421.769096	16906.596500	500.217773	503.324890
19421.769096	16906.596500	498.963867	583.038574
19421.769096	16906.596500	497.709961	468.161407
19421.769096	16906.596500	496.456055	819.259766
19421.769096	16906.596500	495.202148	671.567688
19421.769096	16906.596500	493.947266	452.671021
19421.769096	16906.596500	492.692383	464.731049
19421.769096	16906.596500	491.437500	686.432678
19421.769096	16906.596500	490.181641	738.716675
19421.769096	16906.596500	488.926758	863.999817
19421.769096	16906.596500	487.670898	902.644531
19421.769096	16906.596500	486.414063	920.059692
19421.769096	16906.596500	485.158203	1108.443115
19421.769096	16906.596500	483.901367	948.902649
19421.769096	16906.596500	482.644531	777.831177
19421.769096	16906.596500	481.386719	1029.263794
19421.769096	16906.596500	480.128906	927.204468
19421.769096	16906.596500	478.871094	1032.432373
19421.769096	16906.596500	477.613281	1045.396362
19421.769096	16906.596500	476.355469	1323.062866
19421.769096	16906.596500	475.096680	1235.998657
19421.769096	16906.596500	473.837891	1214.078613
19421.769096	16906.596500	472.578125	1201.638550
19421.769096	16906.596500	471.319336	1246.614380
19421.769096	16906.596500	470.059570	1218.602539
19421.769096	16906.596500	468.799805	1627.414551
19421.769096	16906.596500	467.539063	1286.764526
19421.769096	16906.596500	466.278320	1124.268188
19421.769096	16906.596500	465.017578	1421.335571
19421.769096	16906.596500	463.756836	1518.989380
19421.769096	16906.596500	462.495117	1292.914917
19421.769096	16906.596500	461.233398	1529.940552
19421.769096	16906.596500	459.971680	1167.766235
19421.769096	16906.596500	458.709961	1557.409912
19421.769096	16906.596500	457.447266	1644.487061
19421.769096	16906.596500	456.184570	1536.282593
19421.769096	16906.596500	454.921875	1596.163452
19421.769096	16906.596500	453.658203	1449.362793
19421.769096	16906.596500	452.394531	1287.116577
19421.769096	16906.596500	451.130859	1774.314087
19421.769096	16906.596500	449.867188	1563.842773
19421.769096	16906.596500	448.602539	1530.814941
19421.769096	16906.596500	447.337891	1678.930542
19421.769096	16906.596500	446.073242	1401.015869
19421.769096	16906.596500	444.807617	1556.169556
19421.769096	16906.596500	443.542969	1613.662109
19421.769096	16906.596500	442.276367	1565.882324
19421.769096	16906.596500	441.010742	1626.536377
19421.769096	16906.596500	439.744141	1574.320435
19421.769096	16906.596500	438.478516	1535.145996
19421.769096	16906.596500	437.210938	1655.725586
19421.769096	16906.596500	435.944336	1714.919556
19421.769096	16906.596500	434.676758	1491.723267
19421.769096	16906.596500	433.409180	1687.296631
19421.769096	16906.596500	432.141602	1672.893555
19421.769096	16906.596500	430.873047	1671.395264
19421.769096	16906.596500	429.604492	1635.197876
19421.769096	16906.596500	428.335938	1661.370605
19421.769096	16906.596500	427.067383	1519.624512
19421.769096	16906.596500	425.797852	1955.759888
19421.769096	16906.596500	424.528320	1662.768188
19421.769096	16906.596500	423.258789	1502.494385
19421.769096	16906.596500	421.988281	1647.821899
19421.769096	16906.596500	420.717773	1598.666016
19421.769096	16906.596500	419.447266	1898.614136
19421.769096	16906.596500	418.175781	1967.946045
19421.769096	16906.596500	416.905273	1905.595581
19421.769096	16906.596500	415.633789	1618.538940
19421.769096	16906.596500	414.362305	1651.833862
19421.769096	16906.596500	413.089844	1813.505737
19421.769096	16906.596500	411.817383	1678.362061
19421.769096	16906.596500	410.544922	1753.176514
19421.769096	16906.596500	409.272461	1874.652100
19421.769096	16906.596500	407.999023	1868.229980
19421.769096	16906.596500	406.725586	1517.823120
19421.769096	16906.596500	405.452148	1487.148315
19421.769096	16906.596500	404.177734	1641.381714
19421.769096	16906.596500	402.903320	1565.408936
19421.769096	16906.596500	401.628906	1784.136719
19421.769096	16906.596500	400.354492	1916.629028
19421.769096	16906.596500	399.079102	1489.465332
19421.769096	16906.596500	397.803711	1646.554688
19421.769096	16906.596500	396.528320	1435.367920
19421.769096	16906.596500	395.251953	1518.456665
19421.769096	16906.596500	393.976563	1591.028564
19421.769096	16906.596500	392.700195	1728.673584
19421.769096	16906.596500	391.422852	1435.812744
19421.769096	16906.596500	390.145508	1567.373291
19421.769096	16906.596500	388.869141	1419.846069
19421.769096	16906.596500	387.590820	1539.495972
19421.769096	16906.596500	386.313477	1330.989258
19421.769096	16906.596500	385.035156	1567.112793
19421.769096	16906.596500	383.756836	1450.513550
19421.769096	16906.596500	382.478516	1566.779663
19421.769096	16906.596500	381.199219	1387.056396
19421.769096	16906.596500	379.919922	1373.983765
19421.769096	16906.596500	378.640625	1327.379883
19421.769096	16906.596500	377.360352	1426.421387
19421.769096	16906.596500	376.080078	1389.956177
19421.769096	16906.596500	374.799805	1351.930908
19421.769096	16906.596500	373.519531	1135.064819
19421.769096	16906.596500	372.238281	1384.087036
19421.769096	16906.596500	370.957031	1190.284058
19421.769096	16906.596500	369.675781	1283.104980
19421.769096	16906.596500	368.394531	969.064697
19421.769096	16906.596500	367.112305	1018.656738
19421.769096	16906.596500	365.830078	1049.390015
19421.769096	16906.596500	364.546875	908.684875
19421.769096	16906.596500	363.264648	1097.374512
19421.769096	16906.596500	361.981445	736.290344
19421.769096	16906.596500	360.698242	689.347473
19421.769096	16906.596500	359.414063	800.106689
19421.769096	16906.596500	358.129883	833.401917
19421.769096	16906.596500	356.845703	926.479492
19421.769096	16906.596500	355.561523	960.819031
19421.769096	16906.596500	354.276367	746.527100
19421.769096	16906.596500	352.991211	614.461609
19421.769096	16906.596500	351.706055	887.614563
19421.769096	16906.596500	350.420898	752.441833
19421.769096	16906.596500	349.134766	511.383820
19421.769096	16906.596500	347.848633	549.365601
19421.769096	16906.596500	346.561523	417.485229
19421.769096	16906.596500	345.275391	556.918457
19421.769096	16906.596500	343.988281	368.796875
19421.769096	16906.596500	342.700195	376.570831
19421.769096	16906.596500	341.413086	507.077545
19421.769096	16906.596500	340.125000	227.541351
19421.769096	16906.596500	338.836914	233.657013
19421.769096	16906.596500	337.548828	86.645844
19421.769096	16906.596500	336.259766	106.825867
19421.769096	16906.596500	334.970703	236.035538
19421.769096	16906.596500	333.681641	146.390656
19421.769096	16906.596500	332.391602	124.324455
19421.769096	16906.596500	331.101563	136.118179
19421.769096	16906.596500	329.811523	91.836609
19421.769096	16906.596500	328.521484	45.697502
19421.769096	16906.596500	327.230469	1.244311
19421.769096	16906.596500	325.939453	-267.808960
19421.769096	16906.596500	324.648438	-26.520388
19421.769096	16906.596500	323.356445	-32.592426
19421.769096	16906.596500	322.064453	35.655987
19421.769096	16906.596500	320.772461	-25.603441
19421.769096	16906.596500	319.480469	73.203781
19421.769096	16906.596500	318.187500	-53.038406
19421.769096	16906.596500	316.894531	-219.271652
19421.769096	16906.596500	315.601563	-100.693863
19421.769096	16906.596500	314.307617	-214.805603
19421.769096	16906.596500	313.013672	-298.271973
19421.769096	16906.596500	311.719727	-205.680649
19421.769096	16906.596500	310.425781	159.754028
19421.769096	16906.596500	309.130859	-56.601665
19421.769096	16906.596500	307.835938	-78.637665
19421.769096	16906.596500	306.541016	99.006439
19421.769096	16906.596500	305.245117	-137.285385
19421.769096	16906.596500	303.949219	-15.738744
19421.769096	16906.596500	302.653320	386.915314
19421.769096	16906.596500	301.356445	110.952423
19421.769096	16906.596500	300.060547	462.458221
19421.769096	16906.596500	298.763672	502.186981
