#X		#Y		#Wave		#Intensity
19396.945000	16897.048000	2000.043945	-56.630981
19396.945000	16897.048000	1999.080078	-334.920685
19396.945000	16897.048000	1998.116211	29.350903
19396.945000	16897.048000	1997.151367	-33.154568
19396.945000	16897.048000	1996.186523	141.811752
19396.945000	16897.048000	1995.222656	-223.741974
19396.945000	16897.048000	1994.256836	-9.948481
19396.945000	16897.048000	1993.291992	-54.167080
19396.945000	16897.048000	1992.327148	39.902790
19396.945000	16897.048000	1991.361328	108.841240
19396.945000	16897.048000	1990.395508	-52.769402
19396.945000	16897.048000	1989.429688	161.458878
19396.945000	16897.048000	1988.463867	367.847473
19396.945000	16897.048000	1987.497070	-89.064537
19396.945000	16897.048000	1986.531250	44.928349
19396.945000	16897.048000	1985.564453	-100.835632
19396.945000	16897.048000	1984.597656	-194.929245
19396.945000	16897.048000	1983.630859	7.327556
19396.945000	16897.048000	1982.664063	102.954468
19396.945000	16897.048000	1981.696289	42.616711
19396.945000	16897.048000	1980.728516	345.175781
19396.945000	16897.048000	1979.761719	328.728485
19396.945000	16897.048000	1978.792969	186.112137
19396.945000	16897.048000	1977.825195	287.715057
19396.945000	16897.048000	1976.857422	55.787159
19396.945000	16897.048000	1975.888672	124.827202
19396.945000	16897.048000	1974.919922	80.099792
19396.945000	16897.048000	1973.951172	264.607758
19396.945000	16897.048000	1972.982422	421.701416
19396.945000	16897.048000	1972.013672	92.676323
19396.945000	16897.048000	1971.043945	343.037292
19396.945000	16897.048000	1970.075195	314.515930
19396.945000	16897.048000	1969.105469	-128.271545
19396.945000	16897.048000	1968.135742	-137.345047
19396.945000	16897.048000	1967.165039	375.763824
19396.945000	16897.048000	1966.195313	36.139320
19396.945000	16897.048000	1965.224609	149.672974
19396.945000	16897.048000	1964.253906	31.517057
19396.945000	16897.048000	1963.283203	105.294083
19396.945000	16897.048000	1962.312500	375.817902
19396.945000	16897.048000	1961.341797	200.620926
19396.945000	16897.048000	1960.370117	62.259518
19396.945000	16897.048000	1959.399414	177.213882
19396.945000	16897.048000	1958.427734	43.556164
19396.945000	16897.048000	1957.455078	350.052338
19396.945000	16897.048000	1956.483398	-56.781712
19396.945000	16897.048000	1955.511719	55.148590
19396.945000	16897.048000	1954.539063	523.331726
19396.945000	16897.048000	1953.566406	-31.099123
19396.945000	16897.048000	1952.593750	640.641418
19396.945000	16897.048000	1951.621094	290.076935
19396.945000	16897.048000	1950.647461	310.433411
19396.945000	16897.048000	1949.674805	33.532276
19396.945000	16897.048000	1948.701172	218.235275
19396.945000	16897.048000	1947.727539	140.120956
19396.945000	16897.048000	1946.753906	324.560059
19396.945000	16897.048000	1945.780273	341.981842
19396.945000	16897.048000	1944.805664	72.275269
19396.945000	16897.048000	1943.831055	65.061806
19396.945000	16897.048000	1942.856445	222.094681
19396.945000	16897.048000	1941.881836	-94.244080
19396.945000	16897.048000	1940.907227	62.622791
19396.945000	16897.048000	1939.932617	452.221680
19396.945000	16897.048000	1938.957031	20.647598
19396.945000	16897.048000	1937.981445	-303.017059
19396.945000	16897.048000	1937.005859	218.554657
19396.945000	16897.048000	1936.030273	-303.533112
19396.945000	16897.048000	1935.054688	-2.656676
19396.945000	16897.048000	1934.078125	-96.127937
19396.945000	16897.048000	1933.101563	60.076790
19396.945000	16897.048000	1932.125000	-219.469849
19396.945000	16897.048000	1931.148438	66.308601
19396.945000	16897.048000	1930.171875	-12.597394
19396.945000	16897.048000	1929.194336	-169.785431
19396.945000	16897.048000	1928.217773	35.008389
19396.945000	16897.048000	1927.240234	29.406902
19396.945000	16897.048000	1926.262695	-181.585938
19396.945000	16897.048000	1925.284180	164.779526
19396.945000	16897.048000	1924.306641	-68.209373
19396.945000	16897.048000	1923.328125	251.069702
19396.945000	16897.048000	1922.350586	88.947029
19396.945000	16897.048000	1921.372070	-146.408432
19396.945000	16897.048000	1920.392578	306.954010
19396.945000	16897.048000	1919.414063	-79.772133
19396.945000	16897.048000	1918.434570	63.351330
19396.945000	16897.048000	1917.456055	-271.970367
19396.945000	16897.048000	1916.476563	-4.447722
19396.945000	16897.048000	1915.497070	-173.752899
19396.945000	16897.048000	1914.516602	61.913616
19396.945000	16897.048000	1913.537109	243.823380
19396.945000	16897.048000	1912.556641	-152.238312
19396.945000	16897.048000	1911.576172	-123.963371
19396.945000	16897.048000	1910.595703	-134.706284
19396.945000	16897.048000	1909.615234	-6.548185
19396.945000	16897.048000	1908.633789	-185.443802
19396.945000	16897.048000	1907.653320	5.999307
19396.945000	16897.048000	1906.671875	236.343384
19396.945000	16897.048000	1905.690430	335.091614
19396.945000	16897.048000	1904.708984	161.111832
19396.945000	16897.048000	1903.727539	189.232819
19396.945000	16897.048000	1902.745117	195.440918
19396.945000	16897.048000	1901.762695	182.180588
19396.945000	16897.048000	1900.780273	-101.133636
19396.945000	16897.048000	1899.797852	194.580750
19396.945000	16897.048000	1898.815430	91.331955
19396.945000	16897.048000	1897.832031	63.504589
19396.945000	16897.048000	1896.849609	-375.173340
19396.945000	16897.048000	1895.866211	75.930130
19396.945000	16897.048000	1894.882813	247.395935
19396.945000	16897.048000	1893.898438	81.065536
19396.945000	16897.048000	1892.915039	245.174606
19396.945000	16897.048000	1891.930664	-180.977051
19396.945000	16897.048000	1890.947266	165.248566
19396.945000	16897.048000	1889.962891	-5.798049
19396.945000	16897.048000	1888.977539	-101.523071
19396.945000	16897.048000	1887.993164	693.496521
19396.945000	16897.048000	1887.007813	-256.470886
19396.945000	16897.048000	1886.023438	358.747711
19396.945000	16897.048000	1885.038086	139.315140
19396.945000	16897.048000	1884.051758	48.508682
19396.945000	16897.048000	1883.066406	-391.432373
19396.945000	16897.048000	1882.081055	-23.920883
19396.945000	16897.048000	1881.094727	93.802216
19396.945000	16897.048000	1880.108398	167.856430
19396.945000	16897.048000	1879.122070	69.858696
19396.945000	16897.048000	1878.135742	-209.792770
19396.945000	16897.048000	1877.148438	16.867960
19396.945000	16897.048000	1876.162109	299.130798
19396.945000	16897.048000	1875.174805	-115.986145
19396.945000	16897.048000	1874.187500	100.839584
19396.945000	16897.048000	1873.199219	-362.488647
19396.945000	16897.048000	1872.211914	-126.345062
19396.945000	16897.048000	1871.223633	-62.059345
19396.945000	16897.048000	1870.236328	-254.201050
19396.945000	16897.048000	1869.248047	-257.639008
19396.945000	16897.048000	1868.258789	125.794319
19396.945000	16897.048000	1867.270508	-320.123016
19396.945000	16897.048000	1866.282227	-151.952667
19396.945000	16897.048000	1865.292969	-153.010178
19396.945000	16897.048000	1864.303711	-185.481033
19396.945000	16897.048000	1863.314453	-111.658707
19396.945000	16897.048000	1862.324219	109.461433
19396.945000	16897.048000	1861.334961	62.446533
19396.945000	16897.048000	1860.344727	-6.283417
19396.945000	16897.048000	1859.354492	-130.515472
19396.945000	16897.048000	1858.364258	51.788841
19396.945000	16897.048000	1857.374023	185.753906
19396.945000	16897.048000	1856.383789	54.285332
19396.945000	16897.048000	1855.392578	82.051712
19396.945000	16897.048000	1854.401367	83.265976
19396.945000	16897.048000	1853.410156	-209.689728
19396.945000	16897.048000	1852.418945	129.047256
19396.945000	16897.048000	1851.426758	-293.983551
19396.945000	16897.048000	1850.435547	198.835938
19396.945000	16897.048000	1849.443359	-7.242661
19396.945000	16897.048000	1848.451172	116.755371
19396.945000	16897.048000	1847.458984	149.165253
19396.945000	16897.048000	1846.466797	-30.353544
19396.945000	16897.048000	1845.473633	-238.706924
19396.945000	16897.048000	1844.480469	219.747818
19396.945000	16897.048000	1843.487305	449.381042
19396.945000	16897.048000	1842.494141	89.402985
19396.945000	16897.048000	1841.500977	198.648834
19396.945000	16897.048000	1840.506836	67.310242
19396.945000	16897.048000	1839.513672	65.853256
19396.945000	16897.048000	1838.519531	1.861081
19396.945000	16897.048000	1837.525391	428.261688
19396.945000	16897.048000	1836.530273	256.023987
19396.945000	16897.048000	1835.536133	220.793854
19396.945000	16897.048000	1834.541016	288.857452
19396.945000	16897.048000	1833.545898	-27.462641
19396.945000	16897.048000	1832.550781	-55.495285
19396.945000	16897.048000	1831.555664	139.758774
19396.945000	16897.048000	1830.560547	46.822216
19396.945000	16897.048000	1829.564453	129.112946
19396.945000	16897.048000	1828.568359	220.938065
19396.945000	16897.048000	1827.572266	79.960907
19396.945000	16897.048000	1826.576172	186.090881
19396.945000	16897.048000	1825.580078	376.088989
19396.945000	16897.048000	1824.583008	-153.412231
19396.945000	16897.048000	1823.585938	-64.187508
19396.945000	16897.048000	1822.588867	32.164780
19396.945000	16897.048000	1821.591797	176.370468
19396.945000	16897.048000	1820.594727	-50.922741
19396.945000	16897.048000	1819.596680	-21.824619
19396.945000	16897.048000	1818.599609	265.913452
19396.945000	16897.048000	1817.601563	433.764008
19396.945000	16897.048000	1816.603516	139.390076
19396.945000	16897.048000	1815.604492	340.638763
19396.945000	16897.048000	1814.606445	252.149689
19396.945000	16897.048000	1813.607422	125.367714
19396.945000	16897.048000	1812.608398	201.956055
19396.945000	16897.048000	1811.609375	15.339824
19396.945000	16897.048000	1810.610352	225.764435
19396.945000	16897.048000	1809.610352	-13.481798
19396.945000	16897.048000	1808.611328	70.065460
19396.945000	16897.048000	1807.611328	-73.543922
19396.945000	16897.048000	1806.611328	172.400467
19396.945000	16897.048000	1805.610352	90.858635
19396.945000	16897.048000	1804.610352	327.025818
19396.945000	16897.048000	1803.609375	419.744476
19396.945000	16897.048000	1802.608398	142.229156
19396.945000	16897.048000	1801.607422	55.776127
19396.945000	16897.048000	1800.606445	62.400425
19396.945000	16897.048000	1799.605469	281.390533
19396.945000	16897.048000	1798.603516	175.713959
19396.945000	16897.048000	1797.601563	-206.730865
19396.945000	16897.048000	1796.599609	9.637525
19396.945000	16897.048000	1795.597656	380.888885
19396.945000	16897.048000	1794.595703	253.593033
19396.945000	16897.048000	1793.592773	405.217224
19396.945000	16897.048000	1792.589844	70.488342
19396.945000	16897.048000	1791.587891	7.492829
19396.945000	16897.048000	1790.583984	187.504471
19396.945000	16897.048000	1789.581055	300.682068
19396.945000	16897.048000	1788.577148	197.019073
19396.945000	16897.048000	1787.574219	152.868881
19396.945000	16897.048000	1786.570313	-177.021393
19396.945000	16897.048000	1785.566406	-311.658813
19396.945000	16897.048000	1784.561523	132.021179
19396.945000	16897.048000	1783.557617	-152.654831
19396.945000	16897.048000	1782.552734	-44.740952
19396.945000	16897.048000	1781.547852	220.056824
19396.945000	16897.048000	1780.542969	-140.757965
19396.945000	16897.048000	1779.538086	64.388496
19396.945000	16897.048000	1778.532227	102.990189
19396.945000	16897.048000	1777.527344	219.944778
19396.945000	16897.048000	1776.521484	179.955353
19396.945000	16897.048000	1775.515625	-28.773512
19396.945000	16897.048000	1774.508789	-21.322279
19396.945000	16897.048000	1773.502930	-453.312256
19396.945000	16897.048000	1772.496094	-348.556427
19396.945000	16897.048000	1771.489258	71.841492
19396.945000	16897.048000	1770.482422	337.728882
19396.945000	16897.048000	1769.475586	176.277405
19396.945000	16897.048000	1768.467773	218.875000
19396.945000	16897.048000	1767.460938	187.846542
19396.945000	16897.048000	1766.453125	441.382263
19396.945000	16897.048000	1765.445313	336.675751
19396.945000	16897.048000	1764.437500	236.683899
19396.945000	16897.048000	1763.428711	-43.490761
19396.945000	16897.048000	1762.420898	280.723450
19396.945000	16897.048000	1761.412109	282.484894
19396.945000	16897.048000	1760.403320	182.307922
19396.945000	16897.048000	1759.393555	491.876923
19396.945000	16897.048000	1758.384766	289.721161
19396.945000	16897.048000	1757.375000	464.053223
19396.945000	16897.048000	1756.366211	472.535492
19396.945000	16897.048000	1755.356445	206.388153
19396.945000	16897.048000	1754.345703	70.423470
19396.945000	16897.048000	1753.335938	211.261246
19396.945000	16897.048000	1752.325195	-125.859131
19396.945000	16897.048000	1751.315430	69.217598
19396.945000	16897.048000	1750.304688	-208.773331
19396.945000	16897.048000	1749.292969	234.343689
19396.945000	16897.048000	1748.282227	-93.349846
19396.945000	16897.048000	1747.270508	37.482479
19396.945000	16897.048000	1746.259766	309.965424
19396.945000	16897.048000	1745.248047	-107.533554
19396.945000	16897.048000	1744.235352	74.977615
19396.945000	16897.048000	1743.223633	-148.817291
19396.945000	16897.048000	1742.211914	-108.168144
19396.945000	16897.048000	1741.199219	-77.043839
19396.945000	16897.048000	1740.186523	72.005127
19396.945000	16897.048000	1739.173828	289.353912
19396.945000	16897.048000	1738.160156	-31.345430
19396.945000	16897.048000	1737.147461	-9.974657
19396.945000	16897.048000	1736.133789	-49.995495
19396.945000	16897.048000	1735.120117	-297.563507
19396.945000	16897.048000	1734.106445	-302.291779
19396.945000	16897.048000	1733.091797	-328.301910
19396.945000	16897.048000	1732.078125	1.462518
19396.945000	16897.048000	1731.063477	107.207199
19396.945000	16897.048000	1730.048828	22.038656
19396.945000	16897.048000	1729.034180	-32.546719
19396.945000	16897.048000	1728.019531	185.967010
19396.945000	16897.048000	1727.003906	-309.010834
19396.945000	16897.048000	1725.988281	215.329697
19396.945000	16897.048000	1724.972656	111.055367
19396.945000	16897.048000	1723.957031	-367.352997
19396.945000	16897.048000	1722.941406	81.222191
19396.945000	16897.048000	1721.924805	-112.540482
19396.945000	16897.048000	1720.909180	60.549759
19396.945000	16897.048000	1719.892578	141.814560
19396.945000	16897.048000	1718.875977	-381.134827
19396.945000	16897.048000	1717.858398	-342.248871
19396.945000	16897.048000	1716.841797	-195.355774
19396.945000	16897.048000	1715.824219	-210.681244
19396.945000	16897.048000	1714.806641	123.909729
19396.945000	16897.048000	1713.789063	-128.785477
19396.945000	16897.048000	1712.770508	-195.963669
19396.945000	16897.048000	1711.752930	-127.018845
19396.945000	16897.048000	1710.734375	155.416580
19396.945000	16897.048000	1709.715820	-73.873627
19396.945000	16897.048000	1708.697266	58.169701
19396.945000	16897.048000	1707.678711	-264.960693
19396.945000	16897.048000	1706.659180	5.315458
19396.945000	16897.048000	1705.640625	-148.977112
19396.945000	16897.048000	1704.621094	-336.088623
19396.945000	16897.048000	1703.600586	-84.877960
19396.945000	16897.048000	1702.581055	27.914286
19396.945000	16897.048000	1701.561523	-112.436333
19396.945000	16897.048000	1700.541016	-23.220860
19396.945000	16897.048000	1699.520508	-44.170486
19396.945000	16897.048000	1698.500000	112.793579
19396.945000	16897.048000	1697.478516	-116.654976
19396.945000	16897.048000	1696.458008	-27.720903
19396.945000	16897.048000	1695.436523	210.899506
19396.945000	16897.048000	1694.415039	404.920654
19396.945000	16897.048000	1693.393555	222.171402
19396.945000	16897.048000	1692.372070	268.656403
19396.945000	16897.048000	1691.349609	481.107697
19396.945000	16897.048000	1690.327148	181.396179
19396.945000	16897.048000	1689.304688	201.999222
19396.945000	16897.048000	1688.282227	535.730042
19396.945000	16897.048000	1687.259766	-44.371464
19396.945000	16897.048000	1686.236328	-65.928886
19396.945000	16897.048000	1685.213867	314.236938
19396.945000	16897.048000	1684.190430	283.182770
19396.945000	16897.048000	1683.166016	203.061630
19396.945000	16897.048000	1682.142578	354.045166
19396.945000	16897.048000	1681.119141	124.482407
19396.945000	16897.048000	1680.094727	389.679321
19396.945000	16897.048000	1679.070313	533.413635
19396.945000	16897.048000	1678.045898	450.783875
19396.945000	16897.048000	1677.020508	281.849823
19396.945000	16897.048000	1675.996094	390.428070
19396.945000	16897.048000	1674.970703	286.770142
19396.945000	16897.048000	1673.945313	201.767258
19396.945000	16897.048000	1672.919922	617.799194
19396.945000	16897.048000	1671.893555	385.902252
19396.945000	16897.048000	1670.868164	435.936310
19396.945000	16897.048000	1669.841797	544.140930
19396.945000	16897.048000	1668.815430	622.001221
19396.945000	16897.048000	1667.789063	329.619781
19396.945000	16897.048000	1666.761719	135.083450
19396.945000	16897.048000	1665.735352	212.889221
19396.945000	16897.048000	1664.708008	646.631836
19396.945000	16897.048000	1663.680664	766.120911
19396.945000	16897.048000	1662.653320	725.052673
19396.945000	16897.048000	1661.625000	218.873413
19396.945000	16897.048000	1660.597656	935.834167
19396.945000	16897.048000	1659.569336	490.201508
19396.945000	16897.048000	1658.541016	360.800659
19396.945000	16897.048000	1657.512695	972.679565
19396.945000	16897.048000	1656.483398	840.870300
19396.945000	16897.048000	1655.455078	493.073395
19396.945000	16897.048000	1654.425781	514.641174
19396.945000	16897.048000	1653.396484	654.598328
19396.945000	16897.048000	1652.366211	882.695557
19396.945000	16897.048000	1651.336914	739.336731
19396.945000	16897.048000	1650.306641	591.377991
19396.945000	16897.048000	1649.276367	765.949463
19396.945000	16897.048000	1648.246094	687.603027
19396.945000	16897.048000	1647.215820	818.003784
19396.945000	16897.048000	1646.185547	841.684143
19396.945000	16897.048000	1645.154297	436.457306
19396.945000	16897.048000	1644.123047	729.047363
19396.945000	16897.048000	1643.091797	938.092041
19396.945000	16897.048000	1642.060547	1012.670654
19396.945000	16897.048000	1641.028320	934.323059
19396.945000	16897.048000	1639.997070	800.418030
19396.945000	16897.048000	1638.964844	1372.819458
19396.945000	16897.048000	1637.931641	1046.716064
19396.945000	16897.048000	1636.899414	1179.050659
19396.945000	16897.048000	1635.867188	1295.136841
19396.945000	16897.048000	1634.833984	1001.635498
19396.945000	16897.048000	1633.800781	1312.032349
19396.945000	16897.048000	1632.767578	1194.430298
19396.945000	16897.048000	1631.734375	1171.689575
19396.945000	16897.048000	1630.700195	1280.740967
19396.945000	16897.048000	1629.666016	1260.316284
19396.945000	16897.048000	1628.631836	1147.459595
19396.945000	16897.048000	1627.597656	1378.949463
19396.945000	16897.048000	1626.563477	1480.986084
19396.945000	16897.048000	1625.528320	1183.402588
19396.945000	16897.048000	1624.493164	1165.376099
19396.945000	16897.048000	1623.458008	1606.837402
19396.945000	16897.048000	1622.422852	1173.252563
19396.945000	16897.048000	1621.387695	1513.020996
19396.945000	16897.048000	1620.351563	1467.315918
19396.945000	16897.048000	1619.315430	1207.091431
19396.945000	16897.048000	1618.279297	1219.173096
19396.945000	16897.048000	1617.243164	1381.167480
19396.945000	16897.048000	1616.207031	1273.357056
19396.945000	16897.048000	1615.169922	1596.692017
19396.945000	16897.048000	1614.132813	1364.466797
19396.945000	16897.048000	1613.095703	1660.057373
19396.945000	16897.048000	1612.058594	1169.925781
19396.945000	16897.048000	1611.020508	1343.405518
19396.945000	16897.048000	1609.983398	1549.098755
19396.945000	16897.048000	1608.945313	1179.093262
19396.945000	16897.048000	1607.907227	1368.682861
19396.945000	16897.048000	1606.868164	1178.450928
19396.945000	16897.048000	1605.830078	1464.683350
19396.945000	16897.048000	1604.791016	1414.924805
19396.945000	16897.048000	1603.751953	1356.023804
19396.945000	16897.048000	1602.712891	1913.547974
19396.945000	16897.048000	1601.673828	1999.513916
19396.945000	16897.048000	1600.633789	1701.552368
19396.945000	16897.048000	1599.594727	1711.753174
19396.945000	16897.048000	1598.554688	1717.395996
19396.945000	16897.048000	1597.513672	1435.872803
19396.945000	16897.048000	1596.473633	1834.476196
19396.945000	16897.048000	1595.433594	1716.204224
19396.945000	16897.048000	1594.392578	1781.726685
19396.945000	16897.048000	1593.351563	1739.364380
19396.945000	16897.048000	1592.310547	1977.110474
19396.945000	16897.048000	1591.268555	1680.084473
19396.945000	16897.048000	1590.227539	2053.226807
19396.945000	16897.048000	1589.185547	2155.575684
19396.945000	16897.048000	1588.143555	2239.592529
19396.945000	16897.048000	1587.100586	2309.865479
19396.945000	16897.048000	1586.058594	2448.955322
19396.945000	16897.048000	1585.015625	1726.159302
19396.945000	16897.048000	1583.972656	1840.211182
19396.945000	16897.048000	1582.929688	1699.940308
19396.945000	16897.048000	1581.886719	2267.676025
19396.945000	16897.048000	1580.843750	2285.540283
19396.945000	16897.048000	1579.799805	2447.731201
19396.945000	16897.048000	1578.755859	2177.193848
19396.945000	16897.048000	1577.711914	2492.846924
19396.945000	16897.048000	1576.666992	2572.701660
19396.945000	16897.048000	1575.623047	2327.672852
19396.945000	16897.048000	1574.578125	2414.535156
19396.945000	16897.048000	1573.533203	2556.326904
19396.945000	16897.048000	1572.488281	2467.158447
19396.945000	16897.048000	1571.443359	2188.327637
19396.945000	16897.048000	1570.397461	2394.302734
19396.945000	16897.048000	1569.351563	2067.746582
19396.945000	16897.048000	1568.305664	2154.992188
19396.945000	16897.048000	1567.259766	2006.962769
19396.945000	16897.048000	1566.213867	2263.373779
19396.945000	16897.048000	1565.166992	1932.838623
19396.945000	16897.048000	1564.120117	2038.621216
19396.945000	16897.048000	1563.073242	2212.929688
19396.945000	16897.048000	1562.026367	2330.190430
19396.945000	16897.048000	1560.978516	2337.954834
19396.945000	16897.048000	1559.930664	2142.748291
19396.945000	16897.048000	1558.883789	2622.896240
19396.945000	16897.048000	1557.834961	2311.569824
19396.945000	16897.048000	1556.787109	2561.369873
19396.945000	16897.048000	1555.739258	2690.339111
19396.945000	16897.048000	1554.690430	2700.826172
19396.945000	16897.048000	1553.641602	3137.531494
19396.945000	16897.048000	1552.592773	3000.014893
19396.945000	16897.048000	1551.542969	3409.339355
19396.945000	16897.048000	1550.494141	3467.869629
19396.945000	16897.048000	1549.444336	3722.293701
19396.945000	16897.048000	1548.394531	4031.351318
19396.945000	16897.048000	1547.344727	4347.210938
19396.945000	16897.048000	1546.293945	3893.865967
19396.945000	16897.048000	1545.244141	4592.062988
19396.945000	16897.048000	1544.193359	4268.706055
19396.945000	16897.048000	1543.142578	4150.271973
19396.945000	16897.048000	1542.090820	3552.196289
19396.945000	16897.048000	1541.040039	3631.935059
19396.945000	16897.048000	1539.988281	3093.498779
19396.945000	16897.048000	1538.936523	2768.996826
19396.945000	16897.048000	1537.884766	2651.488525
19396.945000	16897.048000	1536.833008	2720.404541
19396.945000	16897.048000	1535.780273	2619.059326
19396.945000	16897.048000	1534.727539	2454.284668
19396.945000	16897.048000	1533.674805	2534.870605
19396.945000	16897.048000	1532.622070	1995.872192
19396.945000	16897.048000	1531.569336	1616.048340
19396.945000	16897.048000	1530.515625	1803.729492
19396.945000	16897.048000	1529.461914	1880.286133
19396.945000	16897.048000	1528.408203	1446.617188
19396.945000	16897.048000	1527.354492	1400.993042
19396.945000	16897.048000	1526.299805	1316.959595
19396.945000	16897.048000	1525.246094	1511.876465
19396.945000	16897.048000	1524.191406	1273.983276
19396.945000	16897.048000	1523.136719	988.716003
19396.945000	16897.048000	1522.081055	1077.464722
19396.945000	16897.048000	1521.026367	1265.951416
19396.945000	16897.048000	1519.970703	1164.631348
19396.945000	16897.048000	1518.915039	363.889313
19396.945000	16897.048000	1517.859375	844.768860
19396.945000	16897.048000	1516.802734	680.590271
19396.945000	16897.048000	1515.747070	1093.578247
19396.945000	16897.048000	1514.690430	1011.099426
19396.945000	16897.048000	1513.633789	795.330750
19396.945000	16897.048000	1512.577148	1013.948608
19396.945000	16897.048000	1511.519531	1008.777710
19396.945000	16897.048000	1510.461914	1087.373657
19396.945000	16897.048000	1509.405273	569.420410
19396.945000	16897.048000	1508.346680	643.809631
19396.945000	16897.048000	1507.289063	801.877258
19396.945000	16897.048000	1506.231445	603.139648
19396.945000	16897.048000	1505.172852	860.773682
19396.945000	16897.048000	1504.114258	856.537231
19396.945000	16897.048000	1503.055664	730.532471
19396.945000	16897.048000	1501.996094	760.440491
19396.945000	16897.048000	1500.937500	826.560608
19396.945000	16897.048000	1499.877930	777.739258
19396.945000	16897.048000	1498.818359	753.878113
19396.945000	16897.048000	1497.757813	847.428345
19396.945000	16897.048000	1496.698242	909.504700
19396.945000	16897.048000	1495.637695	863.493591
19396.945000	16897.048000	1494.577148	393.936737
19396.945000	16897.048000	1493.516602	481.260437
19396.945000	16897.048000	1492.456055	728.632996
19396.945000	16897.048000	1491.394531	356.642883
19396.945000	16897.048000	1490.333008	818.151794
19396.945000	16897.048000	1489.271484	367.761658
19396.945000	16897.048000	1488.209961	563.734497
19396.945000	16897.048000	1487.148438	692.250305
19396.945000	16897.048000	1486.085938	591.343445
19396.945000	16897.048000	1485.023438	720.085938
19396.945000	16897.048000	1483.960938	725.204529
19396.945000	16897.048000	1482.898438	638.262024
19396.945000	16897.048000	1481.834961	960.695618
19396.945000	16897.048000	1480.772461	1130.288086
19396.945000	16897.048000	1479.708984	1057.234009
19396.945000	16897.048000	1478.644531	946.139282
19396.945000	16897.048000	1477.581055	884.653198
19396.945000	16897.048000	1476.517578	949.158447
19396.945000	16897.048000	1475.453125	508.522552
19396.945000	16897.048000	1474.388672	277.019196
19396.945000	16897.048000	1473.323242	328.594330
19396.945000	16897.048000	1472.258789	508.223907
19396.945000	16897.048000	1471.193359	387.244965
19396.945000	16897.048000	1470.127930	661.083008
19396.945000	16897.048000	1469.062500	762.515503
19396.945000	16897.048000	1467.997070	491.886322
19396.945000	16897.048000	1466.930664	414.352966
19396.945000	16897.048000	1465.865234	455.487427
19396.945000	16897.048000	1464.798828	590.952576
19396.945000	16897.048000	1463.731445	424.369843
19396.945000	16897.048000	1462.665039	296.423767
19396.945000	16897.048000	1461.597656	51.676270
19396.945000	16897.048000	1460.530273	209.586731
19396.945000	16897.048000	1459.462891	842.405151
19396.945000	16897.048000	1458.395508	718.776001
19396.945000	16897.048000	1457.327148	624.404907
19396.945000	16897.048000	1456.259766	553.146423
19396.945000	16897.048000	1455.191406	449.927368
19396.945000	16897.048000	1454.123047	203.311676
19396.945000	16897.048000	1453.053711	128.165512
19396.945000	16897.048000	1451.985352	536.514343
19396.945000	16897.048000	1450.916016	595.137451
19396.945000	16897.048000	1449.846680	442.133392
19396.945000	16897.048000	1448.776367	690.833618
19396.945000	16897.048000	1447.707031	789.828918
19396.945000	16897.048000	1446.636719	820.903503
19396.945000	16897.048000	1445.566406	930.780334
19396.945000	16897.048000	1444.496094	1033.877319
19396.945000	16897.048000	1443.425781	1546.756592
19396.945000	16897.048000	1442.354492	987.477051
19396.945000	16897.048000	1441.283203	1270.718018
19396.945000	16897.048000	1440.211914	1160.291870
19396.945000	16897.048000	1439.140625	786.139709
19396.945000	16897.048000	1438.069336	488.198914
19396.945000	16897.048000	1436.997070	579.153687
19396.945000	16897.048000	1435.924805	275.682831
19396.945000	16897.048000	1434.852539	430.383698
19396.945000	16897.048000	1433.780273	48.299004
19396.945000	16897.048000	1432.707031	68.082253
19396.945000	16897.048000	1431.633789	0.411624
19396.945000	16897.048000	1430.560547	376.247742
19396.945000	16897.048000	1429.487305	117.809044
19396.945000	16897.048000	1428.413086	-20.375504
19396.945000	16897.048000	1427.339844	23.229006
19396.945000	16897.048000	1426.265625	-92.572937
19396.945000	16897.048000	1425.191406	-123.936020
19396.945000	16897.048000	1424.116211	-313.600342
19396.945000	16897.048000	1423.041992	111.346886
19396.945000	16897.048000	1421.966797	-159.542831
19396.945000	16897.048000	1420.891602	124.223724
19396.945000	16897.048000	1419.816406	-111.353874
19396.945000	16897.048000	1418.740234	-215.737808
19396.945000	16897.048000	1417.665039	-7.086938
19396.945000	16897.048000	1416.588867	103.003029
19396.945000	16897.048000	1415.512695	-3.272247
19396.945000	16897.048000	1414.435547	117.133301
19396.945000	16897.048000	1413.359375	-205.002716
19396.945000	16897.048000	1412.282227	-222.860992
19396.945000	16897.048000	1411.205078	-165.125320
19396.945000	16897.048000	1410.127930	-164.362625
19396.945000	16897.048000	1409.049805	93.481506
19396.945000	16897.048000	1407.972656	50.343616
19396.945000	16897.048000	1406.894531	201.137878
19396.945000	16897.048000	1405.816406	-46.839676
19396.945000	16897.048000	1404.737305	-223.108398
19396.945000	16897.048000	1403.659180	-44.330429
19396.945000	16897.048000	1402.580078	265.784332
19396.945000	16897.048000	1401.500977	342.988434
19396.945000	16897.048000	1400.421875	176.289063
19396.945000	16897.048000	1399.341797	93.397858
19396.945000	16897.048000	1398.262695	-185.619995
19396.945000	16897.048000	1397.182617	93.493500
19396.945000	16897.048000	1396.102539	57.742199
19396.945000	16897.048000	1395.021484	-134.716522
19396.945000	16897.048000	1393.941406	29.337811
19396.945000	16897.048000	1392.860352	-163.076172
19396.945000	16897.048000	1391.779297	-137.275421
19396.945000	16897.048000	1390.698242	-267.612213
19396.945000	16897.048000	1389.616211	-87.536041
19396.945000	16897.048000	1388.535156	10.965326
19396.945000	16897.048000	1387.453125	53.774872
19396.945000	16897.048000	1386.371094	223.842636
19396.945000	16897.048000	1385.288086	445.188202
19396.945000	16897.048000	1384.206055	366.461670
19396.945000	16897.048000	1383.123047	84.464737
19396.945000	16897.048000	1382.040039	79.162636
19396.945000	16897.048000	1380.957031	242.285049
19396.945000	16897.048000	1379.873047	182.174301
19396.945000	16897.048000	1378.789063	281.951508
19396.945000	16897.048000	1377.705078	362.604156
19396.945000	16897.048000	1376.621094	565.615723
19396.945000	16897.048000	1375.537109	433.856598
19396.945000	16897.048000	1374.452148	410.649963
19396.945000	16897.048000	1373.367188	380.639832
19396.945000	16897.048000	1372.282227	550.298035
19396.945000	16897.048000	1371.197266	444.572845
19396.945000	16897.048000	1370.112305	306.899017
19396.945000	16897.048000	1369.026367	439.699890
19396.945000	16897.048000	1367.940430	541.343445
19396.945000	16897.048000	1366.854492	493.475372
19396.945000	16897.048000	1365.767578	425.655884
19396.945000	16897.048000	1364.681641	268.623138
19396.945000	16897.048000	1363.594727	659.809265
19396.945000	16897.048000	1362.507813	680.417725
19396.945000	16897.048000	1361.419922	722.640076
19396.945000	16897.048000	1360.333008	603.446045
19396.945000	16897.048000	1359.245117	701.282104
19396.945000	16897.048000	1358.157227	983.954895
19396.945000	16897.048000	1357.069336	1061.197876
19396.945000	16897.048000	1355.981445	1226.439575
19396.945000	16897.048000	1354.892578	1664.790283
19396.945000	16897.048000	1353.803711	1429.657471
19396.945000	16897.048000	1352.714844	1766.696655
19396.945000	16897.048000	1351.625000	1473.744385
19396.945000	16897.048000	1350.536133	1224.784546
19396.945000	16897.048000	1349.446289	1312.550171
19396.945000	16897.048000	1348.356445	1466.769043
19396.945000	16897.048000	1347.266602	1519.760254
19396.945000	16897.048000	1346.175781	1394.193237
19396.945000	16897.048000	1345.085938	1335.160156
19396.945000	16897.048000	1343.995117	1389.019775
19396.945000	16897.048000	1342.903320	1351.576294
19396.945000	16897.048000	1341.812500	1305.651733
19396.945000	16897.048000	1340.720703	1587.906250
19396.945000	16897.048000	1339.629883	1146.208740
19396.945000	16897.048000	1338.538086	847.854553
19396.945000	16897.048000	1337.445313	1249.282104
19396.945000	16897.048000	1336.353516	1008.187866
19396.945000	16897.048000	1335.260742	1077.756348
19396.945000	16897.048000	1334.167969	1328.145508
19396.945000	16897.048000	1333.075195	1152.596680
19396.945000	16897.048000	1331.981445	1242.289429
19396.945000	16897.048000	1330.888672	1330.304565
19396.945000	16897.048000	1329.794922	1303.360107
19396.945000	16897.048000	1328.701172	1306.424438
19396.945000	16897.048000	1327.606445	1188.255615
19396.945000	16897.048000	1326.512695	923.695679
19396.945000	16897.048000	1325.417969	1465.795044
19396.945000	16897.048000	1324.323242	1313.883301
19396.945000	16897.048000	1323.227539	1199.839844
19396.945000	16897.048000	1322.132813	945.127014
19396.945000	16897.048000	1321.037109	933.139771
19396.945000	16897.048000	1319.941406	881.455322
19396.945000	16897.048000	1318.845703	605.853760
19396.945000	16897.048000	1317.750000	724.630859
19396.945000	16897.048000	1316.653320	583.342163
19396.945000	16897.048000	1315.556641	469.078339
19396.945000	16897.048000	1314.459961	513.580444
19396.945000	16897.048000	1313.363281	428.286743
19396.945000	16897.048000	1312.265625	632.358521
19396.945000	16897.048000	1311.167969	823.294373
19396.945000	16897.048000	1310.070313	414.692749
19396.945000	16897.048000	1308.972656	447.070129
19396.945000	16897.048000	1307.874023	533.386719
19396.945000	16897.048000	1306.776367	509.906067
19396.945000	16897.048000	1305.677734	656.452209
19396.945000	16897.048000	1304.579102	449.617249
19396.945000	16897.048000	1303.479492	484.185791
19396.945000	16897.048000	1302.380859	314.811707
19396.945000	16897.048000	1301.281250	503.815430
19396.945000	16897.048000	1300.181641	695.202942
19396.945000	16897.048000	1299.081055	203.843033
19396.945000	16897.048000	1297.981445	398.805206
19396.945000	16897.048000	1296.880859	172.660217
19396.945000	16897.048000	1295.780273	117.966629
19396.945000	16897.048000	1294.679688	151.783813
19396.945000	16897.048000	1293.578125	258.439636
19396.945000	16897.048000	1292.476563	396.900818
19396.945000	16897.048000	1291.375000	280.361450
19396.945000	16897.048000	1290.273438	366.187561
19396.945000	16897.048000	1289.171875	530.791992
19396.945000	16897.048000	1288.069336	261.301605
19396.945000	16897.048000	1286.966797	535.653625
19396.945000	16897.048000	1285.864258	221.856644
19396.945000	16897.048000	1284.761719	262.552063
19396.945000	16897.048000	1283.658203	341.587494
19396.945000	16897.048000	1282.554688	452.954773
19396.945000	16897.048000	1281.451172	328.791382
19396.945000	16897.048000	1280.347656	543.891052
19396.945000	16897.048000	1279.244141	391.430389
19396.945000	16897.048000	1278.139648	144.561722
19396.945000	16897.048000	1277.035156	556.060059
19396.945000	16897.048000	1275.930664	376.420227
19396.945000	16897.048000	1274.825195	572.597473
19396.945000	16897.048000	1273.720703	342.398621
19396.945000	16897.048000	1272.615234	31.137537
19396.945000	16897.048000	1271.508789	328.274017
19396.945000	16897.048000	1270.403320	395.681213
19396.945000	16897.048000	1269.297852	479.214752
19396.945000	16897.048000	1268.191406	21.032955
19396.945000	16897.048000	1267.084961	159.586487
19396.945000	16897.048000	1265.977539	0.311069
19396.945000	16897.048000	1264.871094	-239.717087
19396.945000	16897.048000	1263.763672	192.478180
19396.945000	16897.048000	1262.656250	120.609169
19396.945000	16897.048000	1261.548828	49.825142
19396.945000	16897.048000	1260.440430	12.569633
19396.945000	16897.048000	1259.333008	-7.452220
19396.945000	16897.048000	1258.224609	-81.670517
19396.945000	16897.048000	1257.115234	86.921394
19396.945000	16897.048000	1256.006836	152.350937
19396.945000	16897.048000	1254.897461	-8.622551
19396.945000	16897.048000	1253.788086	162.252365
19396.945000	16897.048000	1252.678711	46.103428
19396.945000	16897.048000	1251.569336	28.976406
19396.945000	16897.048000	1250.458984	75.615593
19396.945000	16897.048000	1249.349609	-45.275707
19396.945000	16897.048000	1248.239258	-117.106186
19396.945000	16897.048000	1247.127930	-54.880917
19396.945000	16897.048000	1246.017578	178.476532
19396.945000	16897.048000	1244.906250	36.408966
19396.945000	16897.048000	1243.794922	155.742126
19396.945000	16897.048000	1242.683594	169.004227
19396.945000	16897.048000	1241.571289	124.873077
19396.945000	16897.048000	1240.459961	65.212372
19396.945000	16897.048000	1239.347656	141.109329
19396.945000	16897.048000	1238.234375	25.732695
19396.945000	16897.048000	1237.122070	0.018590
19396.945000	16897.048000	1236.008789	-273.115814
19396.945000	16897.048000	1234.896484	77.959007
19396.945000	16897.048000	1233.782227	36.467842
19396.945000	16897.048000	1232.668945	-48.154099
19396.945000	16897.048000	1231.555664	-165.195877
19396.945000	16897.048000	1230.441406	87.781860
19396.945000	16897.048000	1229.327148	46.585651
19396.945000	16897.048000	1228.211914	-108.479958
19396.945000	16897.048000	1227.097656	177.416153
19396.945000	16897.048000	1225.982422	-194.381531
19396.945000	16897.048000	1224.867188	-75.101509
19396.945000	16897.048000	1223.751953	-32.524082
19396.945000	16897.048000	1222.635742	-4.725703
19396.945000	16897.048000	1221.520508	-20.156160
19396.945000	16897.048000	1220.404297	-42.908760
19396.945000	16897.048000	1219.287109	148.630630
19396.945000	16897.048000	1218.170898	151.201904
19396.945000	16897.048000	1217.053711	194.072876
19396.945000	16897.048000	1215.936523	155.982178
19396.945000	16897.048000	1214.819336	222.342880
19396.945000	16897.048000	1213.702148	451.568115
19396.945000	16897.048000	1212.583984	574.360413
19396.945000	16897.048000	1211.465820	654.880493
19396.945000	16897.048000	1210.347656	620.182007
19396.945000	16897.048000	1209.229492	549.676208
19396.945000	16897.048000	1208.110352	408.864349
19396.945000	16897.048000	1206.992188	639.717590
19396.945000	16897.048000	1205.873047	532.444458
19396.945000	16897.048000	1204.752930	244.930649
19396.945000	16897.048000	1203.633789	163.637863
19396.945000	16897.048000	1202.513672	70.319252
19396.945000	16897.048000	1201.393555	-184.889435
19396.945000	16897.048000	1200.273438	-176.024231
19396.945000	16897.048000	1199.152344	-136.732666
19396.945000	16897.048000	1198.032227	-23.929398
19396.945000	16897.048000	1196.911133	-143.148865
19396.945000	16897.048000	1195.790039	-56.323402
19396.945000	16897.048000	1194.667969	100.086800
19396.945000	16897.048000	1193.545898	-71.053619
19396.945000	16897.048000	1192.424805	-228.547729
19396.945000	16897.048000	1191.301758	-45.817722
19396.945000	16897.048000	1190.179688	-251.550476
19396.945000	16897.048000	1189.056641	-166.558456
19396.945000	16897.048000	1187.933594	-260.822418
19396.945000	16897.048000	1186.810547	-171.321671
19396.945000	16897.048000	1185.687500	-250.869476
19396.945000	16897.048000	1184.563477	-53.049534
19396.945000	16897.048000	1183.440430	-264.269104
19396.945000	16897.048000	1182.316406	-207.466324
19396.945000	16897.048000	1181.191406	-70.460495
19396.945000	16897.048000	1180.067383	108.632545
19396.945000	16897.048000	1178.942383	-69.303429
19396.945000	16897.048000	1177.817383	4.931147
19396.945000	16897.048000	1176.692383	90.780869
19396.945000	16897.048000	1175.566406	-131.514175
19396.945000	16897.048000	1174.440430	-176.652634
19396.945000	16897.048000	1173.314453	-64.023888
19396.945000	16897.048000	1172.188477	-276.833679
19396.945000	16897.048000	1171.062500	132.290344
19396.945000	16897.048000	1169.935547	-67.591698
19396.945000	16897.048000	1168.808594	-29.890972
19396.945000	16897.048000	1167.681641	36.079369
19396.945000	16897.048000	1166.553711	76.064796
19396.945000	16897.048000	1165.426758	-126.761597
19396.945000	16897.048000	1164.298828	159.542892
19396.945000	16897.048000	1163.170898	38.096786
19396.945000	16897.048000	1162.041992	-214.723846
19396.945000	16897.048000	1160.914063	-60.969906
19396.945000	16897.048000	1159.785156	-228.148453
19396.945000	16897.048000	1158.656250	-168.347687
19396.945000	16897.048000	1157.526367	-324.359741
19396.945000	16897.048000	1156.397461	-300.400909
19396.945000	16897.048000	1155.267578	-394.551086
19396.945000	16897.048000	1154.137695	-185.202835
19396.945000	16897.048000	1153.006836	-434.300873
19396.945000	16897.048000	1151.876953	-163.959335
19396.945000	16897.048000	1150.746094	-220.897324
19396.945000	16897.048000	1149.615234	-166.602737
19396.945000	16897.048000	1148.484375	-174.076096
19396.945000	16897.048000	1147.352539	-99.979271
19396.945000	16897.048000	1146.220703	-17.434696
19396.945000	16897.048000	1145.088867	74.455605
19396.945000	16897.048000	1143.957031	-179.037354
19396.945000	16897.048000	1142.825195	-218.626877
19396.945000	16897.048000	1141.692383	-62.119759
19396.945000	16897.048000	1140.559570	-7.626262
19396.945000	16897.048000	1139.426758	121.433281
19396.945000	16897.048000	1138.292969	-26.431723
19396.945000	16897.048000	1137.159180	-139.147659
19396.945000	16897.048000	1136.025391	96.488190
19396.945000	16897.048000	1134.891602	120.920769
19396.945000	16897.048000	1133.757813	187.104782
19396.945000	16897.048000	1132.623047	279.051239
19396.945000	16897.048000	1131.488281	189.187714
19396.945000	16897.048000	1130.353516	374.582214
19396.945000	16897.048000	1129.217773	402.270935
19396.945000	16897.048000	1128.083008	224.289810
19396.945000	16897.048000	1126.947266	584.561096
19396.945000	16897.048000	1125.811523	386.606506
19396.945000	16897.048000	1124.674805	259.407288
19396.945000	16897.048000	1123.539063	153.986435
19396.945000	16897.048000	1122.402344	193.996002
19396.945000	16897.048000	1121.265625	116.040154
19396.945000	16897.048000	1120.127930	-3.622865
19396.945000	16897.048000	1118.990234	195.312500
19396.945000	16897.048000	1117.853516	141.742004
19396.945000	16897.048000	1116.714844	348.190308
19396.945000	16897.048000	1115.577148	379.948730
19396.945000	16897.048000	1114.439453	719.636658
19396.945000	16897.048000	1113.300781	731.326355
19396.945000	16897.048000	1112.162109	692.907837
19396.945000	16897.048000	1111.022461	1160.804810
19396.945000	16897.048000	1109.883789	1062.251465
19396.945000	16897.048000	1108.744141	1295.747314
19396.945000	16897.048000	1107.604492	1426.599121
19396.945000	16897.048000	1106.463867	1363.655884
19396.945000	16897.048000	1105.324219	1002.818420
19396.945000	16897.048000	1104.183594	979.794861
19396.945000	16897.048000	1103.042969	582.050293
19396.945000	16897.048000	1101.902344	540.002502
19396.945000	16897.048000	1100.760742	430.873352
19396.945000	16897.048000	1099.619141	643.870300
19396.945000	16897.048000	1098.477539	446.835175
19396.945000	16897.048000	1097.335938	280.297150
19396.945000	16897.048000	1096.193359	332.069397
19396.945000	16897.048000	1095.051758	657.044861
19396.945000	16897.048000	1093.909180	299.896698
19396.945000	16897.048000	1092.765625	318.376648
19396.945000	16897.048000	1091.623047	225.567566
19396.945000	16897.048000	1090.479492	267.107025
19396.945000	16897.048000	1089.335938	244.523865
19396.945000	16897.048000	1088.192383	278.142273
19396.945000	16897.048000	1087.047852	133.690826
19396.945000	16897.048000	1085.903320	199.239624
19396.945000	16897.048000	1084.758789	216.833618
19396.945000	16897.048000	1083.614258	-101.529106
19396.945000	16897.048000	1082.469727	-78.299690
19396.945000	16897.048000	1081.324219	-3.790978
19396.945000	16897.048000	1080.178711	160.675049
19396.945000	16897.048000	1079.033203	96.584770
19396.945000	16897.048000	1077.886719	-156.107315
19396.945000	16897.048000	1076.740234	27.948977
19396.945000	16897.048000	1075.593750	-7.111502
19396.945000	16897.048000	1074.447266	-124.079666
19396.945000	16897.048000	1073.300781	-21.363604
19396.945000	16897.048000	1072.153320	4.320827
19396.945000	16897.048000	1071.005859	-59.048740
19396.945000	16897.048000	1069.858398	-16.560066
19396.945000	16897.048000	1068.709961	177.996536
19396.945000	16897.048000	1067.561523	259.559937
19396.945000	16897.048000	1066.413086	211.708389
19396.945000	16897.048000	1065.264648	298.219421
19396.945000	16897.048000	1064.116211	358.319763
19396.945000	16897.048000	1062.966797	32.673786
19396.945000	16897.048000	1061.817383	229.660263
19396.945000	16897.048000	1060.667969	132.170013
19396.945000	16897.048000	1059.517578	226.699188
19396.945000	16897.048000	1058.368164	173.273590
19396.945000	16897.048000	1057.217773	115.697754
19396.945000	16897.048000	1056.067383	229.016937
19396.945000	16897.048000	1054.916016	493.978943
19396.945000	16897.048000	1053.764648	142.137070
19396.945000	16897.048000	1052.613281	248.098969
19396.945000	16897.048000	1051.461914	216.835571
19396.945000	16897.048000	1050.310547	357.894043
19396.945000	16897.048000	1049.158203	445.644775
19396.945000	16897.048000	1048.005859	103.014610
19396.945000	16897.048000	1046.853516	425.070221
19396.945000	16897.048000	1045.700195	243.502075
19396.945000	16897.048000	1044.547852	308.654572
19396.945000	16897.048000	1043.394531	484.381012
19396.945000	16897.048000	1042.240234	-27.531460
19396.945000	16897.048000	1041.086914	132.861679
19396.945000	16897.048000	1039.932617	226.850739
19396.945000	16897.048000	1038.778320	374.042938
19396.945000	16897.048000	1037.624023	269.477692
19396.945000	16897.048000	1036.469727	446.606445
19396.945000	16897.048000	1035.314453	282.708893
19396.945000	16897.048000	1034.159180	305.472687
19396.945000	16897.048000	1033.003906	363.218475
19396.945000	16897.048000	1031.847656	660.547913
19396.945000	16897.048000	1030.692383	680.383667
19396.945000	16897.048000	1029.536133	391.178650
19396.945000	16897.048000	1028.378906	515.546265
19396.945000	16897.048000	1027.222656	397.429138
19396.945000	16897.048000	1026.065430	391.264160
19396.945000	16897.048000	1024.908203	405.108795
19396.945000	16897.048000	1023.750977	263.828674
19396.945000	16897.048000	1022.593750	323.707397
19396.945000	16897.048000	1021.435547	115.551048
19396.945000	16897.048000	1020.277344	166.714310
19396.945000	16897.048000	1019.119141	71.806992
19396.945000	16897.048000	1017.959961	136.715012
19396.945000	16897.048000	1016.800781	152.207382
19396.945000	16897.048000	1015.641602	-56.311138
19396.945000	16897.048000	1014.482422	82.142258
19396.945000	16897.048000	1013.323242	222.612946
19396.945000	16897.048000	1012.163086	-53.767464
19396.945000	16897.048000	1011.002930	92.920898
19396.945000	16897.048000	1009.842773	236.750732
19396.945000	16897.048000	1008.681641	163.533142
19396.945000	16897.048000	1007.520508	212.512436
19396.945000	16897.048000	1006.359375	-26.664461
19396.945000	16897.048000	1005.198242	403.366180
19396.945000	16897.048000	1004.037109	127.190773
19396.945000	16897.048000	1002.875000	197.323181
19396.945000	16897.048000	1001.712891	473.545197
19396.945000	16897.048000	1000.550781	19.494030
19396.945000	16897.048000	999.387695	76.261452
19396.945000	16897.048000	998.224609	-17.903690
19396.945000	16897.048000	997.061523	-7.659140
19396.945000	16897.048000	995.898438	237.919403
19396.945000	16897.048000	994.734375	156.157837
19396.945000	16897.048000	993.571289	-9.666532
19396.945000	16897.048000	992.407227	-31.752079
19396.945000	16897.048000	991.242188	-18.454004
19396.945000	16897.048000	990.078125	-156.383240
19396.945000	16897.048000	988.913086	-49.140919
19396.945000	16897.048000	987.748047	-191.793945
19396.945000	16897.048000	986.583008	28.121065
19396.945000	16897.048000	985.416992	204.095474
19396.945000	16897.048000	984.250977	84.669991
19396.945000	16897.048000	983.084961	-166.420486
19396.945000	16897.048000	981.918945	-154.585648
19396.945000	16897.048000	980.751953	-108.691795
19396.945000	16897.048000	979.584961	-311.717468
19396.945000	16897.048000	978.417969	31.183540
19396.945000	16897.048000	977.250977	261.740234
19396.945000	16897.048000	976.083008	-59.599495
19396.945000	16897.048000	974.915039	163.809128
19396.945000	16897.048000	973.747070	-15.582235
19396.945000	16897.048000	972.579102	60.941776
19396.945000	16897.048000	971.410156	126.516266
19396.945000	16897.048000	970.242188	170.700577
19396.945000	16897.048000	969.072266	275.553162
19396.945000	16897.048000	967.903320	410.264587
19396.945000	16897.048000	966.733398	752.895325
19396.945000	16897.048000	965.563477	629.963684
19396.945000	16897.048000	964.393555	637.200684
19396.945000	16897.048000	963.223633	619.856750
19396.945000	16897.048000	962.052734	968.025574
19396.945000	16897.048000	960.881836	761.796021
19396.945000	16897.048000	959.710938	875.569031
19396.945000	16897.048000	958.540039	1120.579346
19396.945000	16897.048000	957.368164	899.188049
19396.945000	16897.048000	956.196289	882.706909
19396.945000	16897.048000	955.024414	1045.489868
19396.945000	16897.048000	953.851563	1300.813843
19396.945000	16897.048000	952.679688	1295.319824
19396.945000	16897.048000	951.506836	1668.379395
19396.945000	16897.048000	950.333984	1627.208862
19396.945000	16897.048000	949.160156	1653.164917
19396.945000	16897.048000	947.986328	1705.526489
19396.945000	16897.048000	946.812500	1662.120239
19396.945000	16897.048000	945.638672	1441.649658
19396.945000	16897.048000	944.464844	1202.332275
19396.945000	16897.048000	943.290039	825.311401
19396.945000	16897.048000	942.115234	669.108521
19396.945000	16897.048000	940.940430	692.579590
19396.945000	16897.048000	939.764648	609.004517
19396.945000	16897.048000	938.588867	590.301514
19396.945000	16897.048000	937.413086	285.195648
19396.945000	16897.048000	936.237305	-88.328300
19396.945000	16897.048000	935.060547	207.503632
19396.945000	16897.048000	933.883789	291.648804
19396.945000	16897.048000	932.707031	558.504150
19396.945000	16897.048000	931.530273	423.206848
19396.945000	16897.048000	930.352539	352.569702
19396.945000	16897.048000	929.175781	468.657867
19396.945000	16897.048000	927.998047	720.022217
19396.945000	16897.048000	926.819336	620.709900
19396.945000	16897.048000	925.641602	542.251221
19396.945000	16897.048000	924.462891	703.772888
19396.945000	16897.048000	923.284180	530.031616
19396.945000	16897.048000	922.104492	548.603333
19396.945000	16897.048000	920.924805	818.401123
19396.945000	16897.048000	919.746094	824.769714
19396.945000	16897.048000	919.551758	266.841644
19396.945000	16897.048000	918.386719	266.175476
19396.945000	16897.048000	917.220703	115.159225
19396.945000	16897.048000	916.054688	570.940369
19396.945000	16897.048000	914.887695	-28.995195
19396.945000	16897.048000	913.721680	-122.977516
19396.945000	16897.048000	912.554688	121.410110
19396.945000	16897.048000	911.387695	19.733318
19396.945000	16897.048000	910.220703	-93.355171
19396.945000	16897.048000	909.052734	25.337364
19396.945000	16897.048000	907.885742	295.881653
19396.945000	16897.048000	906.717773	-77.513115
19396.945000	16897.048000	905.548828	409.299835
19396.945000	16897.048000	904.380859	-87.458176
19396.945000	16897.048000	903.211914	-255.720749
19396.945000	16897.048000	902.042969	-15.996152
19396.945000	16897.048000	900.874023	45.251110
19396.945000	16897.048000	899.704102	-64.278793
19396.945000	16897.048000	898.535156	-143.475433
19396.945000	16897.048000	897.365234	173.574783
19396.945000	16897.048000	896.194336	-91.493156
19396.945000	16897.048000	895.024414	200.685303
19396.945000	16897.048000	893.853516	98.578209
19396.945000	16897.048000	892.682617	-177.822418
19396.945000	16897.048000	891.511719	-46.936199
19396.945000	16897.048000	890.340820	98.996964
19396.945000	16897.048000	889.168945	-167.903259
19396.945000	16897.048000	887.997070	-237.881012
19396.945000	16897.048000	886.825195	-313.553223
19396.945000	16897.048000	885.653320	-82.718369
19396.945000	16897.048000	884.480469	-73.350731
19396.945000	16897.048000	883.307617	-202.098602
19396.945000	16897.048000	882.134766	-258.983215
19396.945000	16897.048000	880.961914	-331.015991
19396.945000	16897.048000	879.788086	-283.976044
19396.945000	16897.048000	878.614258	-386.294739
19396.945000	16897.048000	877.440430	-95.616371
19396.945000	16897.048000	876.266602	-266.024658
19396.945000	16897.048000	875.091797	-255.091812
19396.945000	16897.048000	873.916992	-125.249100
19396.945000	16897.048000	872.742188	-127.650589
19396.945000	16897.048000	871.567383	-252.782364
19396.945000	16897.048000	870.391602	-272.222687
19396.945000	16897.048000	869.215820	-221.890930
19396.945000	16897.048000	868.040039	-65.990028
19396.945000	16897.048000	866.864258	-293.035400
19396.945000	16897.048000	865.687500	-56.185478
19396.945000	16897.048000	864.510742	-100.361557
19396.945000	16897.048000	863.333984	2.450262
19396.945000	16897.048000	862.157227	82.566574
19396.945000	16897.048000	860.979492	-6.946637
19396.945000	16897.048000	859.802734	-298.015717
19396.945000	16897.048000	858.625000	215.135605
19396.945000	16897.048000	857.446289	-190.787521
19396.945000	16897.048000	856.268555	47.210636
19396.945000	16897.048000	855.089844	-215.556793
19396.945000	16897.048000	853.911133	-312.667023
19396.945000	16897.048000	852.731445	-54.212543
19396.945000	16897.048000	851.552734	4.718623
19396.945000	16897.048000	850.373047	114.361221
19396.945000	16897.048000	849.193359	126.153770
19396.945000	16897.048000	848.013672	-129.024704
19396.945000	16897.048000	846.833008	-145.454346
19396.945000	16897.048000	845.652344	144.354202
19396.945000	16897.048000	844.471680	-56.305958
19396.945000	16897.048000	843.291016	184.453979
19396.945000	16897.048000	842.110352	103.968117
19396.945000	16897.048000	840.928711	308.850647
19396.945000	16897.048000	839.747070	166.354736
19396.945000	16897.048000	838.564453	192.780045
19396.945000	16897.048000	837.382813	204.144760
19396.945000	16897.048000	836.200195	191.079300
19396.945000	16897.048000	835.017578	80.456085
19396.945000	16897.048000	833.834961	436.743958
19396.945000	16897.048000	832.651367	655.992432
19396.945000	16897.048000	831.467773	653.939209
19396.945000	16897.048000	830.284180	1095.977051
19396.945000	16897.048000	829.100586	1146.217285
19396.945000	16897.048000	827.916992	1295.675537
19396.945000	16897.048000	826.732422	1366.381836
19396.945000	16897.048000	825.547852	1004.489807
19396.945000	16897.048000	824.363281	801.833740
19396.945000	16897.048000	823.177734	747.083801
19396.945000	16897.048000	821.992188	441.569763
19396.945000	16897.048000	820.806641	540.250793
19396.945000	16897.048000	819.621094	502.308441
19396.945000	16897.048000	818.434570	524.188354
19396.945000	16897.048000	817.249023	437.575745
19396.945000	16897.048000	816.062500	511.724884
19396.945000	16897.048000	814.875000	813.817383
19396.945000	16897.048000	813.688477	863.489746
19396.945000	16897.048000	812.500977	774.863342
19396.945000	16897.048000	811.313477	846.861877
19396.945000	16897.048000	810.125977	558.387817
19396.945000	16897.048000	808.937500	706.876648
19396.945000	16897.048000	807.749023	345.676086
19396.945000	16897.048000	806.560547	503.403320
19396.945000	16897.048000	805.372070	506.159973
19396.945000	16897.048000	804.182617	313.004517
19396.945000	16897.048000	802.994141	429.493927
19396.945000	16897.048000	801.803711	90.916656
19396.945000	16897.048000	800.614258	4.119112
19396.945000	16897.048000	799.424805	211.819855
19396.945000	16897.048000	798.234375	72.780281
19396.945000	16897.048000	797.043945	252.360092
19396.945000	16897.048000	795.852539	413.201477
19396.945000	16897.048000	794.662109	369.072845
19396.945000	16897.048000	793.470703	205.760468
19396.945000	16897.048000	792.279297	327.303864
19396.945000	16897.048000	791.087891	186.326096
19396.945000	16897.048000	789.895508	248.201660
19396.945000	16897.048000	788.703125	440.243561
19396.945000	16897.048000	787.510742	107.631531
19396.945000	16897.048000	786.318359	-20.316048
19396.945000	16897.048000	785.125000	221.751755
19396.945000	16897.048000	783.931641	86.321899
19396.945000	16897.048000	782.738281	240.841705
19396.945000	16897.048000	781.544922	597.795532
19396.945000	16897.048000	780.350586	298.778442
19396.945000	16897.048000	779.156250	326.742249
19396.945000	16897.048000	777.961914	40.827702
19396.945000	16897.048000	776.767578	183.868790
19396.945000	16897.048000	775.572266	-79.697838
19396.945000	16897.048000	774.376953	-90.799026
19396.945000	16897.048000	773.181641	144.838715
19396.945000	16897.048000	771.986328	89.098251
19396.945000	16897.048000	770.790039	-94.628815
19396.945000	16897.048000	769.593750	222.338226
19396.945000	16897.048000	768.397461	199.872498
19396.945000	16897.048000	767.201172	240.399811
19396.945000	16897.048000	766.003906	503.247253
19396.945000	16897.048000	764.806641	682.574158
19396.945000	16897.048000	763.609375	806.218506
19396.945000	16897.048000	762.412109	740.873657
19396.945000	16897.048000	761.213867	660.706543
19396.945000	16897.048000	760.015625	393.562103
19396.945000	16897.048000	758.817383	481.850586
19396.945000	16897.048000	757.618164	209.230942
19396.945000	16897.048000	756.419922	360.346527
19396.945000	16897.048000	755.220703	335.643921
19396.945000	16897.048000	754.021484	377.489868
19396.945000	16897.048000	752.821289	175.228683
19396.945000	16897.048000	751.621094	107.955666
19396.945000	16897.048000	750.420898	155.254913
19396.945000	16897.048000	749.220703	167.394119
19396.945000	16897.048000	748.020508	68.648842
19396.945000	16897.048000	746.819336	285.738312
19396.945000	16897.048000	745.618164	-130.671738
19396.945000	16897.048000	744.416992	62.295845
19396.945000	16897.048000	743.214844	59.493023
19396.945000	16897.048000	742.012695	86.181374
19396.945000	16897.048000	740.810547	27.950914
19396.945000	16897.048000	739.608398	-37.666920
19396.945000	16897.048000	738.406250	-1.861392
19396.945000	16897.048000	737.203125	20.988914
19396.945000	16897.048000	736.000000	218.925049
19396.945000	16897.048000	734.795898	403.841797
19396.945000	16897.048000	733.592773	218.260742
19396.945000	16897.048000	732.388672	159.842361
19396.945000	16897.048000	731.184570	350.079010
19396.945000	16897.048000	729.979492	560.457214
19396.945000	16897.048000	728.775391	470.602325
19396.945000	16897.048000	727.570313	417.567200
19396.945000	16897.048000	726.365234	489.668549
19396.945000	16897.048000	725.160156	300.422333
19396.945000	16897.048000	723.954102	-24.909674
19396.945000	16897.048000	722.748047	67.370262
19396.945000	16897.048000	721.541992	291.981171
19396.945000	16897.048000	720.334961	-114.137367
19396.945000	16897.048000	719.128906	125.058365
19396.945000	16897.048000	717.921875	38.843601
19396.945000	16897.048000	716.714844	130.857620
19396.945000	16897.048000	715.506836	112.584808
19396.945000	16897.048000	714.298828	105.307091
19396.945000	16897.048000	713.090820	109.020935
19396.945000	16897.048000	711.882813	-47.011532
19396.945000	16897.048000	710.674805	-46.996952
19396.945000	16897.048000	709.465820	-4.808382
19396.945000	16897.048000	708.256836	-3.025080
19396.945000	16897.048000	707.047852	39.081909
19396.945000	16897.048000	705.837891	29.793791
19396.945000	16897.048000	704.627930	154.328278
19396.945000	16897.048000	703.417969	242.121414
19396.945000	16897.048000	702.208008	-51.353683
19396.945000	16897.048000	700.998047	87.698418
19396.945000	16897.048000	699.787109	124.076469
19396.945000	16897.048000	698.576172	-204.064163
19396.945000	16897.048000	697.364258	-57.819260
19396.945000	16897.048000	696.153320	-393.155792
19396.945000	16897.048000	694.941406	11.109133
19396.945000	16897.048000	693.729492	-100.884621
19396.945000	16897.048000	692.516602	-357.396912
19396.945000	16897.048000	691.304688	0.808591
19396.945000	16897.048000	690.091797	442.971344
19396.945000	16897.048000	688.878906	-102.456154
19396.945000	16897.048000	687.665039	-124.837303
19396.945000	16897.048000	686.451172	-213.026199
19396.945000	16897.048000	685.237305	-281.096375
19396.945000	16897.048000	684.023438	-195.689743
19396.945000	16897.048000	682.809570	24.829165
19396.945000	16897.048000	681.594727	-43.299530
19396.945000	16897.048000	680.379883	171.583893
19396.945000	16897.048000	679.165039	45.009460
19396.945000	16897.048000	677.949219	64.477081
19396.945000	16897.048000	676.733398	328.423889
19396.945000	16897.048000	675.517578	380.633881
19396.945000	16897.048000	674.301758	221.238663
19396.945000	16897.048000	673.084961	364.599518
19396.945000	16897.048000	671.869141	394.857697
19396.945000	16897.048000	670.651367	208.189072
19396.945000	16897.048000	669.434570	278.540527
19396.945000	16897.048000	668.216797	314.235352
19396.945000	16897.048000	667.000000	433.703949
19396.945000	16897.048000	665.781250	283.577301
19396.945000	16897.048000	664.563477	126.226189
19396.945000	16897.048000	663.344727	54.497383
19396.945000	16897.048000	662.125977	261.257935
19396.945000	16897.048000	660.907227	144.034210
19396.945000	16897.048000	659.688477	-104.129913
19396.945000	16897.048000	658.468750	262.591797
19396.945000	16897.048000	657.249023	301.830170
19396.945000	16897.048000	656.029297	333.781464
19396.945000	16897.048000	654.808594	51.252426
19396.945000	16897.048000	653.587891	159.575089
19396.945000	16897.048000	652.367188	200.631302
19396.945000	16897.048000	651.146484	448.763916
19396.945000	16897.048000	649.924805	239.117676
19396.945000	16897.048000	648.704102	369.125000
19396.945000	16897.048000	647.482422	517.238464
19396.945000	16897.048000	646.259766	409.378967
19396.945000	16897.048000	645.037109	713.503662
19396.945000	16897.048000	643.815430	906.841003
19396.945000	16897.048000	642.591797	1593.485352
19396.945000	16897.048000	641.369141	2098.504639
19396.945000	16897.048000	640.145508	2882.545166
19396.945000	16897.048000	638.921875	3648.143799
19396.945000	16897.048000	637.698242	4206.827148
19396.945000	16897.048000	636.474609	3969.838379
19396.945000	16897.048000	635.250000	3522.824951
19396.945000	16897.048000	634.025391	2438.479736
19396.945000	16897.048000	632.800781	1834.483765
19396.945000	16897.048000	631.575195	1406.378662
19396.945000	16897.048000	630.349609	1155.863403
19396.945000	16897.048000	629.124023	905.482422
19396.945000	16897.048000	627.898438	895.869568
19396.945000	16897.048000	626.671875	754.238525
19396.945000	16897.048000	625.445313	569.294189
19396.945000	16897.048000	624.218750	686.418579
19396.945000	16897.048000	622.992188	949.952942
19396.945000	16897.048000	621.764648	929.653870
19396.945000	16897.048000	620.537109	388.985931
19396.945000	16897.048000	619.309570	629.036438
19396.945000	16897.048000	618.081055	240.456573
19396.945000	16897.048000	616.852539	126.570358
19396.945000	16897.048000	615.624023	-39.585835
19396.945000	16897.048000	614.395508	-194.799805
19396.945000	16897.048000	613.166992	-178.460907
19396.945000	16897.048000	611.937500	-210.798538
19396.945000	16897.048000	610.708008	-95.156891
19396.945000	16897.048000	609.477539	103.443710
19396.945000	16897.048000	608.248047	-130.745270
19396.945000	16897.048000	607.017578	-63.724682
19396.945000	16897.048000	605.787109	-404.020508
19396.945000	16897.048000	604.555664	-322.449860
19396.945000	16897.048000	603.325195	-62.501762
19396.945000	16897.048000	602.093750	-242.110397
19396.945000	16897.048000	600.861328	-297.327148
19396.945000	16897.048000	599.629883	-35.582790
19396.945000	16897.048000	598.397461	-148.307327
19396.945000	16897.048000	597.165039	-241.126724
19396.945000	16897.048000	595.932617	-213.291763
19396.945000	16897.048000	594.699219	-394.084015
19396.945000	16897.048000	593.465820	27.780510
19396.945000	16897.048000	592.232422	-84.527138
19396.945000	16897.048000	590.999023	-169.753876
19396.945000	16897.048000	589.764648	27.314947
19396.945000	16897.048000	588.530273	96.779472
19396.945000	16897.048000	587.295898	335.168091
19396.945000	16897.048000	586.061523	307.679138
19396.945000	16897.048000	584.826172	136.605545
19396.945000	16897.048000	583.590820	123.677986
19396.945000	16897.048000	582.355469	82.108376
19396.945000	16897.048000	581.119141	137.549133
19396.945000	16897.048000	579.882813	171.506073
19396.945000	16897.048000	578.646484	-34.863636
19396.945000	16897.048000	577.410156	99.712334
19396.945000	16897.048000	576.172852	-188.884933
19396.945000	16897.048000	574.935547	-64.933205
19396.945000	16897.048000	573.698242	80.556587
19396.945000	16897.048000	572.460938	-162.811325
19396.945000	16897.048000	571.222656	204.965347
19396.945000	16897.048000	569.984375	372.044006
19396.945000	16897.048000	568.746094	274.081512
19396.945000	16897.048000	567.506836	67.025528
19396.945000	16897.048000	566.267578	193.105392
19396.945000	16897.048000	565.028320	82.970055
19396.945000	16897.048000	563.789063	298.631622
19396.945000	16897.048000	562.548828	115.344536
19396.945000	16897.048000	561.309570	241.648010
19396.945000	16897.048000	560.068359	42.531147
19396.945000	16897.048000	558.828125	210.093246
19396.945000	16897.048000	557.586914	52.354557
19396.945000	16897.048000	556.345703	32.375496
19396.945000	16897.048000	555.104492	21.423685
19396.945000	16897.048000	553.863281	-218.080978
19396.945000	16897.048000	552.621094	65.881607
19396.945000	16897.048000	551.378906	158.758041
19396.945000	16897.048000	550.136719	142.786362
19396.945000	16897.048000	548.893555	94.785515
19396.945000	16897.048000	547.650391	66.518059
19396.945000	16897.048000	546.407227	-152.539902
19396.945000	16897.048000	545.164063	-66.416222
19396.945000	16897.048000	543.919922	51.858353
19396.945000	16897.048000	542.675781	88.153214
19396.945000	16897.048000	541.431641	341.981262
19396.945000	16897.048000	540.186523	365.895660
19396.945000	16897.048000	538.941406	-68.025696
19396.945000	16897.048000	537.696289	200.173187
19396.945000	16897.048000	536.451172	466.557526
19396.945000	16897.048000	535.205078	152.436249
19396.945000	16897.048000	533.959961	393.949402
19396.945000	16897.048000	532.712891	348.889435
19396.945000	16897.048000	531.466797	424.923737
19396.945000	16897.048000	530.219727	488.546204
19396.945000	16897.048000	528.972656	505.968170
19396.945000	16897.048000	527.725586	614.144653
19396.945000	16897.048000	526.478516	576.554138
19396.945000	16897.048000	525.230469	576.376099
19396.945000	16897.048000	523.982422	757.530151
19396.945000	16897.048000	522.734375	848.052856
19396.945000	16897.048000	521.485352	398.574585
19396.945000	16897.048000	520.236328	904.838623
19396.945000	16897.048000	518.987305	643.865540
19396.945000	16897.048000	517.737305	928.058899
19396.945000	16897.048000	516.488281	715.209717
19396.945000	16897.048000	515.238281	967.413025
19396.945000	16897.048000	513.988281	781.346680
19396.945000	16897.048000	512.737305	959.011353
19396.945000	16897.048000	511.486328	1078.111694
19396.945000	16897.048000	510.235352	1085.493408
19396.945000	16897.048000	508.984375	1151.388672
19396.945000	16897.048000	507.732422	1160.570923
19396.945000	16897.048000	506.480469	1155.589722
19396.945000	16897.048000	505.228516	1334.848633
19396.945000	16897.048000	503.976563	1406.002808
19396.945000	16897.048000	502.723633	1445.258545
19396.945000	16897.048000	501.470703	1413.680420
19396.945000	16897.048000	500.217773	1500.688477
19396.945000	16897.048000	498.963867	1323.988647
19396.945000	16897.048000	497.709961	1939.919800
19396.945000	16897.048000	496.456055	1665.866577
19396.945000	16897.048000	495.202148	1390.127197
19396.945000	16897.048000	493.947266	1660.783203
19396.945000	16897.048000	492.692383	1503.508911
19396.945000	16897.048000	491.437500	1727.970947
19396.945000	16897.048000	490.181641	1920.474731
19396.945000	16897.048000	488.926758	1710.058838
19396.945000	16897.048000	487.670898	2041.854614
19396.945000	16897.048000	486.414063	2097.970703
19396.945000	16897.048000	485.158203	2335.792969
19396.945000	16897.048000	483.901367	2321.020020
19396.945000	16897.048000	482.644531	2452.601563
19396.945000	16897.048000	481.386719	2649.281738
19396.945000	16897.048000	480.128906	2679.946045
19396.945000	16897.048000	478.871094	2671.656250
19396.945000	16897.048000	477.613281	2821.892822
19396.945000	16897.048000	476.355469	2580.584473
19396.945000	16897.048000	475.096680	2649.373779
19396.945000	16897.048000	473.837891	2828.949463
19396.945000	16897.048000	472.578125	2719.357178
19396.945000	16897.048000	471.319336	2628.972412
19396.945000	16897.048000	470.059570	2872.956055
19396.945000	16897.048000	468.799805	3146.525146
19396.945000	16897.048000	467.539063	3187.406982
19396.945000	16897.048000	466.278320	3175.218994
19396.945000	16897.048000	465.017578	3301.744141
19396.945000	16897.048000	463.756836	3464.859131
19396.945000	16897.048000	462.495117	3323.378418
19396.945000	16897.048000	461.233398	3540.297607
19396.945000	16897.048000	459.971680	3280.437500
19396.945000	16897.048000	458.709961	3373.569092
19396.945000	16897.048000	457.447266	3323.977295
19396.945000	16897.048000	456.184570	3375.904785
19396.945000	16897.048000	454.921875	3253.541748
19396.945000	16897.048000	453.658203	3580.304932
19396.945000	16897.048000	452.394531	3541.354980
19396.945000	16897.048000	451.130859	3596.737793
19396.945000	16897.048000	449.867188	3784.977295
19396.945000	16897.048000	448.602539	3558.618652
19396.945000	16897.048000	447.337891	3984.309326
19396.945000	16897.048000	446.073242	3702.589600
19396.945000	16897.048000	444.807617	3844.704590
19396.945000	16897.048000	443.542969	3413.011230
19396.945000	16897.048000	442.276367	3899.168213
19396.945000	16897.048000	441.010742	3757.259521
19396.945000	16897.048000	439.744141	3991.367432
19396.945000	16897.048000	438.478516	4077.598633
19396.945000	16897.048000	437.210938	3921.455566
19396.945000	16897.048000	435.944336	4060.505859
19396.945000	16897.048000	434.676758	4035.974121
19396.945000	16897.048000	433.409180	3756.960449
19396.945000	16897.048000	432.141602	4009.082764
19396.945000	16897.048000	430.873047	3999.654053
19396.945000	16897.048000	429.604492	3935.160645
19396.945000	16897.048000	428.335938	4133.794922
19396.945000	16897.048000	427.067383	4226.555176
19396.945000	16897.048000	425.797852	4182.008789
19396.945000	16897.048000	424.528320	4185.420898
19396.945000	16897.048000	423.258789	4229.742188
19396.945000	16897.048000	421.988281	4330.618164
19396.945000	16897.048000	420.717773	4463.545898
19396.945000	16897.048000	419.447266	4246.181152
19396.945000	16897.048000	418.175781	4361.088379
19396.945000	16897.048000	416.905273	4247.949707
19396.945000	16897.048000	415.633789	4513.919434
19396.945000	16897.048000	414.362305	4982.577148
19396.945000	16897.048000	413.089844	4795.822754
19396.945000	16897.048000	411.817383	4677.548828
19396.945000	16897.048000	410.544922	4913.518066
19396.945000	16897.048000	409.272461	5144.487305
19396.945000	16897.048000	407.999023	4750.166504
19396.945000	16897.048000	406.725586	5188.854492
19396.945000	16897.048000	405.452148	4814.295410
19396.945000	16897.048000	404.177734	4621.097168
19396.945000	16897.048000	402.903320	4628.272461
19396.945000	16897.048000	401.628906	4821.723145
19396.945000	16897.048000	400.354492	4594.040527
19396.945000	16897.048000	399.079102	4522.949707
19396.945000	16897.048000	397.803711	4688.337402
19396.945000	16897.048000	396.528320	4451.858398
19396.945000	16897.048000	395.251953	4526.436035
19396.945000	16897.048000	393.976563	4426.979492
19396.945000	16897.048000	392.700195	4381.105469
19396.945000	16897.048000	391.422852	4503.379395
19396.945000	16897.048000	390.145508	4454.979004
19396.945000	16897.048000	388.869141	4440.918945
19396.945000	16897.048000	387.590820	4292.570801
19396.945000	16897.048000	386.313477	4320.807129
19396.945000	16897.048000	385.035156	4311.902344
19396.945000	16897.048000	383.756836	3896.305664
19396.945000	16897.048000	382.478516	4075.114746
19396.945000	16897.048000	381.199219	4362.224609
19396.945000	16897.048000	379.919922	3944.355957
19396.945000	16897.048000	378.640625	4205.249512
19396.945000	16897.048000	377.360352	4182.440430
19396.945000	16897.048000	376.080078	3884.767822
19396.945000	16897.048000	374.799805	3975.844727
19396.945000	16897.048000	373.519531	3994.633545
19396.945000	16897.048000	372.238281	3773.065430
19396.945000	16897.048000	370.957031	3628.113281
19396.945000	16897.048000	369.675781	3827.940186
19396.945000	16897.048000	368.394531	3498.336914
19396.945000	16897.048000	367.112305	3331.541748
19396.945000	16897.048000	365.830078	3372.417725
19396.945000	16897.048000	364.546875	3433.890625
19396.945000	16897.048000	363.264648	3204.816406
19396.945000	16897.048000	361.981445	3196.792480
19396.945000	16897.048000	360.698242	2901.575684
19396.945000	16897.048000	359.414063	2742.495605
19396.945000	16897.048000	358.129883	2906.034180
19396.945000	16897.048000	356.845703	3179.456543
19396.945000	16897.048000	355.561523	2654.331787
19396.945000	16897.048000	354.276367	2824.283447
19396.945000	16897.048000	352.991211	2825.872803
19396.945000	16897.048000	351.706055	2916.228271
19396.945000	16897.048000	350.420898	2712.191162
19396.945000	16897.048000	349.134766	2632.868896
19396.945000	16897.048000	347.848633	2654.051514
19396.945000	16897.048000	346.561523	2568.544922
19396.945000	16897.048000	345.275391	2405.875488
19396.945000	16897.048000	343.988281	2462.137451
19396.945000	16897.048000	342.700195	2378.685059
19396.945000	16897.048000	341.413086	1952.513550
19396.945000	16897.048000	340.125000	1970.500244
19396.945000	16897.048000	338.836914	1900.330811
19396.945000	16897.048000	337.548828	1790.144897
19396.945000	16897.048000	336.259766	1653.452759
19396.945000	16897.048000	334.970703	1486.866211
19396.945000	16897.048000	333.681641	1543.171143
19396.945000	16897.048000	332.391602	1555.321045
19396.945000	16897.048000	331.101563	1375.500977
19396.945000	16897.048000	329.811523	1321.757813
19396.945000	16897.048000	328.521484	1087.927979
19396.945000	16897.048000	327.230469	912.657837
19396.945000	16897.048000	325.939453	785.655945
19396.945000	16897.048000	324.648438	651.780945
19396.945000	16897.048000	323.356445	648.069214
19396.945000	16897.048000	322.064453	685.215820
19396.945000	16897.048000	320.772461	399.121490
19396.945000	16897.048000	319.480469	208.610352
19396.945000	16897.048000	318.187500	310.554199
19396.945000	16897.048000	316.894531	447.511719
19396.945000	16897.048000	315.601563	504.389648
19396.945000	16897.048000	314.307617	84.725746
19396.945000	16897.048000	313.013672	88.943947
19396.945000	16897.048000	311.719727	-252.966843
19396.945000	16897.048000	310.425781	-32.746746
19396.945000	16897.048000	309.130859	-289.425140
19396.945000	16897.048000	307.835938	-244.962250
19396.945000	16897.048000	306.541016	-57.282047
19396.945000	16897.048000	305.245117	-24.856674
19396.945000	16897.048000	303.949219	42.513588
19396.945000	16897.048000	302.653320	84.732346
19396.945000	16897.048000	301.356445	316.883118
19396.945000	16897.048000	300.060547	450.198212
19396.945000	16897.048000	298.763672	353.918732
