#X		#Y		#Wave		#Intensity
19486.183085	16964.215500	2000.043945	276.902802
19486.183085	16964.215500	1999.080078	-142.410141
19486.183085	16964.215500	1998.116211	51.978905
19486.183085	16964.215500	1997.151367	-192.562103
19486.183085	16964.215500	1996.186523	164.839478
19486.183085	16964.215500	1995.222656	150.289581
19486.183085	16964.215500	1994.256836	-131.946426
19486.183085	16964.215500	1993.291992	360.786377
19486.183085	16964.215500	1992.327148	50.948818
19486.183085	16964.215500	1991.361328	238.586746
19486.183085	16964.215500	1990.395508	74.513161
19486.183085	16964.215500	1989.429688	-171.353165
19486.183085	16964.215500	1988.463867	23.058832
19486.183085	16964.215500	1987.497070	736.666931
19486.183085	16964.215500	1986.531250	218.215378
19486.183085	16964.215500	1985.564453	347.620819
19486.183085	16964.215500	1984.597656	118.335686
19486.183085	16964.215500	1983.630859	207.819321
19486.183085	16964.215500	1982.664063	-58.756092
19486.183085	16964.215500	1981.696289	-75.837502
19486.183085	16964.215500	1980.728516	0.803343
19486.183085	16964.215500	1979.761719	-31.417252
19486.183085	16964.215500	1978.792969	432.591919
19486.183085	16964.215500	1977.825195	108.675171
19486.183085	16964.215500	1976.857422	288.312653
19486.183085	16964.215500	1975.888672	193.796356
19486.183085	16964.215500	1974.919922	44.894138
19486.183085	16964.215500	1973.951172	-136.157990
19486.183085	16964.215500	1972.982422	287.067322
19486.183085	16964.215500	1972.013672	76.190773
19486.183085	16964.215500	1971.043945	380.620544
19486.183085	16964.215500	1970.075195	90.675240
19486.183085	16964.215500	1969.105469	266.585632
19486.183085	16964.215500	1968.135742	287.061462
19486.183085	16964.215500	1967.165039	1.896997
19486.183085	16964.215500	1966.195313	182.327484
19486.183085	16964.215500	1965.224609	200.031815
19486.183085	16964.215500	1964.253906	111.739479
19486.183085	16964.215500	1963.283203	-28.320028
19486.183085	16964.215500	1962.312500	508.531952
19486.183085	16964.215500	1961.341797	439.640045
19486.183085	16964.215500	1960.370117	230.426346
19486.183085	16964.215500	1959.399414	328.736481
19486.183085	16964.215500	1958.427734	220.304214
19486.183085	16964.215500	1957.455078	-89.830933
19486.183085	16964.215500	1956.483398	109.059799
19486.183085	16964.215500	1955.511719	329.927368
19486.183085	16964.215500	1954.539063	-73.687767
19486.183085	16964.215500	1953.566406	427.149353
19486.183085	16964.215500	1952.593750	207.808258
19486.183085	16964.215500	1951.621094	170.269791
19486.183085	16964.215500	1950.647461	245.669647
19486.183085	16964.215500	1949.674805	259.582947
19486.183085	16964.215500	1948.701172	224.329422
19486.183085	16964.215500	1947.727539	142.391068
19486.183085	16964.215500	1946.753906	102.150795
19486.183085	16964.215500	1945.780273	120.762985
19486.183085	16964.215500	1944.805664	-12.791592
19486.183085	16964.215500	1943.831055	243.674164
19486.183085	16964.215500	1942.856445	60.996143
19486.183085	16964.215500	1941.881836	172.588303
19486.183085	16964.215500	1940.907227	291.446564
19486.183085	16964.215500	1939.932617	-94.714363
19486.183085	16964.215500	1938.957031	-198.943573
19486.183085	16964.215500	1937.981445	-36.098827
19486.183085	16964.215500	1937.005859	369.175018
19486.183085	16964.215500	1936.030273	83.555374
19486.183085	16964.215500	1935.054688	111.461746
19486.183085	16964.215500	1934.078125	403.752930
19486.183085	16964.215500	1933.101563	380.118011
19486.183085	16964.215500	1932.125000	75.001793
19486.183085	16964.215500	1931.148438	92.976006
19486.183085	16964.215500	1930.171875	106.024452
19486.183085	16964.215500	1929.194336	189.980194
19486.183085	16964.215500	1928.217773	-90.524010
19486.183085	16964.215500	1927.240234	93.641357
19486.183085	16964.215500	1926.262695	385.286438
19486.183085	16964.215500	1925.284180	202.609329
19486.183085	16964.215500	1924.306641	173.938126
19486.183085	16964.215500	1923.328125	164.810242
19486.183085	16964.215500	1922.350586	209.409302
19486.183085	16964.215500	1921.372070	166.046005
19486.183085	16964.215500	1920.392578	98.266289
19486.183085	16964.215500	1919.414063	-47.634933
19486.183085	16964.215500	1918.434570	-115.380318
19486.183085	16964.215500	1917.456055	200.069199
19486.183085	16964.215500	1916.476563	364.096313
19486.183085	16964.215500	1915.497070	15.708303
19486.183085	16964.215500	1914.516602	-73.996902
19486.183085	16964.215500	1913.537109	-0.277124
19486.183085	16964.215500	1912.556641	-58.265491
19486.183085	16964.215500	1911.576172	-113.800514
19486.183085	16964.215500	1910.595703	-49.887306
19486.183085	16964.215500	1909.615234	-151.720459
19486.183085	16964.215500	1908.633789	4.752867
19486.183085	16964.215500	1907.653320	85.643898
19486.183085	16964.215500	1906.671875	200.600525
19486.183085	16964.215500	1905.690430	79.295830
19486.183085	16964.215500	1904.708984	-100.400436
19486.183085	16964.215500	1903.727539	221.430252
19486.183085	16964.215500	1902.745117	-62.882072
19486.183085	16964.215500	1901.762695	47.114880
19486.183085	16964.215500	1900.780273	40.288803
19486.183085	16964.215500	1899.797852	145.358932
19486.183085	16964.215500	1898.815430	376.853058
19486.183085	16964.215500	1897.832031	39.280788
19486.183085	16964.215500	1896.849609	-98.817192
19486.183085	16964.215500	1895.866211	74.259476
19486.183085	16964.215500	1894.882813	193.810593
19486.183085	16964.215500	1893.898438	-138.611343
19486.183085	16964.215500	1892.915039	-60.358315
19486.183085	16964.215500	1891.930664	185.455521
19486.183085	16964.215500	1890.947266	142.204697
19486.183085	16964.215500	1889.962891	329.624634
19486.183085	16964.215500	1888.977539	24.205809
19486.183085	16964.215500	1887.993164	-57.812038
19486.183085	16964.215500	1887.007813	-45.160339
19486.183085	16964.215500	1886.023438	-54.343575
19486.183085	16964.215500	1885.038086	23.803297
19486.183085	16964.215500	1884.051758	-70.260544
19486.183085	16964.215500	1883.066406	-118.217400
19486.183085	16964.215500	1882.081055	22.944025
19486.183085	16964.215500	1881.094727	193.143219
19486.183085	16964.215500	1880.108398	263.925781
19486.183085	16964.215500	1879.122070	39.090668
19486.183085	16964.215500	1878.135742	-23.350361
19486.183085	16964.215500	1877.148438	32.916706
19486.183085	16964.215500	1876.162109	11.676190
19486.183085	16964.215500	1875.174805	334.247406
19486.183085	16964.215500	1874.187500	126.580093
19486.183085	16964.215500	1873.199219	6.124975
19486.183085	16964.215500	1872.211914	139.793213
19486.183085	16964.215500	1871.223633	-58.027531
19486.183085	16964.215500	1870.236328	12.722313
19486.183085	16964.215500	1869.248047	-107.600853
19486.183085	16964.215500	1868.258789	26.010752
19486.183085	16964.215500	1867.270508	-268.316956
19486.183085	16964.215500	1866.282227	111.819786
19486.183085	16964.215500	1865.292969	114.834473
19486.183085	16964.215500	1864.303711	100.942360
19486.183085	16964.215500	1863.314453	-65.128136
19486.183085	16964.215500	1862.324219	58.694691
19486.183085	16964.215500	1861.334961	300.796387
19486.183085	16964.215500	1860.344727	105.826370
19486.183085	16964.215500	1859.354492	-6.996340
19486.183085	16964.215500	1858.364258	-155.972641
19486.183085	16964.215500	1857.374023	336.953949
19486.183085	16964.215500	1856.383789	89.064537
19486.183085	16964.215500	1855.392578	-6.768426
19486.183085	16964.215500	1854.401367	133.773682
19486.183085	16964.215500	1853.410156	305.610596
19486.183085	16964.215500	1852.418945	31.410133
19486.183085	16964.215500	1851.426758	-129.400604
19486.183085	16964.215500	1850.435547	88.182907
19486.183085	16964.215500	1849.443359	26.208494
19486.183085	16964.215500	1848.451172	94.338455
19486.183085	16964.215500	1847.458984	294.908508
19486.183085	16964.215500	1846.466797	362.965332
19486.183085	16964.215500	1845.473633	134.879364
19486.183085	16964.215500	1844.480469	340.148834
19486.183085	16964.215500	1843.487305	104.933662
19486.183085	16964.215500	1842.494141	197.044144
19486.183085	16964.215500	1841.500977	-23.617613
19486.183085	16964.215500	1840.506836	85.320793
19486.183085	16964.215500	1839.513672	148.527847
19486.183085	16964.215500	1838.519531	28.983000
19486.183085	16964.215500	1837.525391	334.971527
19486.183085	16964.215500	1836.530273	140.930267
19486.183085	16964.215500	1835.536133	184.855820
19486.183085	16964.215500	1834.541016	197.530350
19486.183085	16964.215500	1833.545898	315.891449
19486.183085	16964.215500	1832.550781	215.659576
19486.183085	16964.215500	1831.555664	211.510223
19486.183085	16964.215500	1830.560547	132.937225
19486.183085	16964.215500	1829.564453	68.793434
19486.183085	16964.215500	1828.568359	199.057465
19486.183085	16964.215500	1827.572266	221.297409
19486.183085	16964.215500	1826.576172	250.721924
19486.183085	16964.215500	1825.580078	160.209656
19486.183085	16964.215500	1824.583008	-38.181503
19486.183085	16964.215500	1823.585938	65.589554
19486.183085	16964.215500	1822.588867	169.317459
19486.183085	16964.215500	1821.591797	-139.220734
19486.183085	16964.215500	1820.594727	228.076233
19486.183085	16964.215500	1819.596680	283.785767
19486.183085	16964.215500	1818.599609	265.213135
19486.183085	16964.215500	1817.601563	428.650085
19486.183085	16964.215500	1816.603516	96.381981
19486.183085	16964.215500	1815.604492	281.324036
19486.183085	16964.215500	1814.606445	-57.986023
19486.183085	16964.215500	1813.607422	248.944748
19486.183085	16964.215500	1812.608398	170.546173
19486.183085	16964.215500	1811.609375	13.230092
19486.183085	16964.215500	1810.610352	109.484474
19486.183085	16964.215500	1809.610352	-38.210987
19486.183085	16964.215500	1808.611328	399.876801
19486.183085	16964.215500	1807.611328	378.852051
19486.183085	16964.215500	1806.611328	228.773560
19486.183085	16964.215500	1805.610352	167.150253
19486.183085	16964.215500	1804.610352	270.377441
19486.183085	16964.215500	1803.609375	34.389301
19486.183085	16964.215500	1802.608398	221.166565
19486.183085	16964.215500	1801.607422	233.566391
19486.183085	16964.215500	1800.606445	327.113861
19486.183085	16964.215500	1799.605469	155.689590
19486.183085	16964.215500	1798.603516	289.761414
19486.183085	16964.215500	1797.601563	144.630478
19486.183085	16964.215500	1796.599609	214.224213
19486.183085	16964.215500	1795.597656	-19.102184
19486.183085	16964.215500	1794.595703	138.695969
19486.183085	16964.215500	1793.592773	-1.577580
19486.183085	16964.215500	1792.589844	175.200607
19486.183085	16964.215500	1791.587891	89.757530
19486.183085	16964.215500	1790.583984	178.266647
19486.183085	16964.215500	1789.581055	-33.428417
19486.183085	16964.215500	1788.577148	267.018341
19486.183085	16964.215500	1787.574219	-77.993484
19486.183085	16964.215500	1786.570313	-75.285866
19486.183085	16964.215500	1785.566406	122.596764
19486.183085	16964.215500	1784.561523	306.110413
19486.183085	16964.215500	1783.557617	194.481003
19486.183085	16964.215500	1782.552734	101.911842
19486.183085	16964.215500	1781.547852	64.069481
19486.183085	16964.215500	1780.542969	252.149033
19486.183085	16964.215500	1779.538086	242.792862
19486.183085	16964.215500	1778.532227	269.081940
19486.183085	16964.215500	1777.527344	-8.884597
19486.183085	16964.215500	1776.521484	331.084686
19486.183085	16964.215500	1775.515625	250.375244
19486.183085	16964.215500	1774.508789	300.329681
19486.183085	16964.215500	1773.502930	39.125443
19486.183085	16964.215500	1772.496094	162.676498
19486.183085	16964.215500	1771.489258	117.602730
19486.183085	16964.215500	1770.482422	188.833664
19486.183085	16964.215500	1769.475586	-209.867188
19486.183085	16964.215500	1768.467773	143.717697
19486.183085	16964.215500	1767.460938	373.791412
19486.183085	16964.215500	1766.453125	155.484543
19486.183085	16964.215500	1765.445313	112.723740
19486.183085	16964.215500	1764.437500	162.424866
19486.183085	16964.215500	1763.428711	-169.555908
19486.183085	16964.215500	1762.420898	3.381175
19486.183085	16964.215500	1761.412109	275.757141
19486.183085	16964.215500	1760.403320	237.653107
19486.183085	16964.215500	1759.393555	31.372414
19486.183085	16964.215500	1758.384766	-87.229149
19486.183085	16964.215500	1757.375000	-94.519341
19486.183085	16964.215500	1756.366211	267.470978
19486.183085	16964.215500	1755.356445	136.999008
19486.183085	16964.215500	1754.345703	20.754042
19486.183085	16964.215500	1753.335938	93.808868
19486.183085	16964.215500	1752.325195	-133.602859
19486.183085	16964.215500	1751.315430	272.884674
19486.183085	16964.215500	1750.304688	52.575413
19486.183085	16964.215500	1749.292969	-108.564011
19486.183085	16964.215500	1748.282227	-14.386354
19486.183085	16964.215500	1747.270508	216.806702
19486.183085	16964.215500	1746.259766	3.680057
19486.183085	16964.215500	1745.248047	78.822586
19486.183085	16964.215500	1744.235352	288.542786
19486.183085	16964.215500	1743.223633	115.605293
19486.183085	16964.215500	1742.211914	-168.253082
19486.183085	16964.215500	1741.199219	-12.963634
19486.183085	16964.215500	1740.186523	224.850159
19486.183085	16964.215500	1739.173828	47.252728
19486.183085	16964.215500	1738.160156	98.545197
19486.183085	16964.215500	1737.147461	46.010059
19486.183085	16964.215500	1736.133789	278.827667
19486.183085	16964.215500	1735.120117	49.396160
19486.183085	16964.215500	1734.106445	159.496765
19486.183085	16964.215500	1733.091797	-60.440533
19486.183085	16964.215500	1732.078125	-129.498260
19486.183085	16964.215500	1731.063477	213.757675
19486.183085	16964.215500	1730.048828	22.139572
19486.183085	16964.215500	1729.034180	0.143575
19486.183085	16964.215500	1728.019531	41.713089
19486.183085	16964.215500	1727.003906	45.574863
19486.183085	16964.215500	1725.988281	225.949493
19486.183085	16964.215500	1724.972656	32.051888
19486.183085	16964.215500	1723.957031	80.555954
19486.183085	16964.215500	1722.941406	-56.823395
19486.183085	16964.215500	1721.924805	48.083885
19486.183085	16964.215500	1720.909180	-14.030798
19486.183085	16964.215500	1719.892578	130.754578
19486.183085	16964.215500	1718.875977	-124.145882
19486.183085	16964.215500	1717.858398	37.015961
19486.183085	16964.215500	1716.841797	47.709023
19486.183085	16964.215500	1715.824219	114.763390
19486.183085	16964.215500	1714.806641	134.792511
19486.183085	16964.215500	1713.789063	-70.652710
19486.183085	16964.215500	1712.770508	209.986328
19486.183085	16964.215500	1711.752930	107.854530
19486.183085	16964.215500	1710.734375	45.643166
19486.183085	16964.215500	1709.715820	-220.719742
19486.183085	16964.215500	1708.697266	-116.308273
19486.183085	16964.215500	1707.678711	-30.723822
19486.183085	16964.215500	1706.659180	-46.034832
19486.183085	16964.215500	1705.640625	1.948792
19486.183085	16964.215500	1704.621094	42.861481
19486.183085	16964.215500	1703.600586	-253.782974
19486.183085	16964.215500	1702.581055	28.500578
19486.183085	16964.215500	1701.561523	252.083130
19486.183085	16964.215500	1700.541016	96.066086
19486.183085	16964.215500	1699.520508	-45.854717
19486.183085	16964.215500	1698.500000	-157.300171
19486.183085	16964.215500	1697.478516	166.743195
19486.183085	16964.215500	1696.458008	24.836927
19486.183085	16964.215500	1695.436523	53.806610
19486.183085	16964.215500	1694.415039	403.309113
19486.183085	16964.215500	1693.393555	118.680595
19486.183085	16964.215500	1692.372070	-221.988861
19486.183085	16964.215500	1691.349609	-29.365532
19486.183085	16964.215500	1690.327148	69.645042
19486.183085	16964.215500	1689.304688	147.560684
19486.183085	16964.215500	1688.282227	94.551567
19486.183085	16964.215500	1687.259766	71.924583
19486.183085	16964.215500	1686.236328	23.589592
19486.183085	16964.215500	1685.213867	278.915161
19486.183085	16964.215500	1684.190430	92.744141
19486.183085	16964.215500	1683.166016	366.606110
19486.183085	16964.215500	1682.142578	-78.665482
19486.183085	16964.215500	1681.119141	-138.666611
19486.183085	16964.215500	1680.094727	270.385559
19486.183085	16964.215500	1679.070313	-50.998291
19486.183085	16964.215500	1678.045898	-97.015144
19486.183085	16964.215500	1677.020508	197.473297
19486.183085	16964.215500	1675.996094	240.005783
19486.183085	16964.215500	1674.970703	296.495331
19486.183085	16964.215500	1673.945313	96.558136
19486.183085	16964.215500	1672.919922	38.841022
19486.183085	16964.215500	1671.893555	83.652168
19486.183085	16964.215500	1670.868164	396.329254
19486.183085	16964.215500	1669.841797	152.226654
19486.183085	16964.215500	1668.815430	306.402039
19486.183085	16964.215500	1667.789063	132.236572
19486.183085	16964.215500	1666.761719	100.116592
19486.183085	16964.215500	1665.735352	175.055649
19486.183085	16964.215500	1664.708008	249.956863
19486.183085	16964.215500	1663.680664	187.561569
19486.183085	16964.215500	1662.653320	313.583008
19486.183085	16964.215500	1661.625000	237.231659
19486.183085	16964.215500	1660.597656	228.325897
19486.183085	16964.215500	1659.569336	365.864471
19486.183085	16964.215500	1658.541016	403.405182
19486.183085	16964.215500	1657.512695	292.210114
19486.183085	16964.215500	1656.483398	236.808090
19486.183085	16964.215500	1655.455078	327.755829
19486.183085	16964.215500	1654.425781	126.050125
19486.183085	16964.215500	1653.396484	163.569092
19486.183085	16964.215500	1652.366211	296.245880
19486.183085	16964.215500	1651.336914	247.832565
19486.183085	16964.215500	1650.306641	340.984070
19486.183085	16964.215500	1649.276367	383.055145
19486.183085	16964.215500	1648.246094	174.585251
19486.183085	16964.215500	1647.215820	761.672424
19486.183085	16964.215500	1646.185547	358.430389
19486.183085	16964.215500	1645.154297	493.184784
19486.183085	16964.215500	1644.123047	551.395935
19486.183085	16964.215500	1643.091797	635.071960
19486.183085	16964.215500	1642.060547	725.668396
19486.183085	16964.215500	1641.028320	454.854736
19486.183085	16964.215500	1639.997070	619.560791
19486.183085	16964.215500	1638.964844	473.914215
19486.183085	16964.215500	1637.931641	587.620483
19486.183085	16964.215500	1636.899414	492.960968
19486.183085	16964.215500	1635.867188	625.134460
19486.183085	16964.215500	1634.833984	650.824219
19486.183085	16964.215500	1633.800781	408.158386
19486.183085	16964.215500	1632.767578	588.848328
19486.183085	16964.215500	1631.734375	441.105408
19486.183085	16964.215500	1630.700195	647.155823
19486.183085	16964.215500	1629.666016	587.303528
19486.183085	16964.215500	1628.631836	573.701294
19486.183085	16964.215500	1627.597656	520.826111
19486.183085	16964.215500	1626.563477	666.656982
19486.183085	16964.215500	1625.528320	731.591919
19486.183085	16964.215500	1624.493164	535.557983
19486.183085	16964.215500	1623.458008	653.610229
19486.183085	16964.215500	1622.422852	776.239441
19486.183085	16964.215500	1621.387695	462.625610
19486.183085	16964.215500	1620.351563	571.414978
19486.183085	16964.215500	1619.315430	751.688843
19486.183085	16964.215500	1618.279297	1003.406616
19486.183085	16964.215500	1617.243164	611.615601
19486.183085	16964.215500	1616.207031	775.663879
19486.183085	16964.215500	1615.169922	692.994568
19486.183085	16964.215500	1614.132813	624.196716
19486.183085	16964.215500	1613.095703	799.698547
19486.183085	16964.215500	1612.058594	664.115601
19486.183085	16964.215500	1611.020508	574.664612
19486.183085	16964.215500	1609.983398	803.079712
19486.183085	16964.215500	1608.945313	683.729187
19486.183085	16964.215500	1607.907227	1257.377808
19486.183085	16964.215500	1606.868164	946.972656
19486.183085	16964.215500	1605.830078	997.995850
19486.183085	16964.215500	1604.791016	908.665466
19486.183085	16964.215500	1603.751953	874.591858
19486.183085	16964.215500	1602.712891	762.353638
19486.183085	16964.215500	1601.673828	930.703186
19486.183085	16964.215500	1600.633789	942.673645
19486.183085	16964.215500	1599.594727	904.088745
19486.183085	16964.215500	1598.554688	842.553345
19486.183085	16964.215500	1597.513672	967.169678
19486.183085	16964.215500	1596.473633	1126.212280
19486.183085	16964.215500	1595.433594	995.823975
19486.183085	16964.215500	1594.392578	1081.354248
19486.183085	16964.215500	1593.351563	774.282471
19486.183085	16964.215500	1592.310547	871.341614
19486.183085	16964.215500	1591.268555	952.316895
19486.183085	16964.215500	1590.227539	969.035522
19486.183085	16964.215500	1589.185547	969.712280
19486.183085	16964.215500	1588.143555	807.562622
19486.183085	16964.215500	1587.100586	718.879883
19486.183085	16964.215500	1586.058594	664.647278
19486.183085	16964.215500	1585.015625	887.819946
19486.183085	16964.215500	1583.972656	1110.929688
19486.183085	16964.215500	1582.929688	559.494690
19486.183085	16964.215500	1581.886719	842.194946
19486.183085	16964.215500	1580.843750	888.890259
19486.183085	16964.215500	1579.799805	576.059509
19486.183085	16964.215500	1578.755859	888.429810
19486.183085	16964.215500	1577.711914	1024.441040
19486.183085	16964.215500	1576.666992	556.216797
19486.183085	16964.215500	1575.623047	932.558044
19486.183085	16964.215500	1574.578125	869.525940
19486.183085	16964.215500	1573.533203	609.837708
19486.183085	16964.215500	1572.488281	732.188965
19486.183085	16964.215500	1571.443359	840.800903
19486.183085	16964.215500	1570.397461	638.506165
19486.183085	16964.215500	1569.351563	701.443665
19486.183085	16964.215500	1568.305664	878.639160
19486.183085	16964.215500	1567.259766	843.327515
19486.183085	16964.215500	1566.213867	682.427063
19486.183085	16964.215500	1565.166992	660.932678
19486.183085	16964.215500	1564.120117	639.477295
19486.183085	16964.215500	1563.073242	668.283936
19486.183085	16964.215500	1562.026367	653.749512
19486.183085	16964.215500	1560.978516	673.480286
19486.183085	16964.215500	1559.930664	576.882629
19486.183085	16964.215500	1558.883789	799.702393
19486.183085	16964.215500	1557.834961	488.810669
19486.183085	16964.215500	1556.787109	558.860596
19486.183085	16964.215500	1555.739258	624.358948
19486.183085	16964.215500	1554.690430	564.507874
19486.183085	16964.215500	1553.641602	721.201782
19486.183085	16964.215500	1552.592773	495.108887
19486.183085	16964.215500	1551.542969	606.271423
19486.183085	16964.215500	1550.494141	371.254639
19486.183085	16964.215500	1549.444336	676.019470
19486.183085	16964.215500	1548.394531	582.301758
19486.183085	16964.215500	1547.344727	754.967224
19486.183085	16964.215500	1546.293945	661.351013
19486.183085	16964.215500	1545.244141	499.553284
19486.183085	16964.215500	1544.193359	567.611389
19486.183085	16964.215500	1543.142578	687.991577
19486.183085	16964.215500	1542.090820	453.642578
19486.183085	16964.215500	1541.040039	367.197235
19486.183085	16964.215500	1539.988281	551.312500
19486.183085	16964.215500	1538.936523	851.296143
19486.183085	16964.215500	1537.884766	530.923889
19486.183085	16964.215500	1536.833008	478.772278
19486.183085	16964.215500	1535.780273	524.346863
19486.183085	16964.215500	1534.727539	710.732605
19486.183085	16964.215500	1533.674805	502.056732
19486.183085	16964.215500	1532.622070	611.286438
19486.183085	16964.215500	1531.569336	629.738403
19486.183085	16964.215500	1530.515625	623.271851
19486.183085	16964.215500	1529.461914	623.657166
19486.183085	16964.215500	1528.408203	515.220764
19486.183085	16964.215500	1527.354492	604.154419
19486.183085	16964.215500	1526.299805	455.047913
19486.183085	16964.215500	1525.246094	396.712677
19486.183085	16964.215500	1524.191406	420.035217
19486.183085	16964.215500	1523.136719	443.393036
19486.183085	16964.215500	1522.081055	487.180878
19486.183085	16964.215500	1521.026367	388.303467
19486.183085	16964.215500	1519.970703	427.649628
19486.183085	16964.215500	1518.915039	238.360336
19486.183085	16964.215500	1517.859375	259.707336
19486.183085	16964.215500	1516.802734	498.355072
19486.183085	16964.215500	1515.747070	297.996887
19486.183085	16964.215500	1514.690430	77.406853
19486.183085	16964.215500	1513.633789	175.866272
19486.183085	16964.215500	1512.577148	509.514038
19486.183085	16964.215500	1511.519531	343.425018
19486.183085	16964.215500	1510.461914	168.411636
19486.183085	16964.215500	1509.405273	115.553680
19486.183085	16964.215500	1508.346680	333.917297
19486.183085	16964.215500	1507.289063	294.704376
19486.183085	16964.215500	1506.231445	106.489792
19486.183085	16964.215500	1505.172852	-153.860306
19486.183085	16964.215500	1504.114258	69.102905
19486.183085	16964.215500	1503.055664	-51.081314
19486.183085	16964.215500	1501.996094	59.037258
19486.183085	16964.215500	1500.937500	435.416229
19486.183085	16964.215500	1499.877930	180.032013
19486.183085	16964.215500	1498.818359	344.327393
19486.183085	16964.215500	1497.757813	143.293762
19486.183085	16964.215500	1496.698242	212.942978
19486.183085	16964.215500	1495.637695	242.046814
19486.183085	16964.215500	1494.577148	178.788025
19486.183085	16964.215500	1493.516602	-66.905533
19486.183085	16964.215500	1492.456055	-69.143059
19486.183085	16964.215500	1491.394531	-188.446548
19486.183085	16964.215500	1490.333008	-145.508469
19486.183085	16964.215500	1489.271484	-16.977140
19486.183085	16964.215500	1488.209961	28.268679
19486.183085	16964.215500	1487.148438	-133.503311
19486.183085	16964.215500	1486.085938	166.126526
19486.183085	16964.215500	1485.023438	92.242805
19486.183085	16964.215500	1483.960938	360.328033
19486.183085	16964.215500	1482.898438	7.694859
19486.183085	16964.215500	1481.834961	-23.223255
19486.183085	16964.215500	1480.772461	-36.087868
19486.183085	16964.215500	1479.708984	-143.270325
19486.183085	16964.215500	1478.644531	158.561661
19486.183085	16964.215500	1477.581055	-22.630770
19486.183085	16964.215500	1476.517578	2.927761
19486.183085	16964.215500	1475.453125	-99.485222
19486.183085	16964.215500	1474.388672	47.454571
19486.183085	16964.215500	1473.323242	86.569672
19486.183085	16964.215500	1472.258789	29.404684
19486.183085	16964.215500	1471.193359	-23.293760
19486.183085	16964.215500	1470.127930	22.638235
19486.183085	16964.215500	1469.062500	517.032715
19486.183085	16964.215500	1467.997070	260.546051
19486.183085	16964.215500	1466.930664	243.684570
19486.183085	16964.215500	1465.865234	164.736420
19486.183085	16964.215500	1464.798828	385.474182
19486.183085	16964.215500	1463.731445	306.798431
19486.183085	16964.215500	1462.665039	227.227402
19486.183085	16964.215500	1461.597656	374.147278
19486.183085	16964.215500	1460.530273	253.369904
19486.183085	16964.215500	1459.462891	205.565186
19486.183085	16964.215500	1458.395508	285.209686
19486.183085	16964.215500	1457.327148	483.230164
19486.183085	16964.215500	1456.259766	144.132462
19486.183085	16964.215500	1455.191406	61.610039
19486.183085	16964.215500	1454.123047	375.306396
19486.183085	16964.215500	1453.053711	302.031281
19486.183085	16964.215500	1451.985352	330.575317
19486.183085	16964.215500	1450.916016	400.899841
19486.183085	16964.215500	1449.846680	288.970459
19486.183085	16964.215500	1448.776367	238.397888
19486.183085	16964.215500	1447.707031	237.866806
19486.183085	16964.215500	1446.636719	463.612457
19486.183085	16964.215500	1445.566406	143.594269
19486.183085	16964.215500	1444.496094	371.152069
19486.183085	16964.215500	1443.425781	64.690033
19486.183085	16964.215500	1442.354492	217.631699
19486.183085	16964.215500	1441.283203	117.766373
19486.183085	16964.215500	1440.211914	331.127197
19486.183085	16964.215500	1439.140625	23.807783
19486.183085	16964.215500	1438.069336	210.720184
19486.183085	16964.215500	1436.997070	116.534210
19486.183085	16964.215500	1435.924805	31.829933
19486.183085	16964.215500	1434.852539	-33.810734
19486.183085	16964.215500	1433.780273	205.110138
19486.183085	16964.215500	1432.707031	71.395378
19486.183085	16964.215500	1431.633789	131.255692
19486.183085	16964.215500	1430.560547	209.114761
19486.183085	16964.215500	1429.487305	91.507614
19486.183085	16964.215500	1428.413086	114.661095
19486.183085	16964.215500	1427.339844	90.509811
19486.183085	16964.215500	1426.265625	-109.578308
19486.183085	16964.215500	1425.191406	-94.154610
19486.183085	16964.215500	1424.116211	-190.796783
19486.183085	16964.215500	1423.041992	-109.312790
19486.183085	16964.215500	1421.966797	18.417614
19486.183085	16964.215500	1420.891602	41.413170
19486.183085	16964.215500	1419.816406	-3.966927
19486.183085	16964.215500	1418.740234	-5.821599
19486.183085	16964.215500	1417.665039	-174.574585
19486.183085	16964.215500	1416.588867	-93.724304
19486.183085	16964.215500	1415.512695	100.292641
19486.183085	16964.215500	1414.435547	137.998596
19486.183085	16964.215500	1413.359375	91.992844
19486.183085	16964.215500	1412.282227	-29.605459
19486.183085	16964.215500	1411.205078	174.327408
19486.183085	16964.215500	1410.127930	-68.243927
19486.183085	16964.215500	1409.049805	-83.302765
19486.183085	16964.215500	1407.972656	41.984066
19486.183085	16964.215500	1406.894531	-119.814621
19486.183085	16964.215500	1405.816406	2.256675
19486.183085	16964.215500	1404.737305	224.275375
19486.183085	16964.215500	1403.659180	75.109406
19486.183085	16964.215500	1402.580078	18.632633
19486.183085	16964.215500	1401.500977	-120.133240
19486.183085	16964.215500	1400.421875	159.635742
19486.183085	16964.215500	1399.341797	259.357056
19486.183085	16964.215500	1398.262695	117.581764
19486.183085	16964.215500	1397.182617	111.318901
19486.183085	16964.215500	1396.102539	99.818459
19486.183085	16964.215500	1395.021484	414.398438
19486.183085	16964.215500	1393.941406	85.961105
19486.183085	16964.215500	1392.860352	161.502167
19486.183085	16964.215500	1391.779297	83.874924
19486.183085	16964.215500	1390.698242	345.786102
19486.183085	16964.215500	1389.616211	244.891846
19486.183085	16964.215500	1388.535156	15.302905
19486.183085	16964.215500	1387.453125	171.695099
19486.183085	16964.215500	1386.371094	333.876587
19486.183085	16964.215500	1385.288086	149.812210
19486.183085	16964.215500	1384.206055	353.620209
19486.183085	16964.215500	1383.123047	354.408356
19486.183085	16964.215500	1382.040039	220.400635
19486.183085	16964.215500	1380.957031	241.120163
19486.183085	16964.215500	1379.873047	320.656982
19486.183085	16964.215500	1378.789063	342.957581
19486.183085	16964.215500	1377.705078	328.961090
19486.183085	16964.215500	1376.621094	205.309738
19486.183085	16964.215500	1375.537109	231.827408
19486.183085	16964.215500	1374.452148	346.170746
19486.183085	16964.215500	1373.367188	404.260620
19486.183085	16964.215500	1372.282227	169.485382
19486.183085	16964.215500	1371.197266	287.684479
19486.183085	16964.215500	1370.112305	132.875183
19486.183085	16964.215500	1369.026367	269.522858
19486.183085	16964.215500	1367.940430	-19.901020
19486.183085	16964.215500	1366.854492	70.462555
19486.183085	16964.215500	1365.767578	338.127930
19486.183085	16964.215500	1364.681641	311.057526
19486.183085	16964.215500	1363.594727	353.038239
19486.183085	16964.215500	1362.507813	453.217133
19486.183085	16964.215500	1361.419922	187.175034
19486.183085	16964.215500	1360.333008	197.475677
19486.183085	16964.215500	1359.245117	270.843719
19486.183085	16964.215500	1358.157227	366.217072
19486.183085	16964.215500	1357.069336	246.222260
19486.183085	16964.215500	1355.981445	302.774933
19486.183085	16964.215500	1354.892578	332.204193
19486.183085	16964.215500	1353.803711	258.576721
19486.183085	16964.215500	1352.714844	337.317871
19486.183085	16964.215500	1351.625000	244.532227
19486.183085	16964.215500	1350.536133	469.503571
19486.183085	16964.215500	1349.446289	333.517731
19486.183085	16964.215500	1348.356445	445.867737
19486.183085	16964.215500	1347.266602	284.232819
19486.183085	16964.215500	1346.175781	549.444275
19486.183085	16964.215500	1345.085938	399.092285
19486.183085	16964.215500	1343.995117	373.650391
19486.183085	16964.215500	1342.903320	308.633850
19486.183085	16964.215500	1341.812500	317.677551
19486.183085	16964.215500	1340.720703	220.245483
19486.183085	16964.215500	1339.629883	245.792633
19486.183085	16964.215500	1338.538086	405.572205
19486.183085	16964.215500	1337.445313	249.546722
19486.183085	16964.215500	1336.353516	308.301910
19486.183085	16964.215500	1335.260742	438.772736
19486.183085	16964.215500	1334.167969	250.343613
19486.183085	16964.215500	1333.075195	106.789513
19486.183085	16964.215500	1331.981445	325.186218
19486.183085	16964.215500	1330.888672	199.810547
19486.183085	16964.215500	1329.794922	172.166107
19486.183085	16964.215500	1328.701172	206.543427
19486.183085	16964.215500	1327.606445	330.782043
19486.183085	16964.215500	1326.512695	327.457428
19486.183085	16964.215500	1325.417969	394.680786
19486.183085	16964.215500	1324.323242	80.221069
19486.183085	16964.215500	1323.227539	151.577072
19486.183085	16964.215500	1322.132813	47.760586
19486.183085	16964.215500	1321.037109	208.408401
19486.183085	16964.215500	1319.941406	173.037384
19486.183085	16964.215500	1318.845703	181.089508
19486.183085	16964.215500	1317.750000	269.229309
19486.183085	16964.215500	1316.653320	56.517303
19486.183085	16964.215500	1315.556641	82.884323
19486.183085	16964.215500	1314.459961	57.657070
19486.183085	16964.215500	1313.363281	203.373184
19486.183085	16964.215500	1312.265625	211.392990
19486.183085	16964.215500	1311.167969	-17.645681
19486.183085	16964.215500	1310.070313	-8.938608
19486.183085	16964.215500	1308.972656	83.007904
19486.183085	16964.215500	1307.874023	56.553272
19486.183085	16964.215500	1306.776367	155.929443
19486.183085	16964.215500	1305.677734	150.782516
19486.183085	16964.215500	1304.579102	119.735535
19486.183085	16964.215500	1303.479492	-15.597129
19486.183085	16964.215500	1302.380859	-76.780533
19486.183085	16964.215500	1301.281250	3.880368
19486.183085	16964.215500	1300.181641	-3.361559
19486.183085	16964.215500	1299.081055	-26.161409
19486.183085	16964.215500	1297.981445	215.999619
19486.183085	16964.215500	1296.880859	-0.702851
19486.183085	16964.215500	1295.780273	-50.102917
19486.183085	16964.215500	1294.679688	99.023575
19486.183085	16964.215500	1293.578125	78.514755
19486.183085	16964.215500	1292.476563	41.582390
19486.183085	16964.215500	1291.375000	70.523865
19486.183085	16964.215500	1290.273438	11.054558
19486.183085	16964.215500	1289.171875	-36.687325
19486.183085	16964.215500	1288.069336	-48.292305
19486.183085	16964.215500	1286.966797	-130.738129
19486.183085	16964.215500	1285.864258	-51.466656
19486.183085	16964.215500	1284.761719	-0.971501
19486.183085	16964.215500	1283.658203	-29.690813
19486.183085	16964.215500	1282.554688	200.353683
19486.183085	16964.215500	1281.451172	36.536545
19486.183085	16964.215500	1280.347656	-12.239367
19486.183085	16964.215500	1279.244141	-38.938366
19486.183085	16964.215500	1278.139648	-92.069847
19486.183085	16964.215500	1277.035156	100.281929
19486.183085	16964.215500	1275.930664	2.636055
19486.183085	16964.215500	1274.825195	125.306389
19486.183085	16964.215500	1273.720703	-76.124214
19486.183085	16964.215500	1272.615234	-68.902573
19486.183085	16964.215500	1271.508789	-113.698059
19486.183085	16964.215500	1270.403320	-232.438583
19486.183085	16964.215500	1269.297852	12.642869
19486.183085	16964.215500	1268.191406	104.731270
19486.183085	16964.215500	1267.084961	0.562653
19486.183085	16964.215500	1265.977539	-32.786396
19486.183085	16964.215500	1264.871094	-190.947906
19486.183085	16964.215500	1263.763672	-78.027023
19486.183085	16964.215500	1262.656250	-74.727203
19486.183085	16964.215500	1261.548828	-78.149452
19486.183085	16964.215500	1260.440430	-133.327515
19486.183085	16964.215500	1259.333008	-161.028183
19486.183085	16964.215500	1258.224609	-158.402512
19486.183085	16964.215500	1257.115234	19.092054
19486.183085	16964.215500	1256.006836	47.674076
19486.183085	16964.215500	1254.897461	103.720825
19486.183085	16964.215500	1253.788086	254.626541
19486.183085	16964.215500	1252.678711	-28.648258
19486.183085	16964.215500	1251.569336	121.397972
19486.183085	16964.215500	1250.458984	99.459999
19486.183085	16964.215500	1249.349609	-99.127357
19486.183085	16964.215500	1248.239258	119.134247
19486.183085	16964.215500	1247.127930	56.058853
19486.183085	16964.215500	1246.017578	159.933456
19486.183085	16964.215500	1244.906250	-10.764124
19486.183085	16964.215500	1243.794922	90.292030
19486.183085	16964.215500	1242.683594	-79.240265
19486.183085	16964.215500	1241.571289	-3.378175
19486.183085	16964.215500	1240.459961	-18.438164
19486.183085	16964.215500	1239.347656	-100.573311
19486.183085	16964.215500	1238.234375	-137.694168
19486.183085	16964.215500	1237.122070	104.344749
19486.183085	16964.215500	1236.008789	107.965546
19486.183085	16964.215500	1234.896484	192.646744
19486.183085	16964.215500	1233.782227	69.611954
19486.183085	16964.215500	1232.668945	21.152451
19486.183085	16964.215500	1231.555664	95.795982
19486.183085	16964.215500	1230.441406	237.894470
19486.183085	16964.215500	1229.327148	81.746597
19486.183085	16964.215500	1228.211914	24.030464
19486.183085	16964.215500	1227.097656	47.627094
19486.183085	16964.215500	1225.982422	78.609802
19486.183085	16964.215500	1224.867188	-15.142581
19486.183085	16964.215500	1223.751953	0.607870
19486.183085	16964.215500	1222.635742	-96.617050
19486.183085	16964.215500	1221.520508	-10.413727
19486.183085	16964.215500	1220.404297	-116.253860
19486.183085	16964.215500	1219.287109	-115.420059
19486.183085	16964.215500	1218.170898	28.002136
19486.183085	16964.215500	1217.053711	45.277267
19486.183085	16964.215500	1215.936523	203.426865
19486.183085	16964.215500	1214.819336	-108.562096
19486.183085	16964.215500	1213.702148	113.143074
19486.183085	16964.215500	1212.583984	-26.429089
19486.183085	16964.215500	1211.465820	14.711757
19486.183085	16964.215500	1210.347656	-67.221809
19486.183085	16964.215500	1209.229492	92.303108
19486.183085	16964.215500	1208.110352	103.782768
19486.183085	16964.215500	1206.992188	-92.930557
19486.183085	16964.215500	1205.873047	114.772148
19486.183085	16964.215500	1204.752930	-50.610432
19486.183085	16964.215500	1203.633789	-34.935886
19486.183085	16964.215500	1202.513672	-49.759338
19486.183085	16964.215500	1201.393555	40.720264
19486.183085	16964.215500	1200.273438	-34.734661
19486.183085	16964.215500	1199.152344	65.872047
19486.183085	16964.215500	1198.032227	-55.181286
19486.183085	16964.215500	1196.911133	-286.738983
19486.183085	16964.215500	1195.790039	40.131927
19486.183085	16964.215500	1194.667969	-67.830246
19486.183085	16964.215500	1193.545898	-67.078224
19486.183085	16964.215500	1192.424805	37.680492
19486.183085	16964.215500	1191.301758	18.403366
19486.183085	16964.215500	1190.179688	200.359970
19486.183085	16964.215500	1189.056641	14.554383
19486.183085	16964.215500	1187.933594	105.429504
19486.183085	16964.215500	1186.810547	-59.134033
19486.183085	16964.215500	1185.687500	-11.267323
19486.183085	16964.215500	1184.563477	154.790253
19486.183085	16964.215500	1183.440430	86.119308
19486.183085	16964.215500	1182.316406	47.493244
19486.183085	16964.215500	1181.191406	20.783846
19486.183085	16964.215500	1180.067383	82.903908
19486.183085	16964.215500	1178.942383	-55.839111
19486.183085	16964.215500	1177.817383	-22.322401
19486.183085	16964.215500	1176.692383	-39.016865
19486.183085	16964.215500	1175.566406	112.239342
19486.183085	16964.215500	1174.440430	15.306411
19486.183085	16964.215500	1173.314453	133.595291
19486.183085	16964.215500	1172.188477	32.557945
19486.183085	16964.215500	1171.062500	154.450058
19486.183085	16964.215500	1169.935547	32.769318
19486.183085	16964.215500	1168.808594	57.671947
19486.183085	16964.215500	1167.681641	-53.912533
19486.183085	16964.215500	1166.553711	228.108231
19486.183085	16964.215500	1165.426758	150.625198
19486.183085	16964.215500	1164.298828	2.783198
19486.183085	16964.215500	1163.170898	-64.021194
19486.183085	16964.215500	1162.041992	55.363884
19486.183085	16964.215500	1160.914063	-15.858895
19486.183085	16964.215500	1159.785156	-124.425735
19486.183085	16964.215500	1158.656250	27.946783
19486.183085	16964.215500	1157.526367	-61.892303
19486.183085	16964.215500	1156.397461	-78.526245
19486.183085	16964.215500	1155.267578	-81.970711
19486.183085	16964.215500	1154.137695	-271.502716
19486.183085	16964.215500	1153.006836	-246.369034
19486.183085	16964.215500	1151.876953	-111.127281
19486.183085	16964.215500	1150.746094	37.504532
19486.183085	16964.215500	1149.615234	24.972151
19486.183085	16964.215500	1148.484375	-161.070221
19486.183085	16964.215500	1147.352539	132.186234
19486.183085	16964.215500	1146.220703	57.340687
19486.183085	16964.215500	1145.088867	-131.126495
19486.183085	16964.215500	1143.957031	-204.301331
19486.183085	16964.215500	1142.825195	-57.063759
19486.183085	16964.215500	1141.692383	-70.732033
19486.183085	16964.215500	1140.559570	-112.937317
19486.183085	16964.215500	1139.426758	20.677746
19486.183085	16964.215500	1138.292969	27.200130
19486.183085	16964.215500	1137.159180	116.285866
19486.183085	16964.215500	1136.025391	30.444662
19486.183085	16964.215500	1134.891602	8.498745
19486.183085	16964.215500	1133.757813	211.980301
19486.183085	16964.215500	1132.623047	32.082623
19486.183085	16964.215500	1131.488281	67.599594
19486.183085	16964.215500	1130.353516	-17.836973
19486.183085	16964.215500	1129.217773	56.443691
19486.183085	16964.215500	1128.083008	69.491531
19486.183085	16964.215500	1126.947266	58.913734
19486.183085	16964.215500	1125.811523	132.167419
19486.183085	16964.215500	1124.674805	-96.063057
19486.183085	16964.215500	1123.539063	60.814465
19486.183085	16964.215500	1122.402344	106.672607
19486.183085	16964.215500	1121.265625	-52.075340
19486.183085	16964.215500	1120.127930	-97.960930
19486.183085	16964.215500	1118.990234	47.104973
19486.183085	16964.215500	1117.853516	123.291656
19486.183085	16964.215500	1116.714844	63.789513
19486.183085	16964.215500	1115.577148	28.728504
19486.183085	16964.215500	1114.439453	-128.732513
19486.183085	16964.215500	1113.300781	22.296669
19486.183085	16964.215500	1112.162109	37.021553
19486.183085	16964.215500	1111.022461	92.641869
19486.183085	16964.215500	1109.883789	-15.714419
19486.183085	16964.215500	1108.744141	73.347214
19486.183085	16964.215500	1107.604492	-91.921707
19486.183085	16964.215500	1106.463867	61.151119
19486.183085	16964.215500	1105.324219	192.789566
19486.183085	16964.215500	1104.183594	46.958302
19486.183085	16964.215500	1103.042969	103.656013
19486.183085	16964.215500	1101.902344	224.750946
19486.183085	16964.215500	1100.760742	58.101799
19486.183085	16964.215500	1099.619141	165.956390
19486.183085	16964.215500	1098.477539	92.798210
19486.183085	16964.215500	1097.335938	34.347038
19486.183085	16964.215500	1096.193359	198.816986
19486.183085	16964.215500	1095.051758	74.143349
19486.183085	16964.215500	1093.909180	192.074539
19486.183085	16964.215500	1092.765625	129.849838
19486.183085	16964.215500	1091.623047	79.259186
19486.183085	16964.215500	1090.479492	208.377045
19486.183085	16964.215500	1089.335938	95.307899
19486.183085	16964.215500	1088.192383	107.607544
19486.183085	16964.215500	1087.047852	198.816055
19486.183085	16964.215500	1085.903320	181.922821
19486.183085	16964.215500	1084.758789	238.107620
19486.183085	16964.215500	1083.614258	6.665500
19486.183085	16964.215500	1082.469727	22.979382
19486.183085	16964.215500	1081.324219	110.621483
19486.183085	16964.215500	1080.178711	-89.587631
19486.183085	16964.215500	1079.033203	6.553321
19486.183085	16964.215500	1077.886719	100.733688
19486.183085	16964.215500	1076.740234	126.554390
19486.183085	16964.215500	1075.593750	197.967697
19486.183085	16964.215500	1074.447266	151.655380
19486.183085	16964.215500	1073.300781	-110.821861
19486.183085	16964.215500	1072.153320	25.385357
19486.183085	16964.215500	1071.005859	124.514801
19486.183085	16964.215500	1069.858398	95.119339
19486.183085	16964.215500	1068.709961	27.169413
19486.183085	16964.215500	1067.561523	130.098160
19486.183085	16964.215500	1066.413086	170.670380
19486.183085	16964.215500	1065.264648	202.593277
19486.183085	16964.215500	1064.116211	171.831833
19486.183085	16964.215500	1062.966797	109.216721
19486.183085	16964.215500	1061.817383	56.844318
19486.183085	16964.215500	1060.667969	165.616150
19486.183085	16964.215500	1059.517578	196.646027
19486.183085	16964.215500	1058.368164	270.652100
19486.183085	16964.215500	1057.217773	111.367706
19486.183085	16964.215500	1056.067383	157.331680
19486.183085	16964.215500	1054.916016	134.889221
19486.183085	16964.215500	1053.764648	68.720840
19486.183085	16964.215500	1052.613281	44.584522
19486.183085	16964.215500	1051.461914	138.332016
19486.183085	16964.215500	1050.310547	141.699814
19486.183085	16964.215500	1049.158203	42.254707
19486.183085	16964.215500	1048.005859	65.454651
19486.183085	16964.215500	1046.853516	131.008820
19486.183085	16964.215500	1045.700195	104.344276
19486.183085	16964.215500	1044.547852	64.291016
19486.183085	16964.215500	1043.394531	35.966652
19486.183085	16964.215500	1042.240234	76.250221
19486.183085	16964.215500	1041.086914	4.909333
19486.183085	16964.215500	1039.932617	179.635712
19486.183085	16964.215500	1038.778320	195.948029
19486.183085	16964.215500	1037.624023	138.325974
19486.183085	16964.215500	1036.469727	430.443573
19486.183085	16964.215500	1035.314453	365.916199
19486.183085	16964.215500	1034.159180	473.750916
19486.183085	16964.215500	1033.003906	443.485046
19486.183085	16964.215500	1031.847656	480.204559
19486.183085	16964.215500	1030.692383	496.026093
19486.183085	16964.215500	1029.536133	471.731873
19486.183085	16964.215500	1028.378906	653.497803
19486.183085	16964.215500	1027.222656	384.257965
19486.183085	16964.215500	1026.065430	279.758331
19486.183085	16964.215500	1024.908203	267.296143
19486.183085	16964.215500	1023.750977	96.595245
19486.183085	16964.215500	1022.593750	76.974182
19486.183085	16964.215500	1021.435547	343.945587
19486.183085	16964.215500	1020.277344	170.321442
19486.183085	16964.215500	1019.119141	-26.108030
19486.183085	16964.215500	1017.959961	100.583824
19486.183085	16964.215500	1016.800781	72.555695
19486.183085	16964.215500	1015.641602	45.833168
19486.183085	16964.215500	1014.482422	-78.322807
19486.183085	16964.215500	1013.323242	-229.162018
19486.183085	16964.215500	1012.163086	-82.509857
19486.183085	16964.215500	1011.002930	143.499466
19486.183085	16964.215500	1009.842773	-38.670933
19486.183085	16964.215500	1008.681641	-129.100388
19486.183085	16964.215500	1007.520508	-196.452393
19486.183085	16964.215500	1006.359375	-86.516739
19486.183085	16964.215500	1005.198242	-12.137005
19486.183085	16964.215500	1004.037109	74.321785
19486.183085	16964.215500	1002.875000	120.009712
19486.183085	16964.215500	1001.712891	152.620819
19486.183085	16964.215500	1000.550781	-24.636690
19486.183085	16964.215500	999.387695	-42.491680
19486.183085	16964.215500	998.224609	-17.482500
19486.183085	16964.215500	997.061523	33.148853
19486.183085	16964.215500	995.898438	19.528555
19486.183085	16964.215500	994.734375	19.236286
19486.183085	16964.215500	993.571289	-240.279343
19486.183085	16964.215500	992.407227	-196.158951
19486.183085	16964.215500	991.242188	57.663998
19486.183085	16964.215500	990.078125	22.246597
19486.183085	16964.215500	988.913086	-74.860466
19486.183085	16964.215500	987.748047	239.577011
19486.183085	16964.215500	986.583008	59.191055
19486.183085	16964.215500	985.416992	-117.499306
19486.183085	16964.215500	984.250977	180.384689
19486.183085	16964.215500	983.084961	-37.682148
19486.183085	16964.215500	981.918945	32.959518
19486.183085	16964.215500	980.751953	93.373596
19486.183085	16964.215500	979.584961	-102.117744
19486.183085	16964.215500	978.417969	23.398756
19486.183085	16964.215500	977.250977	-27.036701
19486.183085	16964.215500	976.083008	-179.666901
19486.183085	16964.215500	974.915039	-74.360062
19486.183085	16964.215500	973.747070	68.696465
19486.183085	16964.215500	972.579102	-56.747147
19486.183085	16964.215500	971.410156	78.565285
19486.183085	16964.215500	970.242188	67.864037
19486.183085	16964.215500	969.072266	-42.868805
19486.183085	16964.215500	967.903320	74.117401
19486.183085	16964.215500	966.733398	82.101418
19486.183085	16964.215500	965.563477	-84.663818
19486.183085	16964.215500	964.393555	-21.163527
19486.183085	16964.215500	963.223633	62.318264
19486.183085	16964.215500	962.052734	110.844284
19486.183085	16964.215500	960.881836	-84.303215
19486.183085	16964.215500	959.710938	8.695243
19486.183085	16964.215500	958.540039	-22.002014
19486.183085	16964.215500	957.368164	-38.890888
19486.183085	16964.215500	956.196289	-136.575821
19486.183085	16964.215500	955.024414	-67.151421
19486.183085	16964.215500	953.851563	-89.804047
19486.183085	16964.215500	952.679688	1.669451
19486.183085	16964.215500	951.506836	79.235085
19486.183085	16964.215500	950.333984	146.150726
19486.183085	16964.215500	949.160156	-53.699707
19486.183085	16964.215500	947.986328	105.569603
19486.183085	16964.215500	946.812500	-143.486557
19486.183085	16964.215500	945.638672	-13.635662
19486.183085	16964.215500	944.464844	-64.859062
19486.183085	16964.215500	943.290039	81.914581
19486.183085	16964.215500	942.115234	65.618004
19486.183085	16964.215500	940.940430	-10.715509
19486.183085	16964.215500	939.764648	-154.573242
19486.183085	16964.215500	938.588867	-103.182610
19486.183085	16964.215500	937.413086	-59.428310
19486.183085	16964.215500	936.237305	231.689728
19486.183085	16964.215500	935.060547	91.484978
19486.183085	16964.215500	933.883789	-141.248505
19486.183085	16964.215500	932.707031	-42.062401
19486.183085	16964.215500	931.530273	71.518921
19486.183085	16964.215500	930.352539	14.048149
19486.183085	16964.215500	929.175781	98.642715
19486.183085	16964.215500	927.998047	-20.650669
19486.183085	16964.215500	926.819336	117.592812
19486.183085	16964.215500	925.641602	148.648834
19486.183085	16964.215500	924.462891	-118.952553
19486.183085	16964.215500	923.284180	21.290751
19486.183085	16964.215500	922.104492	54.416714
19486.183085	16964.215500	920.924805	95.762405
19486.183085	16964.215500	919.746094	102.636604
19486.183085	16964.215500	919.551758	-75.838860
19486.183085	16964.215500	918.386719	-13.999608
19486.183085	16964.215500	917.220703	210.347519
19486.183085	16964.215500	916.054688	2.635287
19486.183085	16964.215500	914.887695	-176.200928
19486.183085	16964.215500	913.721680	-104.127556
19486.183085	16964.215500	912.554688	58.366718
19486.183085	16964.215500	911.387695	-19.680809
19486.183085	16964.215500	910.220703	-23.726212
19486.183085	16964.215500	909.052734	-31.879108
19486.183085	16964.215500	907.885742	58.554279
19486.183085	16964.215500	906.717773	-132.396255
19486.183085	16964.215500	905.548828	-159.013000
19486.183085	16964.215500	904.380859	-175.366791
19486.183085	16964.215500	903.211914	34.044769
19486.183085	16964.215500	902.042969	42.275585
19486.183085	16964.215500	900.874023	187.948654
19486.183085	16964.215500	899.704102	-76.659973
19486.183085	16964.215500	898.535156	181.752914
19486.183085	16964.215500	897.365234	159.173035
19486.183085	16964.215500	896.194336	304.689148
19486.183085	16964.215500	895.024414	269.783264
19486.183085	16964.215500	893.853516	122.194893
19486.183085	16964.215500	892.682617	87.332489
19486.183085	16964.215500	891.511719	72.959633
19486.183085	16964.215500	890.340820	181.451248
19486.183085	16964.215500	889.168945	99.494385
19486.183085	16964.215500	887.997070	136.286560
19486.183085	16964.215500	886.825195	-119.596153
19486.183085	16964.215500	885.653320	33.838329
19486.183085	16964.215500	884.480469	76.740898
19486.183085	16964.215500	883.307617	-31.729996
19486.183085	16964.215500	882.134766	80.678459
19486.183085	16964.215500	880.961914	156.232758
19486.183085	16964.215500	879.788086	-44.185799
19486.183085	16964.215500	878.614258	70.181847
19486.183085	16964.215500	877.440430	31.256462
19486.183085	16964.215500	876.266602	-7.661305
19486.183085	16964.215500	875.091797	24.916254
19486.183085	16964.215500	873.916992	41.135902
19486.183085	16964.215500	872.742188	12.427182
19486.183085	16964.215500	871.567383	71.488190
19486.183085	16964.215500	870.391602	181.538025
19486.183085	16964.215500	869.215820	-53.268719
19486.183085	16964.215500	868.040039	22.065847
19486.183085	16964.215500	866.864258	-51.517036
19486.183085	16964.215500	865.687500	-96.527802
19486.183085	16964.215500	864.510742	-121.144852
19486.183085	16964.215500	863.333984	102.893356
19486.183085	16964.215500	862.157227	76.188217
19486.183085	16964.215500	860.979492	84.122780
19486.183085	16964.215500	859.802734	75.742867
19486.183085	16964.215500	858.625000	161.039383
19486.183085	16964.215500	857.446289	46.760143
19486.183085	16964.215500	856.268555	56.686371
19486.183085	16964.215500	855.089844	-55.511421
19486.183085	16964.215500	853.911133	-17.099464
19486.183085	16964.215500	852.731445	112.838409
19486.183085	16964.215500	851.552734	23.035645
19486.183085	16964.215500	850.373047	93.914604
19486.183085	16964.215500	849.193359	-44.662006
19486.183085	16964.215500	848.013672	-55.132877
19486.183085	16964.215500	846.833008	-155.029175
19486.183085	16964.215500	845.652344	-76.090729
19486.183085	16964.215500	844.471680	-21.576527
19486.183085	16964.215500	843.291016	2.436039
19486.183085	16964.215500	842.110352	-24.341347
19486.183085	16964.215500	840.928711	56.485844
19486.183085	16964.215500	839.747070	-57.596558
19486.183085	16964.215500	838.564453	75.942657
19486.183085	16964.215500	837.382813	-96.965523
19486.183085	16964.215500	836.200195	109.524734
19486.183085	16964.215500	835.017578	-83.627045
19486.183085	16964.215500	833.834961	-57.721901
19486.183085	16964.215500	832.651367	-29.810730
19486.183085	16964.215500	831.467773	58.878506
19486.183085	16964.215500	830.284180	-61.211090
19486.183085	16964.215500	829.100586	120.612610
19486.183085	16964.215500	827.916992	-3.524687
19486.183085	16964.215500	826.732422	-79.018684
19486.183085	16964.215500	825.547852	-103.879509
19486.183085	16964.215500	824.363281	71.665039
19486.183085	16964.215500	823.177734	-74.685104
19486.183085	16964.215500	821.992188	321.314850
19486.183085	16964.215500	820.806641	-13.213258
19486.183085	16964.215500	819.621094	95.348427
19486.183085	16964.215500	818.434570	42.068913
19486.183085	16964.215500	817.249023	-49.629120
19486.183085	16964.215500	816.062500	-98.854477
19486.183085	16964.215500	814.875000	-30.854557
19486.183085	16964.215500	813.688477	71.442825
19486.183085	16964.215500	812.500977	-0.055621
19486.183085	16964.215500	811.313477	104.175323
19486.183085	16964.215500	810.125977	40.734997
19486.183085	16964.215500	808.937500	-155.947403
19486.183085	16964.215500	807.749023	115.728584
19486.183085	16964.215500	806.560547	229.857422
19486.183085	16964.215500	805.372070	57.403652
19486.183085	16964.215500	804.182617	76.644066
19486.183085	16964.215500	802.994141	275.349426
19486.183085	16964.215500	801.803711	32.357433
19486.183085	16964.215500	800.614258	29.344469
19486.183085	16964.215500	799.424805	106.932030
19486.183085	16964.215500	798.234375	53.480770
19486.183085	16964.215500	797.043945	36.293499
19486.183085	16964.215500	795.852539	7.006216
19486.183085	16964.215500	794.662109	34.091164
19486.183085	16964.215500	793.470703	-25.437191
19486.183085	16964.215500	792.279297	-91.006432
19486.183085	16964.215500	791.087891	-55.941051
19486.183085	16964.215500	789.895508	51.530590
19486.183085	16964.215500	788.703125	62.360867
19486.183085	16964.215500	787.510742	137.526077
19486.183085	16964.215500	786.318359	216.654831
19486.183085	16964.215500	785.125000	138.900558
19486.183085	16964.215500	783.931641	-43.380001
19486.183085	16964.215500	782.738281	27.618565
19486.183085	16964.215500	781.544922	18.184074
19486.183085	16964.215500	780.350586	6.720809
19486.183085	16964.215500	779.156250	1.258491
19486.183085	16964.215500	777.961914	-120.701180
19486.183085	16964.215500	776.767578	0.289785
19486.183085	16964.215500	775.572266	-91.565598
19486.183085	16964.215500	774.376953	-32.898624
19486.183085	16964.215500	773.181641	47.783623
19486.183085	16964.215500	771.986328	44.148872
19486.183085	16964.215500	770.790039	84.611961
19486.183085	16964.215500	769.593750	112.995811
19486.183085	16964.215500	768.397461	-37.088474
19486.183085	16964.215500	767.201172	11.289532
19486.183085	16964.215500	766.003906	141.779938
19486.183085	16964.215500	764.806641	-22.333294
19486.183085	16964.215500	763.609375	-52.202709
19486.183085	16964.215500	762.412109	-78.087311
19486.183085	16964.215500	761.213867	26.157053
19486.183085	16964.215500	760.015625	178.368195
19486.183085	16964.215500	758.817383	202.392578
19486.183085	16964.215500	757.618164	30.275677
19486.183085	16964.215500	756.419922	90.263878
19486.183085	16964.215500	755.220703	134.194351
19486.183085	16964.215500	754.021484	-179.885971
19486.183085	16964.215500	752.821289	3.971617
19486.183085	16964.215500	751.621094	123.752602
19486.183085	16964.215500	750.420898	-28.349810
19486.183085	16964.215500	749.220703	73.335129
19486.183085	16964.215500	748.020508	5.138319
19486.183085	16964.215500	746.819336	-17.123516
19486.183085	16964.215500	745.618164	130.319489
19486.183085	16964.215500	744.416992	-35.774017
19486.183085	16964.215500	743.214844	173.420441
19486.183085	16964.215500	742.012695	180.935516
19486.183085	16964.215500	740.810547	284.180298
19486.183085	16964.215500	739.608398	-7.618781
19486.183085	16964.215500	738.406250	151.391724
19486.183085	16964.215500	737.203125	5.229523
19486.183085	16964.215500	736.000000	265.770233
19486.183085	16964.215500	734.795898	350.775635
19486.183085	16964.215500	733.592773	256.362549
19486.183085	16964.215500	732.388672	450.835876
19486.183085	16964.215500	731.184570	396.208099
19486.183085	16964.215500	729.979492	230.048538
19486.183085	16964.215500	728.775391	119.667648
19486.183085	16964.215500	727.570313	276.039032
19486.183085	16964.215500	726.365234	257.171478
19486.183085	16964.215500	725.160156	262.151886
19486.183085	16964.215500	723.954102	151.713501
19486.183085	16964.215500	722.748047	152.664047
19486.183085	16964.215500	721.541992	165.507446
19486.183085	16964.215500	720.334961	-70.201797
19486.183085	16964.215500	719.128906	45.969372
19486.183085	16964.215500	717.921875	209.751022
19486.183085	16964.215500	716.714844	123.082863
19486.183085	16964.215500	715.506836	96.010551
19486.183085	16964.215500	714.298828	76.855713
19486.183085	16964.215500	713.090820	23.916302
19486.183085	16964.215500	711.882813	129.777374
19486.183085	16964.215500	710.674805	17.232016
19486.183085	16964.215500	709.465820	-73.472099
19486.183085	16964.215500	708.256836	67.945869
19486.183085	16964.215500	707.047852	-10.903589
19486.183085	16964.215500	705.837891	-101.652733
19486.183085	16964.215500	704.627930	89.143456
19486.183085	16964.215500	703.417969	8.249809
19486.183085	16964.215500	702.208008	-52.826660
19486.183085	16964.215500	700.998047	-74.284966
19486.183085	16964.215500	699.787109	-93.785782
19486.183085	16964.215500	698.576172	-109.353615
19486.183085	16964.215500	697.364258	61.190681
19486.183085	16964.215500	696.153320	118.779549
19486.183085	16964.215500	694.941406	107.032738
19486.183085	16964.215500	693.729492	4.223764
19486.183085	16964.215500	692.516602	-33.281773
19486.183085	16964.215500	691.304688	-78.720108
19486.183085	16964.215500	690.091797	-102.416969
19486.183085	16964.215500	688.878906	97.296822
19486.183085	16964.215500	687.665039	-175.577454
19486.183085	16964.215500	686.451172	2.262270
19486.183085	16964.215500	685.237305	-29.466852
19486.183085	16964.215500	684.023438	134.373230
19486.183085	16964.215500	682.809570	142.070999
19486.183085	16964.215500	681.594727	90.490936
19486.183085	16964.215500	680.379883	25.080805
19486.183085	16964.215500	679.165039	-54.149200
19486.183085	16964.215500	677.949219	271.201508
19486.183085	16964.215500	676.733398	57.720451
19486.183085	16964.215500	675.517578	-112.299904
19486.183085	16964.215500	674.301758	56.957298
19486.183085	16964.215500	673.084961	-146.569305
19486.183085	16964.215500	671.869141	89.596985
19486.183085	16964.215500	670.651367	-13.381269
19486.183085	16964.215500	669.434570	-126.198814
19486.183085	16964.215500	668.216797	23.045492
19486.183085	16964.215500	667.000000	-18.871618
19486.183085	16964.215500	665.781250	-56.855175
19486.183085	16964.215500	664.563477	-55.469730
19486.183085	16964.215500	663.344727	-215.530075
19486.183085	16964.215500	662.125977	-25.216806
19486.183085	16964.215500	660.907227	98.089821
19486.183085	16964.215500	659.688477	-8.853718
19486.183085	16964.215500	658.468750	-23.328602
19486.183085	16964.215500	657.249023	-31.920578
19486.183085	16964.215500	656.029297	-5.139730
19486.183085	16964.215500	654.808594	64.855789
19486.183085	16964.215500	653.587891	75.843613
19486.183085	16964.215500	652.367188	94.668182
19486.183085	16964.215500	651.146484	44.712032
19486.183085	16964.215500	649.924805	-46.483772
19486.183085	16964.215500	648.704102	137.242981
19486.183085	16964.215500	647.482422	93.149475
19486.183085	16964.215500	646.259766	13.731556
19486.183085	16964.215500	645.037109	142.339294
19486.183085	16964.215500	643.815430	102.152916
19486.183085	16964.215500	642.591797	-87.101456
19486.183085	16964.215500	641.369141	-107.635681
19486.183085	16964.215500	640.145508	134.559326
19486.183085	16964.215500	638.921875	47.317158
19486.183085	16964.215500	637.698242	-73.215858
19486.183085	16964.215500	636.474609	251.084167
19486.183085	16964.215500	635.250000	58.060055
19486.183085	16964.215500	634.025391	6.129466
19486.183085	16964.215500	632.800781	11.002242
19486.183085	16964.215500	631.575195	172.489014
19486.183085	16964.215500	630.349609	22.683235
19486.183085	16964.215500	629.124023	49.062378
19486.183085	16964.215500	627.898438	-8.702742
19486.183085	16964.215500	626.671875	121.341103
19486.183085	16964.215500	625.445313	2.956378
19486.183085	16964.215500	624.218750	29.310997
19486.183085	16964.215500	622.992188	2.874641
19486.183085	16964.215500	621.764648	-5.957047
19486.183085	16964.215500	620.537109	184.528625
19486.183085	16964.215500	619.309570	169.807205
19486.183085	16964.215500	618.081055	-65.615273
19486.183085	16964.215500	616.852539	-13.871817
19486.183085	16964.215500	615.624023	45.666473
19486.183085	16964.215500	614.395508	146.177322
19486.183085	16964.215500	613.166992	78.820885
19486.183085	16964.215500	611.937500	25.161829
19486.183085	16964.215500	610.708008	230.982193
19486.183085	16964.215500	609.477539	-41.098656
19486.183085	16964.215500	608.248047	131.523331
19486.183085	16964.215500	607.017578	35.058620
19486.183085	16964.215500	605.787109	65.339005
19486.183085	16964.215500	604.555664	-105.088348
19486.183085	16964.215500	603.325195	-127.361671
19486.183085	16964.215500	602.093750	-58.060452
19486.183085	16964.215500	600.861328	-56.926823
19486.183085	16964.215500	599.629883	-104.451645
19486.183085	16964.215500	598.397461	5.738797
19486.183085	16964.215500	597.165039	228.781876
19486.183085	16964.215500	595.932617	-15.228649
19486.183085	16964.215500	594.699219	-91.810936
19486.183085	16964.215500	593.465820	-65.255409
19486.183085	16964.215500	592.232422	208.267014
19486.183085	16964.215500	590.999023	75.382294
19486.183085	16964.215500	589.764648	92.247139
19486.183085	16964.215500	588.530273	146.055405
19486.183085	16964.215500	587.295898	102.726944
19486.183085	16964.215500	586.061523	108.008781
19486.183085	16964.215500	584.826172	270.624084
19486.183085	16964.215500	583.590820	250.690414
19486.183085	16964.215500	582.355469	-132.204437
19486.183085	16964.215500	581.119141	-136.448593
19486.183085	16964.215500	579.882813	-113.491028
19486.183085	16964.215500	578.646484	12.309727
19486.183085	16964.215500	577.410156	287.437897
19486.183085	16964.215500	576.172852	13.714402
19486.183085	16964.215500	574.935547	197.683258
19486.183085	16964.215500	573.698242	-11.862784
19486.183085	16964.215500	572.460938	245.749878
19486.183085	16964.215500	571.222656	170.050232
19486.183085	16964.215500	569.984375	38.250046
19486.183085	16964.215500	568.746094	181.551163
19486.183085	16964.215500	567.506836	32.464054
19486.183085	16964.215500	566.267578	206.765732
19486.183085	16964.215500	565.028320	28.793718
19486.183085	16964.215500	563.789063	266.965576
19486.183085	16964.215500	562.548828	125.905083
19486.183085	16964.215500	561.309570	188.035263
19486.183085	16964.215500	560.068359	292.732239
19486.183085	16964.215500	558.828125	287.228241
19486.183085	16964.215500	557.586914	202.527161
19486.183085	16964.215500	556.345703	253.184753
19486.183085	16964.215500	555.104492	-34.248821
19486.183085	16964.215500	553.863281	230.950348
19486.183085	16964.215500	552.621094	111.764450
19486.183085	16964.215500	551.378906	10.055581
19486.183085	16964.215500	550.136719	-8.551082
19486.183085	16964.215500	548.893555	239.245941
19486.183085	16964.215500	547.650391	388.576111
19486.183085	16964.215500	546.407227	331.465790
19486.183085	16964.215500	545.164063	181.847565
19486.183085	16964.215500	543.919922	211.685013
19486.183085	16964.215500	542.675781	299.397217
19486.183085	16964.215500	541.431641	308.091431
19486.183085	16964.215500	540.186523	272.508484
19486.183085	16964.215500	538.941406	310.205872
19486.183085	16964.215500	537.696289	344.082642
19486.183085	16964.215500	536.451172	223.920578
19486.183085	16964.215500	535.205078	400.385193
19486.183085	16964.215500	533.959961	443.987671
19486.183085	16964.215500	532.712891	468.377869
19486.183085	16964.215500	531.466797	373.495361
19486.183085	16964.215500	530.219727	363.350281
19486.183085	16964.215500	528.972656	255.159500
19486.183085	16964.215500	527.725586	422.048981
19486.183085	16964.215500	526.478516	367.808685
19486.183085	16964.215500	525.230469	503.933960
19486.183085	16964.215500	523.982422	534.342224
19486.183085	16964.215500	522.734375	328.447327
19486.183085	16964.215500	521.485352	520.319458
19486.183085	16964.215500	520.236328	370.287964
19486.183085	16964.215500	518.987305	517.976196
19486.183085	16964.215500	517.737305	479.423035
19486.183085	16964.215500	516.488281	638.603333
19486.183085	16964.215500	515.238281	642.315979
19486.183085	16964.215500	513.988281	471.473541
19486.183085	16964.215500	512.737305	617.213135
19486.183085	16964.215500	511.486328	690.042847
19486.183085	16964.215500	510.235352	789.702454
19486.183085	16964.215500	508.984375	601.812683
19486.183085	16964.215500	507.732422	684.237671
19486.183085	16964.215500	506.480469	749.396057
19486.183085	16964.215500	505.228516	755.153259
19486.183085	16964.215500	503.976563	850.928162
19486.183085	16964.215500	502.723633	852.845276
19486.183085	16964.215500	501.470703	969.624329
19486.183085	16964.215500	500.217773	1004.051147
19486.183085	16964.215500	498.963867	1208.764404
19486.183085	16964.215500	497.709961	1116.845703
19486.183085	16964.215500	496.456055	1028.778687
19486.183085	16964.215500	495.202148	1028.697876
19486.183085	16964.215500	493.947266	1215.964111
19486.183085	16964.215500	492.692383	1384.009155
19486.183085	16964.215500	491.437500	1420.088135
19486.183085	16964.215500	490.181641	1513.438232
19486.183085	16964.215500	488.926758	1293.425781
19486.183085	16964.215500	487.670898	1594.851318
19486.183085	16964.215500	486.414063	1462.660889
19486.183085	16964.215500	485.158203	1425.919678
19486.183085	16964.215500	483.901367	1547.549683
19486.183085	16964.215500	482.644531	1531.671631
19486.183085	16964.215500	481.386719	1702.692871
19486.183085	16964.215500	480.128906	1581.734131
19486.183085	16964.215500	478.871094	1735.344604
19486.183085	16964.215500	477.613281	1894.515991
19486.183085	16964.215500	476.355469	1862.906494
19486.183085	16964.215500	475.096680	1796.906494
19486.183085	16964.215500	473.837891	1923.256836
19486.183085	16964.215500	472.578125	2215.160645
19486.183085	16964.215500	471.319336	1975.456665
19486.183085	16964.215500	470.059570	2004.197754
19486.183085	16964.215500	468.799805	1914.754150
19486.183085	16964.215500	467.539063	2160.171143
19486.183085	16964.215500	466.278320	2163.658691
19486.183085	16964.215500	465.017578	2404.779053
19486.183085	16964.215500	463.756836	2236.680420
19486.183085	16964.215500	462.495117	2271.938965
19486.183085	16964.215500	461.233398	2470.486328
19486.183085	16964.215500	459.971680	2349.405518
19486.183085	16964.215500	458.709961	2465.703613
19486.183085	16964.215500	457.447266	2359.426758
19486.183085	16964.215500	456.184570	2271.948730
19486.183085	16964.215500	454.921875	2427.347168
19486.183085	16964.215500	453.658203	2667.856934
19486.183085	16964.215500	452.394531	2496.048828
19486.183085	16964.215500	451.130859	2346.801025
19486.183085	16964.215500	449.867188	2339.628906
19486.183085	16964.215500	448.602539	2525.649414
19486.183085	16964.215500	447.337891	2379.340332
19486.183085	16964.215500	446.073242	2608.216309
19486.183085	16964.215500	444.807617	2724.778564
19486.183085	16964.215500	443.542969	2615.363770
19486.183085	16964.215500	442.276367	2661.001465
19486.183085	16964.215500	441.010742	2630.434326
19486.183085	16964.215500	439.744141	2643.030273
19486.183085	16964.215500	438.478516	2628.678223
19486.183085	16964.215500	437.210938	2846.766846
19486.183085	16964.215500	435.944336	2706.523438
19486.183085	16964.215500	434.676758	2624.523682
19486.183085	16964.215500	433.409180	2600.718262
19486.183085	16964.215500	432.141602	2820.441162
19486.183085	16964.215500	430.873047	2805.000244
19486.183085	16964.215500	429.604492	2847.629150
19486.183085	16964.215500	428.335938	2781.904053
19486.183085	16964.215500	427.067383	2658.907715
19486.183085	16964.215500	425.797852	2947.301758
19486.183085	16964.215500	424.528320	2804.172363
19486.183085	16964.215500	423.258789	2868.225586
19486.183085	16964.215500	421.988281	2865.466309
19486.183085	16964.215500	420.717773	2737.391113
19486.183085	16964.215500	419.447266	2808.740479
19486.183085	16964.215500	418.175781	2937.805176
19486.183085	16964.215500	416.905273	2781.136963
19486.183085	16964.215500	415.633789	3025.542236
19486.183085	16964.215500	414.362305	3052.123779
19486.183085	16964.215500	413.089844	2968.468018
19486.183085	16964.215500	411.817383	2944.301025
19486.183085	16964.215500	410.544922	2970.132813
19486.183085	16964.215500	409.272461	3100.551514
19486.183085	16964.215500	407.999023	3130.089600
19486.183085	16964.215500	406.725586	3190.650879
19486.183085	16964.215500	405.452148	2715.351074
19486.183085	16964.215500	404.177734	2915.106445
19486.183085	16964.215500	402.903320	2872.758789
19486.183085	16964.215500	401.628906	3119.141113
19486.183085	16964.215500	400.354492	2865.671875
19486.183085	16964.215500	399.079102	3030.613037
19486.183085	16964.215500	397.803711	2917.811768
19486.183085	16964.215500	396.528320	3014.415283
19486.183085	16964.215500	395.251953	2882.211426
19486.183085	16964.215500	393.976563	2946.128906
19486.183085	16964.215500	392.700195	2920.331543
19486.183085	16964.215500	391.422852	2891.257080
19486.183085	16964.215500	390.145508	2806.305420
19486.183085	16964.215500	388.869141	2986.617432
19486.183085	16964.215500	387.590820	2866.778809
19486.183085	16964.215500	386.313477	2846.845703
19486.183085	16964.215500	385.035156	2845.955078
19486.183085	16964.215500	383.756836	2792.784424
19486.183085	16964.215500	382.478516	2533.510498
19486.183085	16964.215500	381.199219	2790.220459
19486.183085	16964.215500	379.919922	2491.941895
19486.183085	16964.215500	378.640625	2758.124023
19486.183085	16964.215500	377.360352	2542.516113
19486.183085	16964.215500	376.080078	2587.440430
19486.183085	16964.215500	374.799805	2602.306641
19486.183085	16964.215500	373.519531	2414.774170
19486.183085	16964.215500	372.238281	2498.634766
19486.183085	16964.215500	370.957031	2269.594238
19486.183085	16964.215500	369.675781	2491.475830
19486.183085	16964.215500	368.394531	2464.054443
19486.183085	16964.215500	367.112305	2381.961914
19486.183085	16964.215500	365.830078	2273.287354
19486.183085	16964.215500	364.546875	2354.868652
19486.183085	16964.215500	363.264648	2035.811768
19486.183085	16964.215500	361.981445	2314.408203
19486.183085	16964.215500	360.698242	2330.577881
19486.183085	16964.215500	359.414063	2177.789551
19486.183085	16964.215500	358.129883	2024.282715
19486.183085	16964.215500	356.845703	1909.216431
19486.183085	16964.215500	355.561523	2164.875244
19486.183085	16964.215500	354.276367	1919.056885
19486.183085	16964.215500	352.991211	1851.480713
19486.183085	16964.215500	351.706055	1760.430420
19486.183085	16964.215500	350.420898	1739.135986
19486.183085	16964.215500	349.134766	1628.856079
19486.183085	16964.215500	347.848633	1673.945801
19486.183085	16964.215500	346.561523	1674.654663
19486.183085	16964.215500	345.275391	1651.613770
19486.183085	16964.215500	343.988281	1313.865234
19486.183085	16964.215500	342.700195	1322.966675
19486.183085	16964.215500	341.413086	1695.566650
19486.183085	16964.215500	340.125000	1300.688477
19486.183085	16964.215500	338.836914	1386.375122
19486.183085	16964.215500	337.548828	1157.338867
19486.183085	16964.215500	336.259766	1339.451416
19486.183085	16964.215500	334.970703	1156.524170
19486.183085	16964.215500	333.681641	1088.680542
19486.183085	16964.215500	332.391602	1033.344727
19486.183085	16964.215500	331.101563	1044.459106
19486.183085	16964.215500	329.811523	839.301453
19486.183085	16964.215500	328.521484	912.341553
19486.183085	16964.215500	327.230469	735.410706
19486.183085	16964.215500	325.939453	563.236877
19486.183085	16964.215500	324.648438	546.177795
19486.183085	16964.215500	323.356445	618.897095
19486.183085	16964.215500	322.064453	326.473785
19486.183085	16964.215500	320.772461	587.915100
19486.183085	16964.215500	319.480469	500.793121
19486.183085	16964.215500	318.187500	458.435211
19486.183085	16964.215500	316.894531	297.608154
19486.183085	16964.215500	315.601563	-5.830160
19486.183085	16964.215500	314.307617	104.215439
19486.183085	16964.215500	313.013672	25.018187
19486.183085	16964.215500	311.719727	371.936554
19486.183085	16964.215500	310.425781	10.503044
19486.183085	16964.215500	309.130859	45.061600
19486.183085	16964.215500	307.835938	-300.685089
19486.183085	16964.215500	306.541016	77.090660
19486.183085	16964.215500	305.245117	-11.031107
19486.183085	16964.215500	303.949219	-22.330202
19486.183085	16964.215500	302.653320	-92.078560
19486.183085	16964.215500	301.356445	3.294796
19486.183085	16964.215500	300.060547	-19.049841
19486.183085	16964.215500	298.763672	180.688614
