#X		#Y		#Wave		#Intensity
19489.798245	16962.746500	2000.043945	-18.590078
19489.798245	16962.746500	1999.080078	-195.932541
19489.798245	16962.746500	1998.116211	21.745459
19489.798245	16962.746500	1997.151367	20.960886
19489.798245	16962.746500	1996.186523	-47.027187
19489.798245	16962.746500	1995.222656	-68.230080
19489.798245	16962.746500	1994.256836	-17.868126
19489.798245	16962.746500	1993.291992	71.802864
19489.798245	16962.746500	1992.327148	-88.894829
19489.798245	16962.746500	1991.361328	57.158634
19489.798245	16962.746500	1990.395508	136.074860
19489.798245	16962.746500	1989.429688	21.699120
19489.798245	16962.746500	1988.463867	40.718365
19489.798245	16962.746500	1987.497070	-12.235431
19489.798245	16962.746500	1986.531250	241.256866
19489.798245	16962.746500	1985.564453	49.361767
19489.798245	16962.746500	1984.597656	-110.542770
19489.798245	16962.746500	1983.630859	367.106506
19489.798245	16962.746500	1982.664063	68.394188
19489.798245	16962.746500	1981.696289	85.862289
19489.798245	16962.746500	1980.728516	157.479034
19489.798245	16962.746500	1979.761719	164.656631
19489.798245	16962.746500	1978.792969	-267.895386
19489.798245	16962.746500	1977.825195	-11.624683
19489.798245	16962.746500	1976.857422	222.162125
19489.798245	16962.746500	1975.888672	-109.481064
19489.798245	16962.746500	1974.919922	185.609711
19489.798245	16962.746500	1973.951172	63.488686
19489.798245	16962.746500	1972.982422	69.532265
19489.798245	16962.746500	1972.013672	257.931183
19489.798245	16962.746500	1971.043945	58.999771
19489.798245	16962.746500	1970.075195	-100.551422
19489.798245	16962.746500	1969.105469	129.277802
19489.798245	16962.746500	1968.135742	381.077484
19489.798245	16962.746500	1967.165039	-3.028421
19489.798245	16962.746500	1966.195313	73.559952
19489.798245	16962.746500	1965.224609	223.903885
19489.798245	16962.746500	1964.253906	211.554489
19489.798245	16962.746500	1963.283203	285.281647
19489.798245	16962.746500	1962.312500	206.259476
19489.798245	16962.746500	1961.341797	43.492027
19489.798245	16962.746500	1960.370117	254.730789
19489.798245	16962.746500	1959.399414	77.074425
19489.798245	16962.746500	1958.427734	2.718899
19489.798245	16962.746500	1957.455078	34.066116
19489.798245	16962.746500	1956.483398	281.707184
19489.798245	16962.746500	1955.511719	81.746475
19489.798245	16962.746500	1954.539063	-120.665154
19489.798245	16962.746500	1953.566406	8.701179
19489.798245	16962.746500	1952.593750	169.897583
19489.798245	16962.746500	1951.621094	291.669464
19489.798245	16962.746500	1950.647461	143.165146
19489.798245	16962.746500	1949.674805	60.964382
19489.798245	16962.746500	1948.701172	-141.561340
19489.798245	16962.746500	1947.727539	117.441727
19489.798245	16962.746500	1946.753906	420.482269
19489.798245	16962.746500	1945.780273	298.846252
19489.798245	16962.746500	1944.805664	152.685150
19489.798245	16962.746500	1943.831055	173.344849
19489.798245	16962.746500	1942.856445	267.534912
19489.798245	16962.746500	1941.881836	131.167908
19489.798245	16962.746500	1940.907227	100.238426
19489.798245	16962.746500	1939.932617	-180.721909
19489.798245	16962.746500	1938.957031	38.340157
19489.798245	16962.746500	1937.981445	191.139404
19489.798245	16962.746500	1937.005859	-55.448990
19489.798245	16962.746500	1936.030273	141.360214
19489.798245	16962.746500	1935.054688	122.580734
19489.798245	16962.746500	1934.078125	10.755667
19489.798245	16962.746500	1933.101563	-0.673857
19489.798245	16962.746500	1932.125000	193.477570
19489.798245	16962.746500	1931.148438	201.573013
19489.798245	16962.746500	1930.171875	234.123932
19489.798245	16962.746500	1929.194336	144.352783
19489.798245	16962.746500	1928.217773	47.270660
19489.798245	16962.746500	1927.240234	-220.939041
19489.798245	16962.746500	1926.262695	-105.226135
19489.798245	16962.746500	1925.284180	10.447995
19489.798245	16962.746500	1924.306641	221.385284
19489.798245	16962.746500	1923.328125	-83.303368
19489.798245	16962.746500	1922.350586	78.720963
19489.798245	16962.746500	1921.372070	23.313244
19489.798245	16962.746500	1920.392578	-17.414024
19489.798245	16962.746500	1919.414063	-63.002960
19489.798245	16962.746500	1918.434570	-242.825272
19489.798245	16962.746500	1917.456055	85.080719
19489.798245	16962.746500	1916.476563	185.938934
19489.798245	16962.746500	1915.497070	142.828308
19489.798245	16962.746500	1914.516602	233.906143
19489.798245	16962.746500	1913.537109	129.856491
19489.798245	16962.746500	1912.556641	55.120045
19489.798245	16962.746500	1911.576172	-14.695232
19489.798245	16962.746500	1910.595703	64.214119
19489.798245	16962.746500	1909.615234	1.764794
19489.798245	16962.746500	1908.633789	126.971397
19489.798245	16962.746500	1907.653320	-35.312523
19489.798245	16962.746500	1906.671875	-80.605324
19489.798245	16962.746500	1905.690430	100.610802
19489.798245	16962.746500	1904.708984	303.689880
19489.798245	16962.746500	1903.727539	49.067879
19489.798245	16962.746500	1902.745117	79.321831
19489.798245	16962.746500	1901.762695	31.717381
19489.798245	16962.746500	1900.780273	-256.708008
19489.798245	16962.746500	1899.797852	-70.676674
19489.798245	16962.746500	1898.815430	120.173019
19489.798245	16962.746500	1897.832031	55.662148
19489.798245	16962.746500	1896.849609	-373.471771
19489.798245	16962.746500	1895.866211	101.780312
19489.798245	16962.746500	1894.882813	93.269638
19489.798245	16962.746500	1893.898438	-70.717903
19489.798245	16962.746500	1892.915039	-93.724380
19489.798245	16962.746500	1891.930664	-201.705505
19489.798245	16962.746500	1890.947266	88.626572
19489.798245	16962.746500	1889.962891	2.546651
19489.798245	16962.746500	1888.977539	8.769654
19489.798245	16962.746500	1887.993164	48.987526
19489.798245	16962.746500	1887.007813	13.994658
19489.798245	16962.746500	1886.023438	-35.523006
19489.798245	16962.746500	1885.038086	196.377411
19489.798245	16962.746500	1884.051758	175.996643
19489.798245	16962.746500	1883.066406	177.467712
19489.798245	16962.746500	1882.081055	28.652601
19489.798245	16962.746500	1881.094727	32.622368
19489.798245	16962.746500	1880.108398	264.407227
19489.798245	16962.746500	1879.122070	18.813595
19489.798245	16962.746500	1878.135742	-204.865753
19489.798245	16962.746500	1877.148438	-43.335159
19489.798245	16962.746500	1876.162109	30.975447
19489.798245	16962.746500	1875.174805	197.284561
19489.798245	16962.746500	1874.187500	73.075310
19489.798245	16962.746500	1873.199219	-24.442583
19489.798245	16962.746500	1872.211914	-121.908257
19489.798245	16962.746500	1871.223633	-124.960526
19489.798245	16962.746500	1870.236328	-123.158562
19489.798245	16962.746500	1869.248047	-51.201675
19489.798245	16962.746500	1868.258789	-73.549187
19489.798245	16962.746500	1867.270508	-197.406891
19489.798245	16962.746500	1866.282227	0.263056
19489.798245	16962.746500	1865.292969	161.631363
19489.798245	16962.746500	1864.303711	-119.192238
19489.798245	16962.746500	1863.314453	-235.628098
19489.798245	16962.746500	1862.324219	-187.767227
19489.798245	16962.746500	1861.334961	94.319077
19489.798245	16962.746500	1860.344727	50.386780
19489.798245	16962.746500	1859.354492	202.008362
19489.798245	16962.746500	1858.364258	-3.595963
19489.798245	16962.746500	1857.374023	261.415100
19489.798245	16962.746500	1856.383789	43.843811
19489.798245	16962.746500	1855.392578	21.743721
19489.798245	16962.746500	1854.401367	64.777054
19489.798245	16962.746500	1853.410156	42.706947
19489.798245	16962.746500	1852.418945	179.759445
19489.798245	16962.746500	1851.426758	162.521332
19489.798245	16962.746500	1850.435547	-11.338851
19489.798245	16962.746500	1849.443359	-182.709457
19489.798245	16962.746500	1848.451172	33.817707
19489.798245	16962.746500	1847.458984	-171.197372
19489.798245	16962.746500	1846.466797	93.424431
19489.798245	16962.746500	1845.473633	64.240639
19489.798245	16962.746500	1844.480469	-94.905060
19489.798245	16962.746500	1843.487305	181.609802
19489.798245	16962.746500	1842.494141	-73.732910
19489.798245	16962.746500	1841.500977	236.365021
19489.798245	16962.746500	1840.506836	-177.622833
19489.798245	16962.746500	1839.513672	-72.020340
19489.798245	16962.746500	1838.519531	79.231522
19489.798245	16962.746500	1837.525391	-219.097839
19489.798245	16962.746500	1836.530273	-2.974313
19489.798245	16962.746500	1835.536133	11.217669
19489.798245	16962.746500	1834.541016	123.910179
19489.798245	16962.746500	1833.545898	142.880417
19489.798245	16962.746500	1832.550781	48.967663
19489.798245	16962.746500	1831.555664	12.718173
19489.798245	16962.746500	1830.560547	67.707535
19489.798245	16962.746500	1829.564453	43.469837
19489.798245	16962.746500	1828.568359	199.223709
19489.798245	16962.746500	1827.572266	124.577934
19489.798245	16962.746500	1826.576172	145.914734
19489.798245	16962.746500	1825.580078	88.087036
19489.798245	16962.746500	1824.583008	-36.861313
19489.798245	16962.746500	1823.585938	-61.072998
19489.798245	16962.746500	1822.588867	-70.898209
19489.798245	16962.746500	1821.591797	367.445679
19489.798245	16962.746500	1820.594727	137.081146
19489.798245	16962.746500	1819.596680	72.102783
19489.798245	16962.746500	1818.599609	215.528641
19489.798245	16962.746500	1817.601563	169.702805
19489.798245	16962.746500	1816.603516	-41.327888
19489.798245	16962.746500	1815.604492	-125.406364
19489.798245	16962.746500	1814.606445	285.981628
19489.798245	16962.746500	1813.607422	197.064835
19489.798245	16962.746500	1812.608398	258.901886
19489.798245	16962.746500	1811.609375	107.804741
19489.798245	16962.746500	1810.610352	157.651764
19489.798245	16962.746500	1809.610352	104.648827
19489.798245	16962.746500	1808.611328	37.302509
19489.798245	16962.746500	1807.611328	65.583664
19489.798245	16962.746500	1806.611328	206.162323
19489.798245	16962.746500	1805.610352	227.207230
19489.798245	16962.746500	1804.610352	85.771942
19489.798245	16962.746500	1803.609375	214.282333
19489.798245	16962.746500	1802.608398	-187.425491
19489.798245	16962.746500	1801.607422	146.386276
19489.798245	16962.746500	1800.606445	401.277710
19489.798245	16962.746500	1799.605469	-0.290765
19489.798245	16962.746500	1798.603516	192.455002
19489.798245	16962.746500	1797.601563	199.015305
19489.798245	16962.746500	1796.599609	126.836967
19489.798245	16962.746500	1795.597656	121.442963
19489.798245	16962.746500	1794.595703	120.797707
19489.798245	16962.746500	1793.592773	434.823669
19489.798245	16962.746500	1792.589844	86.081848
19489.798245	16962.746500	1791.587891	225.982941
19489.798245	16962.746500	1790.583984	20.330301
19489.798245	16962.746500	1789.581055	33.890064
19489.798245	16962.746500	1788.577148	102.204781
19489.798245	16962.746500	1787.574219	-24.798138
19489.798245	16962.746500	1786.570313	-39.875046
19489.798245	16962.746500	1785.566406	256.859467
19489.798245	16962.746500	1784.561523	51.294559
19489.798245	16962.746500	1783.557617	404.955505
19489.798245	16962.746500	1782.552734	306.445160
19489.798245	16962.746500	1781.547852	50.957695
19489.798245	16962.746500	1780.542969	254.522034
19489.798245	16962.746500	1779.538086	215.458191
19489.798245	16962.746500	1778.532227	135.971588
19489.798245	16962.746500	1777.527344	180.076187
19489.798245	16962.746500	1776.521484	302.558136
19489.798245	16962.746500	1775.515625	420.215363
19489.798245	16962.746500	1774.508789	62.716042
19489.798245	16962.746500	1773.502930	4.568553
19489.798245	16962.746500	1772.496094	-29.839548
19489.798245	16962.746500	1771.489258	213.504578
19489.798245	16962.746500	1770.482422	119.671013
19489.798245	16962.746500	1769.475586	18.723959
19489.798245	16962.746500	1768.467773	368.603058
19489.798245	16962.746500	1767.460938	153.719345
19489.798245	16962.746500	1766.453125	259.083160
19489.798245	16962.746500	1765.445313	172.295486
19489.798245	16962.746500	1764.437500	185.088516
19489.798245	16962.746500	1763.428711	181.253372
19489.798245	16962.746500	1762.420898	281.668213
19489.798245	16962.746500	1761.412109	315.665436
19489.798245	16962.746500	1760.403320	238.271912
19489.798245	16962.746500	1759.393555	80.343140
19489.798245	16962.746500	1758.384766	38.482189
19489.798245	16962.746500	1757.375000	32.122765
19489.798245	16962.746500	1756.366211	241.157150
19489.798245	16962.746500	1755.356445	80.852928
19489.798245	16962.746500	1754.345703	169.049759
19489.798245	16962.746500	1753.335938	63.171371
19489.798245	16962.746500	1752.325195	87.405121
19489.798245	16962.746500	1751.315430	312.624115
19489.798245	16962.746500	1750.304688	142.835938
19489.798245	16962.746500	1749.292969	8.544292
19489.798245	16962.746500	1748.282227	70.456528
19489.798245	16962.746500	1747.270508	-9.482481
19489.798245	16962.746500	1746.259766	0.362463
19489.798245	16962.746500	1745.248047	71.592392
19489.798245	16962.746500	1744.235352	197.086105
19489.798245	16962.746500	1743.223633	-43.526848
19489.798245	16962.746500	1742.211914	93.677071
19489.798245	16962.746500	1741.199219	-97.318176
19489.798245	16962.746500	1740.186523	-19.223129
19489.798245	16962.746500	1739.173828	-14.340486
19489.798245	16962.746500	1738.160156	75.440605
19489.798245	16962.746500	1737.147461	-32.984253
19489.798245	16962.746500	1736.133789	47.266739
19489.798245	16962.746500	1735.120117	-25.807775
19489.798245	16962.746500	1734.106445	23.696587
19489.798245	16962.746500	1733.091797	-39.982487
19489.798245	16962.746500	1732.078125	101.343941
19489.798245	16962.746500	1731.063477	115.358170
19489.798245	16962.746500	1730.048828	223.557114
19489.798245	16962.746500	1729.034180	72.616653
19489.798245	16962.746500	1728.019531	-148.941574
19489.798245	16962.746500	1727.003906	22.713739
19489.798245	16962.746500	1725.988281	114.243706
19489.798245	16962.746500	1724.972656	-29.630814
19489.798245	16962.746500	1723.957031	-67.601051
19489.798245	16962.746500	1722.941406	136.714035
19489.798245	16962.746500	1721.924805	-103.608276
19489.798245	16962.746500	1720.909180	-327.411469
19489.798245	16962.746500	1719.892578	269.374847
19489.798245	16962.746500	1718.875977	-83.759819
19489.798245	16962.746500	1717.858398	-20.804651
19489.798245	16962.746500	1716.841797	-44.847034
19489.798245	16962.746500	1715.824219	60.302380
19489.798245	16962.746500	1714.806641	-114.132378
19489.798245	16962.746500	1713.789063	-110.051445
19489.798245	16962.746500	1712.770508	-106.002716
19489.798245	16962.746500	1711.752930	-101.985344
19489.798245	16962.746500	1710.734375	-154.327820
19489.798245	16962.746500	1709.715820	-98.735603
19489.798245	16962.746500	1708.697266	-291.886139
19489.798245	16962.746500	1707.678711	-248.076019
19489.798245	16962.746500	1706.659180	-21.378620
19489.798245	16962.746500	1705.640625	-71.486115
19489.798245	16962.746500	1704.621094	122.212212
19489.798245	16962.746500	1703.600586	-47.494331
19489.798245	16962.746500	1702.581055	-39.063347
19489.798245	16962.746500	1701.561523	-44.718643
19489.798245	16962.746500	1700.541016	-197.980988
19489.798245	16962.746500	1699.520508	75.053864
19489.798245	16962.746500	1698.500000	-57.148891
19489.798245	16962.746500	1697.478516	-147.184296
19489.798245	16962.746500	1696.458008	76.451332
19489.798245	16962.746500	1695.436523	37.860493
19489.798245	16962.746500	1694.415039	312.803040
19489.798245	16962.746500	1693.393555	56.568451
19489.798245	16962.746500	1692.372070	389.827026
19489.798245	16962.746500	1691.349609	325.387939
19489.798245	16962.746500	1690.327148	375.515106
19489.798245	16962.746500	1689.304688	191.839737
19489.798245	16962.746500	1688.282227	19.899406
19489.798245	16962.746500	1687.259766	27.928917
19489.798245	16962.746500	1686.236328	215.827209
19489.798245	16962.746500	1685.213867	156.035980
19489.798245	16962.746500	1684.190430	82.235481
19489.798245	16962.746500	1683.166016	-138.655914
19489.798245	16962.746500	1682.142578	259.149292
19489.798245	16962.746500	1681.119141	117.628204
19489.798245	16962.746500	1680.094727	48.480442
19489.798245	16962.746500	1679.070313	100.665482
19489.798245	16962.746500	1678.045898	246.117386
19489.798245	16962.746500	1677.020508	228.240875
19489.798245	16962.746500	1675.996094	410.888123
19489.798245	16962.746500	1674.970703	327.676666
19489.798245	16962.746500	1673.945313	302.753571
19489.798245	16962.746500	1672.919922	753.230652
19489.798245	16962.746500	1671.893555	425.309418
19489.798245	16962.746500	1670.868164	418.975098
19489.798245	16962.746500	1669.841797	307.819672
19489.798245	16962.746500	1668.815430	264.224670
19489.798245	16962.746500	1667.789063	236.930862
19489.798245	16962.746500	1666.761719	335.331146
19489.798245	16962.746500	1665.735352	335.938171
19489.798245	16962.746500	1664.708008	504.062592
19489.798245	16962.746500	1663.680664	134.722794
19489.798245	16962.746500	1662.653320	198.134094
19489.798245	16962.746500	1661.625000	91.751923
19489.798245	16962.746500	1660.597656	273.706207
19489.798245	16962.746500	1659.569336	160.360291
19489.798245	16962.746500	1658.541016	270.166138
19489.798245	16962.746500	1657.512695	377.598938
19489.798245	16962.746500	1656.483398	491.951965
19489.798245	16962.746500	1655.455078	473.855225
19489.798245	16962.746500	1654.425781	286.232544
19489.798245	16962.746500	1653.396484	-17.417154
19489.798245	16962.746500	1652.366211	368.507996
19489.798245	16962.746500	1651.336914	410.776672
19489.798245	16962.746500	1650.306641	395.011993
19489.798245	16962.746500	1649.276367	569.497986
19489.798245	16962.746500	1648.246094	407.567352
19489.798245	16962.746500	1647.215820	382.529175
19489.798245	16962.746500	1646.185547	510.536438
19489.798245	16962.746500	1645.154297	485.485931
19489.798245	16962.746500	1644.123047	504.484039
19489.798245	16962.746500	1643.091797	407.607452
19489.798245	16962.746500	1642.060547	614.288513
19489.798245	16962.746500	1641.028320	498.898560
19489.798245	16962.746500	1639.997070	684.641907
19489.798245	16962.746500	1638.964844	687.383911
19489.798245	16962.746500	1637.931641	604.468811
19489.798245	16962.746500	1636.899414	716.024780
19489.798245	16962.746500	1635.867188	549.831482
19489.798245	16962.746500	1634.833984	420.731018
19489.798245	16962.746500	1633.800781	636.374695
19489.798245	16962.746500	1632.767578	673.847107
19489.798245	16962.746500	1631.734375	466.195679
19489.798245	16962.746500	1630.700195	596.182617
19489.798245	16962.746500	1629.666016	469.546997
19489.798245	16962.746500	1628.631836	733.545349
19489.798245	16962.746500	1627.597656	567.670410
19489.798245	16962.746500	1626.563477	896.252869
19489.798245	16962.746500	1625.528320	905.972961
19489.798245	16962.746500	1624.493164	603.944702
19489.798245	16962.746500	1623.458008	692.244873
19489.798245	16962.746500	1622.422852	842.848694
19489.798245	16962.746500	1621.387695	942.633850
19489.798245	16962.746500	1620.351563	853.178833
19489.798245	16962.746500	1619.315430	1026.777466
19489.798245	16962.746500	1618.279297	785.135315
19489.798245	16962.746500	1617.243164	723.481689
19489.798245	16962.746500	1616.207031	788.686218
19489.798245	16962.746500	1615.169922	685.597168
19489.798245	16962.746500	1614.132813	568.736755
19489.798245	16962.746500	1613.095703	693.900452
19489.798245	16962.746500	1612.058594	733.790039
19489.798245	16962.746500	1611.020508	672.330078
19489.798245	16962.746500	1609.983398	889.581543
19489.798245	16962.746500	1608.945313	839.670288
19489.798245	16962.746500	1607.907227	580.307678
19489.798245	16962.746500	1606.868164	659.414490
19489.798245	16962.746500	1605.830078	455.463623
19489.798245	16962.746500	1604.791016	718.672913
19489.798245	16962.746500	1603.751953	671.261475
19489.798245	16962.746500	1602.712891	789.481873
19489.798245	16962.746500	1601.673828	976.666687
19489.798245	16962.746500	1600.633789	770.680237
19489.798245	16962.746500	1599.594727	718.799805
19489.798245	16962.746500	1598.554688	970.315613
19489.798245	16962.746500	1597.513672	973.617126
19489.798245	16962.746500	1596.473633	1038.971680
19489.798245	16962.746500	1595.433594	578.372437
19489.798245	16962.746500	1594.392578	992.873169
19489.798245	16962.746500	1593.351563	695.530762
19489.798245	16962.746500	1592.310547	641.648438
19489.798245	16962.746500	1591.268555	574.047668
19489.798245	16962.746500	1590.227539	875.921265
19489.798245	16962.746500	1589.185547	567.491760
19489.798245	16962.746500	1588.143555	770.690674
19489.798245	16962.746500	1587.100586	772.046753
19489.798245	16962.746500	1586.058594	791.777832
19489.798245	16962.746500	1585.015625	655.663269
19489.798245	16962.746500	1583.972656	927.579895
19489.798245	16962.746500	1582.929688	855.723511
19489.798245	16962.746500	1581.886719	859.532288
19489.798245	16962.746500	1580.843750	801.534058
19489.798245	16962.746500	1579.799805	1167.249756
19489.798245	16962.746500	1578.755859	1081.817871
19489.798245	16962.746500	1577.711914	998.746643
19489.798245	16962.746500	1576.666992	924.902954
19489.798245	16962.746500	1575.623047	702.394653
19489.798245	16962.746500	1574.578125	1035.945068
19489.798245	16962.746500	1573.533203	1005.719604
19489.798245	16962.746500	1572.488281	909.230591
19489.798245	16962.746500	1571.443359	970.584045
19489.798245	16962.746500	1570.397461	1084.535645
19489.798245	16962.746500	1569.351563	963.076843
19489.798245	16962.746500	1568.305664	1115.921021
19489.798245	16962.746500	1567.259766	791.260193
19489.798245	16962.746500	1566.213867	800.262634
19489.798245	16962.746500	1565.166992	969.170715
19489.798245	16962.746500	1564.120117	994.212036
19489.798245	16962.746500	1563.073242	845.795166
19489.798245	16962.746500	1562.026367	679.223328
19489.798245	16962.746500	1560.978516	884.725342
19489.798245	16962.746500	1559.930664	905.391846
19489.798245	16962.746500	1558.883789	907.850281
19489.798245	16962.746500	1557.834961	873.870361
19489.798245	16962.746500	1556.787109	591.415710
19489.798245	16962.746500	1555.739258	489.219177
19489.798245	16962.746500	1554.690430	542.105408
19489.798245	16962.746500	1553.641602	740.865906
19489.798245	16962.746500	1552.592773	408.741333
19489.798245	16962.746500	1551.542969	466.326050
19489.798245	16962.746500	1550.494141	284.803802
19489.798245	16962.746500	1549.444336	228.644119
19489.798245	16962.746500	1548.394531	382.005463
19489.798245	16962.746500	1547.344727	303.194855
19489.798245	16962.746500	1546.293945	531.687744
19489.798245	16962.746500	1545.244141	184.514969
19489.798245	16962.746500	1544.193359	444.898560
19489.798245	16962.746500	1543.142578	495.998566
19489.798245	16962.746500	1542.090820	617.626648
19489.798245	16962.746500	1541.040039	286.850189
19489.798245	16962.746500	1539.988281	204.016708
19489.798245	16962.746500	1538.936523	498.514526
19489.798245	16962.746500	1537.884766	486.222961
19489.798245	16962.746500	1536.833008	349.054413
19489.798245	16962.746500	1535.780273	461.832489
19489.798245	16962.746500	1534.727539	186.330124
19489.798245	16962.746500	1533.674805	231.106232
19489.798245	16962.746500	1532.622070	477.938477
19489.798245	16962.746500	1531.569336	497.795929
19489.798245	16962.746500	1530.515625	245.436035
19489.798245	16962.746500	1529.461914	235.965363
19489.798245	16962.746500	1528.408203	233.364700
19489.798245	16962.746500	1527.354492	312.458557
19489.798245	16962.746500	1526.299805	251.024109
19489.798245	16962.746500	1525.246094	212.339981
19489.798245	16962.746500	1524.191406	370.901642
19489.798245	16962.746500	1523.136719	130.680573
19489.798245	16962.746500	1522.081055	-68.600571
19489.798245	16962.746500	1521.026367	176.178177
19489.798245	16962.746500	1519.970703	210.334991
19489.798245	16962.746500	1518.915039	90.587158
19489.798245	16962.746500	1517.859375	240.315796
19489.798245	16962.746500	1516.802734	240.689133
19489.798245	16962.746500	1515.747070	189.082397
19489.798245	16962.746500	1514.690430	216.742035
19489.798245	16962.746500	1513.633789	151.724854
19489.798245	16962.746500	1512.577148	-17.222815
19489.798245	16962.746500	1511.519531	-70.729340
19489.798245	16962.746500	1510.461914	115.459152
19489.798245	16962.746500	1509.405273	64.338470
19489.798245	16962.746500	1508.346680	51.724689
19489.798245	16962.746500	1507.289063	-30.852198
19489.798245	16962.746500	1506.231445	284.190491
19489.798245	16962.746500	1505.172852	48.181767
19489.798245	16962.746500	1504.114258	-277.974518
19489.798245	16962.746500	1503.055664	-12.522329
19489.798245	16962.746500	1501.996094	302.549133
19489.798245	16962.746500	1500.937500	127.917938
19489.798245	16962.746500	1499.877930	45.925957
19489.798245	16962.746500	1498.818359	-146.486206
19489.798245	16962.746500	1497.757813	-61.375835
19489.798245	16962.746500	1496.698242	12.493181
19489.798245	16962.746500	1495.637695	-244.956741
19489.798245	16962.746500	1494.577148	9.361241
19489.798245	16962.746500	1493.516602	-207.287170
19489.798245	16962.746500	1492.456055	-232.290543
19489.798245	16962.746500	1491.394531	121.192566
19489.798245	16962.746500	1490.333008	130.059265
19489.798245	16962.746500	1489.271484	-7.354429
19489.798245	16962.746500	1488.209961	132.234726
19489.798245	16962.746500	1487.148438	-22.989611
19489.798245	16962.746500	1486.085938	-142.072418
19489.798245	16962.746500	1485.023438	227.144791
19489.798245	16962.746500	1483.960938	393.855377
19489.798245	16962.746500	1482.898438	243.487137
19489.798245	16962.746500	1481.834961	111.245293
19489.798245	16962.746500	1480.772461	305.061279
19489.798245	16962.746500	1479.708984	417.974518
19489.798245	16962.746500	1478.644531	371.362183
19489.798245	16962.746500	1477.581055	423.653290
19489.798245	16962.746500	1476.517578	484.996552
19489.798245	16962.746500	1475.453125	434.146423
19489.798245	16962.746500	1474.388672	509.063385
19489.798245	16962.746500	1473.323242	296.839874
19489.798245	16962.746500	1472.258789	589.484375
19489.798245	16962.746500	1471.193359	449.293060
19489.798245	16962.746500	1470.127930	383.288788
19489.798245	16962.746500	1469.062500	397.770203
19489.798245	16962.746500	1467.997070	685.770508
19489.798245	16962.746500	1466.930664	443.198914
19489.798245	16962.746500	1465.865234	630.285706
19489.798245	16962.746500	1464.798828	618.525085
19489.798245	16962.746500	1463.731445	465.563690
19489.798245	16962.746500	1462.665039	750.988831
19489.798245	16962.746500	1461.597656	413.260040
19489.798245	16962.746500	1460.530273	551.159119
19489.798245	16962.746500	1459.462891	642.092163
19489.798245	16962.746500	1458.395508	465.729034
19489.798245	16962.746500	1457.327148	577.155212
19489.798245	16962.746500	1456.259766	532.242310
19489.798245	16962.746500	1455.191406	541.515015
19489.798245	16962.746500	1454.123047	446.717682
19489.798245	16962.746500	1453.053711	248.859833
19489.798245	16962.746500	1451.985352	319.377045
19489.798245	16962.746500	1450.916016	652.616699
19489.798245	16962.746500	1449.846680	540.721375
19489.798245	16962.746500	1448.776367	628.497559
19489.798245	16962.746500	1447.707031	284.138245
19489.798245	16962.746500	1446.636719	311.786224
19489.798245	16962.746500	1445.566406	168.089508
19489.798245	16962.746500	1444.496094	166.553802
19489.798245	16962.746500	1443.425781	329.075348
19489.798245	16962.746500	1442.354492	238.742386
19489.798245	16962.746500	1441.283203	136.603104
19489.798245	16962.746500	1440.211914	64.555679
19489.798245	16962.746500	1439.140625	-113.226265
19489.798245	16962.746500	1438.069336	23.885935
19489.798245	16962.746500	1436.997070	126.494431
19489.798245	16962.746500	1435.924805	83.904900
19489.798245	16962.746500	1434.852539	26.161993
19489.798245	16962.746500	1433.780273	100.931473
19489.798245	16962.746500	1432.707031	15.296183
19489.798245	16962.746500	1431.633789	-49.725586
19489.798245	16962.746500	1430.560547	-81.333328
19489.798245	16962.746500	1429.487305	-44.578114
19489.798245	16962.746500	1428.413086	-207.414001
19489.798245	16962.746500	1427.339844	-44.820404
19489.798245	16962.746500	1426.265625	44.548801
19489.798245	16962.746500	1425.191406	-132.725983
19489.798245	16962.746500	1424.116211	-60.278271
19489.798245	16962.746500	1423.041992	158.339737
19489.798245	16962.746500	1421.966797	144.791046
19489.798245	16962.746500	1420.891602	135.081558
19489.798245	16962.746500	1419.816406	-42.841755
19489.798245	16962.746500	1418.740234	68.917099
19489.798245	16962.746500	1417.665039	-71.534477
19489.798245	16962.746500	1416.588867	-124.476334
19489.798245	16962.746500	1415.512695	84.528793
19489.798245	16962.746500	1414.435547	-126.579895
19489.798245	16962.746500	1413.359375	141.001785
19489.798245	16962.746500	1412.282227	365.886993
19489.798245	16962.746500	1411.205078	-103.840775
19489.798245	16962.746500	1410.127930	134.456802
19489.798245	16962.746500	1409.049805	223.861710
19489.798245	16962.746500	1407.972656	232.355331
19489.798245	16962.746500	1406.894531	-60.724060
19489.798245	16962.746500	1405.816406	0.593464
19489.798245	16962.746500	1404.737305	279.224091
19489.798245	16962.746500	1403.659180	306.357727
19489.798245	16962.746500	1402.580078	409.936584
19489.798245	16962.746500	1401.500977	259.348328
19489.798245	16962.746500	1400.421875	367.457794
19489.798245	16962.746500	1399.341797	475.884460
19489.798245	16962.746500	1398.262695	294.929108
19489.798245	16962.746500	1397.182617	337.979706
19489.798245	16962.746500	1396.102539	339.534943
19489.798245	16962.746500	1395.021484	171.681381
19489.798245	16962.746500	1393.941406	238.643143
19489.798245	16962.746500	1392.860352	110.955063
19489.798245	16962.746500	1391.779297	245.789490
19489.798245	16962.746500	1390.698242	19.024893
19489.798245	16962.746500	1389.616211	367.812439
19489.798245	16962.746500	1388.535156	197.692169
19489.798245	16962.746500	1387.453125	364.435699
19489.798245	16962.746500	1386.371094	66.629211
19489.798245	16962.746500	1385.288086	270.381073
19489.798245	16962.746500	1384.206055	336.324707
19489.798245	16962.746500	1383.123047	168.132446
19489.798245	16962.746500	1382.040039	191.843399
19489.798245	16962.746500	1380.957031	52.218811
19489.798245	16962.746500	1379.873047	105.937546
19489.798245	16962.746500	1378.789063	110.851067
19489.798245	16962.746500	1377.705078	62.277245
19489.798245	16962.746500	1376.621094	237.584717
19489.798245	16962.746500	1375.537109	134.718277
19489.798245	16962.746500	1374.452148	233.661697
19489.798245	16962.746500	1373.367188	202.662689
19489.798245	16962.746500	1372.282227	318.187561
19489.798245	16962.746500	1371.197266	160.220139
19489.798245	16962.746500	1370.112305	203.347809
19489.798245	16962.746500	1369.026367	333.775208
19489.798245	16962.746500	1367.940430	141.271347
19489.798245	16962.746500	1366.854492	337.687225
19489.798245	16962.746500	1365.767578	238.747162
19489.798245	16962.746500	1364.681641	177.407272
19489.798245	16962.746500	1363.594727	108.155731
19489.798245	16962.746500	1362.507813	298.720337
19489.798245	16962.746500	1361.419922	363.382080
19489.798245	16962.746500	1360.333008	106.089096
19489.798245	16962.746500	1359.245117	21.232094
19489.798245	16962.746500	1358.157227	227.222321
19489.798245	16962.746500	1357.069336	223.397125
19489.798245	16962.746500	1355.981445	290.525482
19489.798245	16962.746500	1354.892578	194.101517
19489.798245	16962.746500	1353.803711	279.882019
19489.798245	16962.746500	1352.714844	463.499237
19489.798245	16962.746500	1351.625000	346.287201
19489.798245	16962.746500	1350.536133	396.541046
19489.798245	16962.746500	1349.446289	763.720459
19489.798245	16962.746500	1348.356445	294.404358
19489.798245	16962.746500	1347.266602	665.545227
19489.798245	16962.746500	1346.175781	503.287872
19489.798245	16962.746500	1345.085938	581.835266
19489.798245	16962.746500	1343.995117	374.092682
19489.798245	16962.746500	1342.903320	488.897552
19489.798245	16962.746500	1341.812500	493.048431
19489.798245	16962.746500	1340.720703	417.481964
19489.798245	16962.746500	1339.629883	461.943909
19489.798245	16962.746500	1338.538086	495.439362
19489.798245	16962.746500	1337.445313	545.161194
19489.798245	16962.746500	1336.353516	352.954590
19489.798245	16962.746500	1335.260742	450.996704
19489.798245	16962.746500	1334.167969	428.221558
19489.798245	16962.746500	1333.075195	366.558228
19489.798245	16962.746500	1331.981445	259.727905
19489.798245	16962.746500	1330.888672	330.602936
19489.798245	16962.746500	1329.794922	407.284454
19489.798245	16962.746500	1328.701172	437.220093
19489.798245	16962.746500	1327.606445	505.857605
19489.798245	16962.746500	1326.512695	304.643433
19489.798245	16962.746500	1325.417969	500.799957
19489.798245	16962.746500	1324.323242	559.300049
19489.798245	16962.746500	1323.227539	503.140503
19489.798245	16962.746500	1322.132813	374.619049
19489.798245	16962.746500	1321.037109	288.219971
19489.798245	16962.746500	1319.941406	396.681732
19489.798245	16962.746500	1318.845703	313.945160
19489.798245	16962.746500	1317.750000	381.603394
19489.798245	16962.746500	1316.653320	212.625916
19489.798245	16962.746500	1315.556641	219.715958
19489.798245	16962.746500	1314.459961	453.796783
19489.798245	16962.746500	1313.363281	178.541595
19489.798245	16962.746500	1312.265625	298.667999
19489.798245	16962.746500	1311.167969	193.793213
19489.798245	16962.746500	1310.070313	270.297516
19489.798245	16962.746500	1308.972656	-26.245432
19489.798245	16962.746500	1307.874023	130.385864
19489.798245	16962.746500	1306.776367	272.027924
19489.798245	16962.746500	1305.677734	150.005203
19489.798245	16962.746500	1304.579102	77.971992
19489.798245	16962.746500	1303.479492	125.798286
19489.798245	16962.746500	1302.380859	-140.431427
19489.798245	16962.746500	1301.281250	219.132782
19489.798245	16962.746500	1300.181641	173.795563
19489.798245	16962.746500	1299.081055	-17.063314
19489.798245	16962.746500	1297.981445	27.603502
19489.798245	16962.746500	1296.880859	-94.014175
19489.798245	16962.746500	1295.780273	18.915630
19489.798245	16962.746500	1294.679688	-100.904510
19489.798245	16962.746500	1293.578125	-187.960037
19489.798245	16962.746500	1292.476563	-142.100616
19489.798245	16962.746500	1291.375000	35.022793
19489.798245	16962.746500	1290.273438	24.478006
19489.798245	16962.746500	1289.171875	-138.616394
19489.798245	16962.746500	1288.069336	45.838158
19489.798245	16962.746500	1286.966797	16.091599
19489.798245	16962.746500	1285.864258	105.309395
19489.798245	16962.746500	1284.761719	-112.087120
19489.798245	16962.746500	1283.658203	-56.702511
19489.798245	16962.746500	1282.554688	47.240517
19489.798245	16962.746500	1281.451172	-270.766388
19489.798245	16962.746500	1280.347656	-74.378067
19489.798245	16962.746500	1279.244141	74.043617
19489.798245	16962.746500	1278.139648	23.708557
19489.798245	16962.746500	1277.035156	70.167503
19489.798245	16962.746500	1275.930664	21.966805
19489.798245	16962.746500	1274.825195	-95.119202
19489.798245	16962.746500	1273.720703	-75.586098
19489.798245	16962.746500	1272.615234	154.255951
19489.798245	16962.746500	1271.508789	6.689603
19489.798245	16962.746500	1270.403320	-29.210356
19489.798245	16962.746500	1269.297852	11.027678
19489.798245	16962.746500	1268.191406	103.318642
19489.798245	16962.746500	1267.084961	-70.646019
19489.798245	16962.746500	1265.977539	41.042770
19489.798245	16962.746500	1264.871094	26.502840
19489.798245	16962.746500	1263.763672	29.640720
19489.798245	16962.746500	1262.656250	-83.242722
19489.798245	16962.746500	1261.548828	-196.653839
19489.798245	16962.746500	1260.440430	-37.691425
19489.798245	16962.746500	1259.333008	-177.063675
19489.798245	16962.746500	1258.224609	41.899494
19489.798245	16962.746500	1257.115234	10.260087
19489.798245	16962.746500	1256.006836	-141.940048
19489.798245	16962.746500	1254.897461	8.031651
19489.798245	16962.746500	1253.788086	59.903881
19489.798245	16962.746500	1252.678711	197.767975
19489.798245	16962.746500	1251.569336	243.551208
19489.798245	16962.746500	1250.458984	1.603912
19489.798245	16962.746500	1249.349609	-50.014275
19489.798245	16962.746500	1248.239258	56.552094
19489.798245	16962.746500	1247.127930	185.034927
19489.798245	16962.746500	1246.017578	15.771316
19489.798245	16962.746500	1244.906250	-33.586517
19489.798245	16962.746500	1243.794922	19.383667
19489.798245	16962.746500	1242.683594	47.527134
19489.798245	16962.746500	1241.571289	34.819122
19489.798245	16962.746500	1240.459961	105.057838
19489.798245	16962.746500	1239.347656	133.030121
19489.798245	16962.746500	1238.234375	202.001129
19489.798245	16962.746500	1237.122070	-29.046265
19489.798245	16962.746500	1236.008789	47.503799
19489.798245	16962.746500	1234.896484	129.304230
19489.798245	16962.746500	1233.782227	60.284199
19489.798245	16962.746500	1232.668945	0.145565
19489.798245	16962.746500	1231.555664	-105.248825
19489.798245	16962.746500	1230.441406	102.584885
19489.798245	16962.746500	1229.327148	-24.940521
19489.798245	16962.746500	1228.211914	169.876541
19489.798245	16962.746500	1227.097656	183.361206
19489.798245	16962.746500	1225.982422	258.548859
19489.798245	16962.746500	1224.867188	95.352409
19489.798245	16962.746500	1223.751953	-3.125035
19489.798245	16962.746500	1222.635742	57.026058
19489.798245	16962.746500	1221.520508	-64.331833
19489.798245	16962.746500	1220.404297	84.108940
19489.798245	16962.746500	1219.287109	35.106750
19489.798245	16962.746500	1218.170898	43.380676
19489.798245	16962.746500	1217.053711	5.051713
19489.798245	16962.746500	1215.936523	111.911865
19489.798245	16962.746500	1214.819336	60.012566
19489.798245	16962.746500	1213.702148	42.242149
19489.798245	16962.746500	1212.583984	201.453293
19489.798245	16962.746500	1211.465820	149.232086
19489.798245	16962.746500	1210.347656	-15.342695
19489.798245	16962.746500	1209.229492	-60.120975
19489.798245	16962.746500	1208.110352	-53.918129
19489.798245	16962.746500	1206.992188	83.747223
19489.798245	16962.746500	1205.873047	-21.206564
19489.798245	16962.746500	1204.752930	-3.088461
19489.798245	16962.746500	1203.633789	-0.797765
19489.798245	16962.746500	1202.513672	55.826885
19489.798245	16962.746500	1201.393555	14.542756
19489.798245	16962.746500	1200.273438	13.628866
19489.798245	16962.746500	1199.152344	63.485462
19489.798245	16962.746500	1198.032227	158.728210
19489.798245	16962.746500	1196.911133	107.049461
19489.798245	16962.746500	1195.790039	-68.752342
19489.798245	16962.746500	1194.667969	-25.810265
19489.798245	16962.746500	1193.545898	-59.868752
19489.798245	16962.746500	1192.424805	-162.635010
19489.798245	16962.746500	1191.301758	61.592670
19489.798245	16962.746500	1190.179688	-14.331242
19489.798245	16962.746500	1189.056641	-69.832008
19489.798245	16962.746500	1187.933594	-23.040611
19489.798245	16962.746500	1186.810547	-41.650631
19489.798245	16962.746500	1185.687500	-205.020676
19489.798245	16962.746500	1184.563477	69.013802
19489.798245	16962.746500	1183.440430	-129.535141
19489.798245	16962.746500	1182.316406	-120.706406
19489.798245	16962.746500	1181.191406	-72.875267
19489.798245	16962.746500	1180.067383	-64.245285
19489.798245	16962.746500	1178.942383	53.213810
19489.798245	16962.746500	1177.817383	2.359638
19489.798245	16962.746500	1176.692383	107.175430
19489.798245	16962.746500	1175.566406	44.561829
19489.798245	16962.746500	1174.440430	110.571892
19489.798245	16962.746500	1173.314453	-248.011337
19489.798245	16962.746500	1172.188477	-6.062026
19489.798245	16962.746500	1171.062500	-152.585220
19489.798245	16962.746500	1169.935547	79.455330
19489.798245	16962.746500	1168.808594	155.589432
19489.798245	16962.746500	1167.681641	-21.789497
19489.798245	16962.746500	1166.553711	104.060753
19489.798245	16962.746500	1165.426758	-26.683510
19489.798245	16962.746500	1164.298828	21.008120
19489.798245	16962.746500	1163.170898	11.961555
19489.798245	16962.746500	1162.041992	-121.687569
19489.798245	16962.746500	1160.914063	-4.577096
19489.798245	16962.746500	1159.785156	168.655151
19489.798245	16962.746500	1158.656250	47.625275
19489.798245	16962.746500	1157.526367	31.089888
19489.798245	16962.746500	1156.397461	30.212236
19489.798245	16962.746500	1155.267578	-187.232697
19489.798245	16962.746500	1154.137695	-7.905972
19489.798245	16962.746500	1153.006836	-151.881195
19489.798245	16962.746500	1151.876953	-61.770203
19489.798245	16962.746500	1150.746094	-224.372498
19489.798245	16962.746500	1149.615234	-142.949570
19489.798245	16962.746500	1148.484375	-82.009270
19489.798245	16962.746500	1147.352539	-207.108780
19489.798245	16962.746500	1146.220703	-31.753597
19489.798245	16962.746500	1145.088867	-228.238678
19489.798245	16962.746500	1143.957031	-241.157837
19489.798245	16962.746500	1142.825195	-93.009109
19489.798245	16962.746500	1141.692383	-75.036369
19489.798245	16962.746500	1140.559570	-138.020294
19489.798245	16962.746500	1139.426758	-104.751938
19489.798245	16962.746500	1138.292969	81.307983
19489.798245	16962.746500	1137.159180	-59.911140
19489.798245	16962.746500	1136.025391	-132.283356
19489.798245	16962.746500	1134.891602	30.646442
19489.798245	16962.746500	1133.757813	118.560852
19489.798245	16962.746500	1132.623047	102.362267
19489.798245	16962.746500	1131.488281	109.129692
19489.798245	16962.746500	1130.353516	169.545761
19489.798245	16962.746500	1129.217773	69.431709
19489.798245	16962.746500	1128.083008	128.744720
19489.798245	16962.746500	1126.947266	101.580307
19489.798245	16962.746500	1125.811523	107.164200
19489.798245	16962.746500	1124.674805	-87.578033
19489.798245	16962.746500	1123.539063	37.691971
19489.798245	16962.746500	1122.402344	60.807747
19489.798245	16962.746500	1121.265625	253.393600
19489.798245	16962.746500	1120.127930	-7.431661
19489.798245	16962.746500	1118.990234	12.503232
19489.798245	16962.746500	1117.853516	-43.425240
19489.798245	16962.746500	1116.714844	253.159576
19489.798245	16962.746500	1115.577148	104.638977
19489.798245	16962.746500	1114.439453	31.715706
19489.798245	16962.746500	1113.300781	14.121678
19489.798245	16962.746500	1112.162109	110.662178
19489.798245	16962.746500	1111.022461	35.732132
19489.798245	16962.746500	1109.883789	37.588783
19489.798245	16962.746500	1108.744141	-97.074814
19489.798245	16962.746500	1107.604492	-44.392654
19489.798245	16962.746500	1106.463867	-1.305884
19489.798245	16962.746500	1105.324219	109.616867
19489.798245	16962.746500	1104.183594	170.498077
19489.798245	16962.746500	1103.042969	45.022259
19489.798245	16962.746500	1101.902344	132.333069
19489.798245	16962.746500	1100.760742	118.220673
19489.798245	16962.746500	1099.619141	216.367722
19489.798245	16962.746500	1098.477539	26.980417
19489.798245	16962.746500	1097.335938	-16.863987
19489.798245	16962.746500	1096.193359	142.564957
19489.798245	16962.746500	1095.051758	196.211014
19489.798245	16962.746500	1093.909180	174.990982
19489.798245	16962.746500	1092.765625	-54.474030
19489.798245	16962.746500	1091.623047	117.361526
19489.798245	16962.746500	1090.479492	138.552902
19489.798245	16962.746500	1089.335938	255.960876
19489.798245	16962.746500	1088.192383	214.524048
19489.798245	16962.746500	1087.047852	164.837860
19489.798245	16962.746500	1085.903320	-16.404800
19489.798245	16962.746500	1084.758789	38.010098
19489.798245	16962.746500	1083.614258	54.007519
19489.798245	16962.746500	1082.469727	-163.600861
19489.798245	16962.746500	1081.324219	270.651337
19489.798245	16962.746500	1080.178711	252.520676
19489.798245	16962.746500	1079.033203	313.559052
19489.798245	16962.746500	1077.886719	34.404655
19489.798245	16962.746500	1076.740234	-61.279633
19489.798245	16962.746500	1075.593750	4.404812
19489.798245	16962.746500	1074.447266	34.099770
19489.798245	16962.746500	1073.300781	-82.843987
19489.798245	16962.746500	1072.153320	43.299423
19489.798245	16962.746500	1071.005859	-13.323509
19489.798245	16962.746500	1069.858398	127.837204
19489.798245	16962.746500	1068.709961	125.423386
19489.798245	16962.746500	1067.561523	-23.017019
19489.798245	16962.746500	1066.413086	145.044510
19489.798245	16962.746500	1065.264648	-141.713120
19489.798245	16962.746500	1064.116211	188.092117
19489.798245	16962.746500	1062.966797	51.700523
19489.798245	16962.746500	1061.817383	291.689514
19489.798245	16962.746500	1060.667969	132.638412
19489.798245	16962.746500	1059.517578	68.324524
19489.798245	16962.746500	1058.368164	22.769953
19489.798245	16962.746500	1057.217773	219.525208
19489.798245	16962.746500	1056.067383	82.611244
19489.798245	16962.746500	1054.916016	-3.954512
19489.798245	16962.746500	1053.764648	55.221016
19489.798245	16962.746500	1052.613281	125.227890
19489.798245	16962.746500	1051.461914	158.555573
19489.798245	16962.746500	1050.310547	103.926933
19489.798245	16962.746500	1049.158203	325.772369
19489.798245	16962.746500	1048.005859	133.957733
19489.798245	16962.746500	1046.853516	0.789922
19489.798245	16962.746500	1045.700195	136.526367
19489.798245	16962.746500	1044.547852	-26.760298
19489.798245	16962.746500	1043.394531	2.984629
19489.798245	16962.746500	1042.240234	72.126518
19489.798245	16962.746500	1041.086914	72.215706
19489.798245	16962.746500	1039.932617	117.101662
19489.798245	16962.746500	1038.778320	166.203232
19489.798245	16962.746500	1037.624023	103.289177
19489.798245	16962.746500	1036.469727	119.746452
19489.798245	16962.746500	1035.314453	114.742416
19489.798245	16962.746500	1034.159180	432.483154
19489.798245	16962.746500	1033.003906	321.740356
19489.798245	16962.746500	1031.847656	409.590485
19489.798245	16962.746500	1030.692383	419.093201
19489.798245	16962.746500	1029.536133	550.033936
19489.798245	16962.746500	1028.378906	403.791809
19489.798245	16962.746500	1027.222656	114.160934
19489.798245	16962.746500	1026.065430	360.762604
19489.798245	16962.746500	1024.908203	186.344101
19489.798245	16962.746500	1023.750977	150.011139
19489.798245	16962.746500	1022.593750	-14.320065
19489.798245	16962.746500	1021.435547	150.647446
19489.798245	16962.746500	1020.277344	40.158115
19489.798245	16962.746500	1019.119141	107.571564
19489.798245	16962.746500	1017.959961	-51.643478
19489.798245	16962.746500	1016.800781	-54.558880
19489.798245	16962.746500	1015.641602	12.554098
19489.798245	16962.746500	1014.482422	138.625366
19489.798245	16962.746500	1013.323242	112.518402
19489.798245	16962.746500	1012.163086	125.351257
19489.798245	16962.746500	1011.002930	2.641048
19489.798245	16962.746500	1009.842773	63.937786
19489.798245	16962.746500	1008.681641	-8.889587
19489.798245	16962.746500	1007.520508	266.765961
19489.798245	16962.746500	1006.359375	93.795250
19489.798245	16962.746500	1005.198242	95.009048
19489.798245	16962.746500	1004.037109	216.626328
19489.798245	16962.746500	1002.875000	173.916275
19489.798245	16962.746500	1001.712891	122.947945
19489.798245	16962.746500	1000.550781	35.265499
19489.798245	16962.746500	999.387695	34.735729
19489.798245	16962.746500	998.224609	-11.829091
19489.798245	16962.746500	997.061523	341.783142
19489.798245	16962.746500	995.898438	-89.826759
19489.798245	16962.746500	994.734375	57.419807
19489.798245	16962.746500	993.571289	-175.616257
19489.798245	16962.746500	992.407227	-31.497650
19489.798245	16962.746500	991.242188	232.987671
19489.798245	16962.746500	990.078125	71.842323
19489.798245	16962.746500	988.913086	37.322823
19489.798245	16962.746500	987.748047	-34.519138
19489.798245	16962.746500	986.583008	-139.865982
19489.798245	16962.746500	985.416992	-181.593369
19489.798245	16962.746500	984.250977	-345.845825
19489.798245	16962.746500	983.084961	3.510595
19489.798245	16962.746500	981.918945	-110.112778
19489.798245	16962.746500	980.751953	-152.151245
19489.798245	16962.746500	979.584961	-201.179962
19489.798245	16962.746500	978.417969	-57.995613
19489.798245	16962.746500	977.250977	-238.516983
19489.798245	16962.746500	976.083008	-127.368927
19489.798245	16962.746500	974.915039	-106.233910
19489.798245	16962.746500	973.747070	-247.736786
19489.798245	16962.746500	972.579102	135.974152
19489.798245	16962.746500	971.410156	-1.955485
19489.798245	16962.746500	970.242188	-65.915077
19489.798245	16962.746500	969.072266	-141.152802
19489.798245	16962.746500	967.903320	-108.167252
19489.798245	16962.746500	966.733398	-19.570833
19489.798245	16962.746500	965.563477	10.390615
19489.798245	16962.746500	964.393555	-93.239807
19489.798245	16962.746500	963.223633	-174.848679
19489.798245	16962.746500	962.052734	-144.584518
19489.798245	16962.746500	960.881836	-136.271240
19489.798245	16962.746500	959.710938	90.950668
19489.798245	16962.746500	958.540039	-132.824936
19489.798245	16962.746500	957.368164	-129.638260
19489.798245	16962.746500	956.196289	-27.100245
19489.798245	16962.746500	955.024414	-2.231297
19489.798245	16962.746500	953.851563	-91.026756
19489.798245	16962.746500	952.679688	109.023903
19489.798245	16962.746500	951.506836	31.481625
19489.798245	16962.746500	950.333984	-245.460770
19489.798245	16962.746500	949.160156	48.527454
19489.798245	16962.746500	947.986328	-49.828609
19489.798245	16962.746500	946.812500	94.259209
19489.798245	16962.746500	945.638672	-13.445341
19489.798245	16962.746500	944.464844	59.539280
19489.798245	16962.746500	943.290039	290.865021
19489.798245	16962.746500	942.115234	14.364427
19489.798245	16962.746500	940.940430	-7.038593
19489.798245	16962.746500	939.764648	-10.024179
19489.798245	16962.746500	938.588867	111.269554
19489.798245	16962.746500	937.413086	-84.052841
19489.798245	16962.746500	936.237305	-61.884846
19489.798245	16962.746500	935.060547	61.030807
19489.798245	16962.746500	933.883789	27.078527
19489.798245	16962.746500	932.707031	126.666557
19489.798245	16962.746500	931.530273	-118.494110
19489.798245	16962.746500	930.352539	91.808815
19489.798245	16962.746500	929.175781	268.806122
19489.798245	16962.746500	927.998047	123.839333
19489.798245	16962.746500	926.819336	60.447483
19489.798245	16962.746500	925.641602	124.462051
19489.798245	16962.746500	924.462891	173.797684
19489.798245	16962.746500	923.284180	99.959000
19489.798245	16962.746500	922.104492	15.676701
19489.798245	16962.746500	920.924805	156.793320
19489.798245	16962.746500	919.746094	162.935638
19489.798245	16962.746500	919.551758	-3.682464
19489.798245	16962.746500	918.386719	76.780075
19489.798245	16962.746500	917.220703	309.443939
19489.798245	16962.746500	916.054688	-14.734069
19489.798245	16962.746500	914.887695	119.845818
19489.798245	16962.746500	913.721680	152.218445
19489.798245	16962.746500	912.554688	201.238571
19489.798245	16962.746500	911.387695	96.046646
19489.798245	16962.746500	910.220703	-65.359283
19489.798245	16962.746500	909.052734	321.010071
19489.798245	16962.746500	907.885742	126.276611
19489.798245	16962.746500	906.717773	139.785156
19489.798245	16962.746500	905.548828	82.511208
19489.798245	16962.746500	904.380859	141.769135
19489.798245	16962.746500	903.211914	126.094070
19489.798245	16962.746500	902.042969	102.089485
19489.798245	16962.746500	900.874023	142.545364
19489.798245	16962.746500	899.704102	160.102219
19489.798245	16962.746500	898.535156	-1.145176
19489.798245	16962.746500	897.365234	190.980743
19489.798245	16962.746500	896.194336	200.159546
19489.798245	16962.746500	895.024414	263.326904
19489.798245	16962.746500	893.853516	-55.727406
19489.798245	16962.746500	892.682617	-98.472122
19489.798245	16962.746500	891.511719	12.423748
19489.798245	16962.746500	890.340820	58.907391
19489.798245	16962.746500	889.168945	-151.989243
19489.798245	16962.746500	887.997070	-120.046326
19489.798245	16962.746500	886.825195	86.127640
19489.798245	16962.746500	885.653320	93.083359
19489.798245	16962.746500	884.480469	-94.903160
19489.798245	16962.746500	883.307617	144.261978
19489.798245	16962.746500	882.134766	-188.794373
19489.798245	16962.746500	880.961914	95.849564
19489.798245	16962.746500	879.788086	-89.981445
19489.798245	16962.746500	878.614258	-18.879007
19489.798245	16962.746500	877.440430	244.793488
19489.798245	16962.746500	876.266602	-94.243362
19489.798245	16962.746500	875.091797	-68.781082
19489.798245	16962.746500	873.916992	-68.187584
19489.798245	16962.746500	872.742188	-51.058701
19489.798245	16962.746500	871.567383	216.398422
19489.798245	16962.746500	870.391602	94.831642
19489.798245	16962.746500	869.215820	4.318399
19489.798245	16962.746500	868.040039	50.294121
19489.798245	16962.746500	866.864258	-220.071396
19489.798245	16962.746500	865.687500	38.789528
19489.798245	16962.746500	864.510742	-14.517263
19489.798245	16962.746500	863.333984	52.010040
19489.798245	16962.746500	862.157227	77.176971
19489.798245	16962.746500	860.979492	11.446643
19489.798245	16962.746500	859.802734	100.578896
19489.798245	16962.746500	858.625000	129.791107
19489.798245	16962.746500	857.446289	51.648510
19489.798245	16962.746500	856.268555	-162.680756
19489.798245	16962.746500	855.089844	37.746155
19489.798245	16962.746500	853.911133	83.367256
19489.798245	16962.746500	852.731445	-27.779284
19489.798245	16962.746500	851.552734	9.545134
19489.798245	16962.746500	850.373047	-76.847656
19489.798245	16962.746500	849.193359	-72.543991
19489.798245	16962.746500	848.013672	-80.628014
19489.798245	16962.746500	846.833008	-51.644669
19489.798245	16962.746500	845.652344	74.110786
19489.798245	16962.746500	844.471680	22.691885
19489.798245	16962.746500	843.291016	57.743977
19489.798245	16962.746500	842.110352	88.640923
19489.798245	16962.746500	840.928711	109.215614
19489.798245	16962.746500	839.747070	-34.849598
19489.798245	16962.746500	838.564453	8.326969
19489.798245	16962.746500	837.382813	28.833977
19489.798245	16962.746500	836.200195	-72.012344
19489.798245	16962.746500	835.017578	-14.535409
19489.798245	16962.746500	833.834961	-137.990280
19489.798245	16962.746500	832.651367	-43.578384
19489.798245	16962.746500	831.467773	44.605427
19489.798245	16962.746500	830.284180	-169.241745
19489.798245	16962.746500	829.100586	-25.666965
19489.798245	16962.746500	827.916992	-112.153786
19489.798245	16962.746500	826.732422	-24.127384
19489.798245	16962.746500	825.547852	139.780380
19489.798245	16962.746500	824.363281	-86.303696
19489.798245	16962.746500	823.177734	79.551582
19489.798245	16962.746500	821.992188	-4.939872
19489.798245	16962.746500	820.806641	-1.238176
19489.798245	16962.746500	819.621094	-3.716549
19489.798245	16962.746500	818.434570	55.282681
19489.798245	16962.746500	817.249023	-148.117874
19489.798245	16962.746500	816.062500	-146.544144
19489.798245	16962.746500	814.875000	-81.484627
19489.798245	16962.746500	813.688477	212.924637
19489.798245	16962.746500	812.500977	-90.790077
19489.798245	16962.746500	811.313477	-44.294498
19489.798245	16962.746500	810.125977	-32.645432
19489.798245	16962.746500	808.937500	56.744308
19489.798245	16962.746500	807.749023	37.620182
19489.798245	16962.746500	806.560547	198.501572
19489.798245	16962.746500	805.372070	1.355109
19489.798245	16962.746500	804.182617	49.651688
19489.798245	16962.746500	802.994141	-178.108536
19489.798245	16962.746500	801.803711	-109.409203
19489.798245	16962.746500	800.614258	65.496704
19489.798245	16962.746500	799.424805	40.066380
19489.798245	16962.746500	798.234375	79.988358
19489.798245	16962.746500	797.043945	29.999554
19489.798245	16962.746500	795.852539	22.884167
19489.798245	16962.746500	794.662109	-59.797710
19489.798245	16962.746500	793.470703	-22.047888
19489.798245	16962.746500	792.279297	-78.216240
19489.798245	16962.746500	791.087891	-1.776530
19489.798245	16962.746500	789.895508	-66.143883
19489.798245	16962.746500	788.703125	-67.295059
19489.798245	16962.746500	787.510742	121.148750
19489.798245	16962.746500	786.318359	79.124931
19489.798245	16962.746500	785.125000	240.903809
19489.798245	16962.746500	783.931641	147.868118
19489.798245	16962.746500	782.738281	274.868378
19489.798245	16962.746500	781.544922	124.767746
19489.798245	16962.746500	780.350586	-239.127396
19489.798245	16962.746500	779.156250	30.302153
19489.798245	16962.746500	777.961914	-77.001312
19489.798245	16962.746500	776.767578	59.929924
19489.798245	16962.746500	775.572266	182.532013
19489.798245	16962.746500	774.376953	266.396912
19489.798245	16962.746500	773.181641	49.174030
19489.798245	16962.746500	771.986328	17.057608
19489.798245	16962.746500	770.790039	-25.241859
19489.798245	16962.746500	769.593750	196.687073
19489.798245	16962.746500	768.397461	79.110001
19489.798245	16962.746500	767.201172	46.883335
19489.798245	16962.746500	766.003906	-23.956356
19489.798245	16962.746500	764.806641	128.605042
19489.798245	16962.746500	763.609375	35.375137
19489.798245	16962.746500	762.412109	124.860756
19489.798245	16962.746500	761.213867	-0.868406
19489.798245	16962.746500	760.015625	-85.994400
19489.798245	16962.746500	758.817383	66.257210
19489.798245	16962.746500	757.618164	-4.711922
19489.798245	16962.746500	756.419922	-71.631828
19489.798245	16962.746500	755.220703	-53.396500
19489.798245	16962.746500	754.021484	3.314156
19489.798245	16962.746500	752.821289	76.183937
19489.798245	16962.746500	751.621094	159.120880
19489.798245	16962.746500	750.420898	264.274475
19489.798245	16962.746500	749.220703	120.218987
19489.798245	16962.746500	748.020508	184.769943
19489.798245	16962.746500	746.819336	125.761429
19489.798245	16962.746500	745.618164	155.808701
19489.798245	16962.746500	744.416992	102.835670
19489.798245	16962.746500	743.214844	118.647095
19489.798245	16962.746500	742.012695	-23.369228
19489.798245	16962.746500	740.810547	231.053436
19489.798245	16962.746500	739.608398	487.358582
19489.798245	16962.746500	738.406250	292.693817
19489.798245	16962.746500	737.203125	316.372559
19489.798245	16962.746500	736.000000	380.426361
19489.798245	16962.746500	734.795898	535.341492
19489.798245	16962.746500	733.592773	314.440796
19489.798245	16962.746500	732.388672	620.707397
19489.798245	16962.746500	731.184570	486.642731
19489.798245	16962.746500	729.979492	487.857941
19489.798245	16962.746500	728.775391	420.418335
19489.798245	16962.746500	727.570313	248.048080
19489.798245	16962.746500	726.365234	196.765305
19489.798245	16962.746500	725.160156	-23.956133
19489.798245	16962.746500	723.954102	273.652130
19489.798245	16962.746500	722.748047	212.225510
19489.798245	16962.746500	721.541992	110.479134
19489.798245	16962.746500	720.334961	-116.203476
19489.798245	16962.746500	719.128906	29.937817
19489.798245	16962.746500	717.921875	115.554550
19489.798245	16962.746500	716.714844	33.938576
19489.798245	16962.746500	715.506836	254.376694
19489.798245	16962.746500	714.298828	102.247765
19489.798245	16962.746500	713.090820	-88.089508
19489.798245	16962.746500	711.882813	-30.850574
19489.798245	16962.746500	710.674805	-128.584900
19489.798245	16962.746500	709.465820	-69.403183
19489.798245	16962.746500	708.256836	-40.440117
19489.798245	16962.746500	707.047852	-104.007797
19489.798245	16962.746500	705.837891	15.362108
19489.798245	16962.746500	704.627930	120.586792
19489.798245	16962.746500	703.417969	-97.775703
19489.798245	16962.746500	702.208008	15.415672
19489.798245	16962.746500	700.998047	-46.212669
19489.798245	16962.746500	699.787109	-39.559608
19489.798245	16962.746500	698.576172	-67.065231
19489.798245	16962.746500	697.364258	-166.844254
19489.798245	16962.746500	696.153320	-136.156082
19489.798245	16962.746500	694.941406	109.191277
19489.798245	16962.746500	693.729492	163.837921
19489.798245	16962.746500	692.516602	150.250153
19489.798245	16962.746500	691.304688	20.344553
19489.798245	16962.746500	690.091797	149.093262
19489.798245	16962.746500	688.878906	273.758575
19489.798245	16962.746500	687.665039	191.947433
19489.798245	16962.746500	686.451172	260.416260
19489.798245	16962.746500	685.237305	126.525063
19489.798245	16962.746500	684.023438	44.742176
19489.798245	16962.746500	682.809570	83.113121
19489.798245	16962.746500	681.594727	-12.670248
19489.798245	16962.746500	680.379883	-34.376705
19489.798245	16962.746500	679.165039	-146.133560
19489.798245	16962.746500	677.949219	-17.788012
19489.798245	16962.746500	676.733398	72.487900
19489.798245	16962.746500	675.517578	48.727051
19489.798245	16962.746500	674.301758	172.913513
19489.798245	16962.746500	673.084961	69.162987
19489.798245	16962.746500	671.869141	309.181641
19489.798245	16962.746500	670.651367	-92.284378
19489.798245	16962.746500	669.434570	-12.162422
19489.798245	16962.746500	668.216797	-21.956154
19489.798245	16962.746500	667.000000	-35.749313
19489.798245	16962.746500	665.781250	6.356500
19489.798245	16962.746500	664.563477	0.534674
19489.798245	16962.746500	663.344727	62.557892
19489.798245	16962.746500	662.125977	212.333435
19489.798245	16962.746500	660.907227	-10.963145
19489.798245	16962.746500	659.688477	92.888672
19489.798245	16962.746500	658.468750	124.916733
19489.798245	16962.746500	657.249023	81.179718
19489.798245	16962.746500	656.029297	-108.029579
19489.798245	16962.746500	654.808594	55.527657
19489.798245	16962.746500	653.587891	-127.619164
19489.798245	16962.746500	652.367188	-11.926251
19489.798245	16962.746500	651.146484	-123.291206
19489.798245	16962.746500	649.924805	46.111721
19489.798245	16962.746500	648.704102	52.226311
19489.798245	16962.746500	647.482422	60.334114
19489.798245	16962.746500	646.259766	-13.130408
19489.798245	16962.746500	645.037109	146.179581
19489.798245	16962.746500	643.815430	116.494690
19489.798245	16962.746500	642.591797	136.539642
19489.798245	16962.746500	641.369141	-28.293301
19489.798245	16962.746500	640.145508	154.770676
19489.798245	16962.746500	638.921875	192.708267
19489.798245	16962.746500	637.698242	-1.799936
19489.798245	16962.746500	636.474609	203.026245
19489.798245	16962.746500	635.250000	-43.007778
19489.798245	16962.746500	634.025391	-46.700722
19489.798245	16962.746500	632.800781	126.288162
19489.798245	16962.746500	631.575195	-99.681000
19489.798245	16962.746500	630.349609	241.933884
19489.798245	16962.746500	629.124023	-17.652416
19489.798245	16962.746500	627.898438	119.555145
19489.798245	16962.746500	626.671875	30.674574
19489.798245	16962.746500	625.445313	98.467636
19489.798245	16962.746500	624.218750	71.114914
19489.798245	16962.746500	622.992188	-49.340691
19489.798245	16962.746500	621.764648	121.519684
19489.798245	16962.746500	620.537109	-62.232712
19489.798245	16962.746500	619.309570	86.822945
19489.798245	16962.746500	618.081055	-1.752836
19489.798245	16962.746500	616.852539	270.012512
19489.798245	16962.746500	615.624023	-4.547129
19489.798245	16962.746500	614.395508	-27.665247
19489.798245	16962.746500	613.166992	139.170746
19489.798245	16962.746500	611.937500	46.867168
19489.798245	16962.746500	610.708008	-92.822311
19489.798245	16962.746500	609.477539	-80.189598
19489.798245	16962.746500	608.248047	-14.161009
19489.798245	16962.746500	607.017578	61.754993
19489.798245	16962.746500	605.787109	-134.980042
19489.798245	16962.746500	604.555664	-9.613994
19489.798245	16962.746500	603.325195	-52.133999
19489.798245	16962.746500	602.093750	-63.005356
19489.798245	16962.746500	600.861328	-101.468399
19489.798245	16962.746500	599.629883	-41.195057
19489.798245	16962.746500	598.397461	-89.433693
19489.798245	16962.746500	597.165039	-129.719131
19489.798245	16962.746500	595.932617	-244.897354
19489.798245	16962.746500	594.699219	-48.410385
19489.798245	16962.746500	593.465820	-49.119400
19489.798245	16962.746500	592.232422	105.935257
19489.798245	16962.746500	590.999023	-26.755510
19489.798245	16962.746500	589.764648	-58.858307
19489.798245	16962.746500	588.530273	-43.625130
19489.798245	16962.746500	587.295898	-83.495811
19489.798245	16962.746500	586.061523	14.529236
19489.798245	16962.746500	584.826172	-5.554406
19489.798245	16962.746500	583.590820	-76.753860
19489.798245	16962.746500	582.355469	41.031960
19489.798245	16962.746500	581.119141	-45.787270
19489.798245	16962.746500	579.882813	36.638557
19489.798245	16962.746500	578.646484	-144.435257
19489.798245	16962.746500	577.410156	56.043427
19489.798245	16962.746500	576.172852	266.317322
19489.798245	16962.746500	574.935547	73.673805
19489.798245	16962.746500	573.698242	256.451019
19489.798245	16962.746500	572.460938	65.959747
19489.798245	16962.746500	571.222656	109.321686
19489.798245	16962.746500	569.984375	201.808228
19489.798245	16962.746500	568.746094	176.517166
19489.798245	16962.746500	567.506836	276.908051
19489.798245	16962.746500	566.267578	292.928833
19489.798245	16962.746500	565.028320	261.910553
19489.798245	16962.746500	563.789063	99.537781
19489.798245	16962.746500	562.548828	207.918503
19489.798245	16962.746500	561.309570	392.769135
19489.798245	16962.746500	560.068359	234.557373
19489.798245	16962.746500	558.828125	323.401093
19489.798245	16962.746500	557.586914	253.549576
19489.798245	16962.746500	556.345703	128.929504
19489.798245	16962.746500	555.104492	192.436005
19489.798245	16962.746500	553.863281	248.135071
19489.798245	16962.746500	552.621094	198.146332
19489.798245	16962.746500	551.378906	412.465424
19489.798245	16962.746500	550.136719	276.460907
19489.798245	16962.746500	548.893555	518.165405
19489.798245	16962.746500	547.650391	368.605469
19489.798245	16962.746500	546.407227	551.614380
19489.798245	16962.746500	545.164063	454.996826
19489.798245	16962.746500	543.919922	350.650696
19489.798245	16962.746500	542.675781	383.201660
19489.798245	16962.746500	541.431641	402.103760
19489.798245	16962.746500	540.186523	440.580841
19489.798245	16962.746500	538.941406	481.035614
19489.798245	16962.746500	537.696289	441.454132
19489.798245	16962.746500	536.451172	542.492249
19489.798245	16962.746500	535.205078	524.465271
19489.798245	16962.746500	533.959961	561.118896
19489.798245	16962.746500	532.712891	472.933441
19489.798245	16962.746500	531.466797	462.839203
19489.798245	16962.746500	530.219727	591.247559
19489.798245	16962.746500	528.972656	795.671692
19489.798245	16962.746500	527.725586	713.480713
19489.798245	16962.746500	526.478516	609.911804
19489.798245	16962.746500	525.230469	777.258240
19489.798245	16962.746500	523.982422	714.677246
19489.798245	16962.746500	522.734375	757.316895
19489.798245	16962.746500	521.485352	572.127380
19489.798245	16962.746500	520.236328	827.017639
19489.798245	16962.746500	518.987305	797.631226
19489.798245	16962.746500	517.737305	850.001282
19489.798245	16962.746500	516.488281	641.640015
19489.798245	16962.746500	515.238281	730.985107
19489.798245	16962.746500	513.988281	820.290466
19489.798245	16962.746500	512.737305	825.949951
19489.798245	16962.746500	511.486328	841.317749
19489.798245	16962.746500	510.235352	926.632385
19489.798245	16962.746500	508.984375	805.928284
19489.798245	16962.746500	507.732422	992.201172
19489.798245	16962.746500	506.480469	1032.701172
19489.798245	16962.746500	505.228516	1016.843201
19489.798245	16962.746500	503.976563	1026.197021
19489.798245	16962.746500	502.723633	1161.679810
19489.798245	16962.746500	501.470703	1318.408081
19489.798245	16962.746500	500.217773	1339.211426
19489.798245	16962.746500	498.963867	1133.007935
19489.798245	16962.746500	497.709961	1475.666992
19489.798245	16962.746500	496.456055	1560.241089
19489.798245	16962.746500	495.202148	1553.601685
19489.798245	16962.746500	493.947266	1490.692749
19489.798245	16962.746500	492.692383	1346.349731
19489.798245	16962.746500	491.437500	1583.620483
19489.798245	16962.746500	490.181641	1613.461792
19489.798245	16962.746500	488.926758	1763.246094
19489.798245	16962.746500	487.670898	1746.370239
19489.798245	16962.746500	486.414063	1684.875122
19489.798245	16962.746500	485.158203	1950.327271
19489.798245	16962.746500	483.901367	1938.875488
19489.798245	16962.746500	482.644531	2037.552612
19489.798245	16962.746500	481.386719	1948.459839
19489.798245	16962.746500	480.128906	1984.934570
19489.798245	16962.746500	478.871094	2284.135010
19489.798245	16962.746500	477.613281	2179.118408
19489.798245	16962.746500	476.355469	2377.333984
19489.798245	16962.746500	475.096680	2534.716797
19489.798245	16962.746500	473.837891	2326.806152
19489.798245	16962.746500	472.578125	2530.086182
19489.798245	16962.746500	471.319336	2395.218018
19489.798245	16962.746500	470.059570	2596.036621
19489.798245	16962.746500	468.799805	2798.470459
19489.798245	16962.746500	467.539063	2672.591553
19489.798245	16962.746500	466.278320	2793.417236
19489.798245	16962.746500	465.017578	2744.222900
19489.798245	16962.746500	463.756836	2700.562256
19489.798245	16962.746500	462.495117	2830.125000
19489.798245	16962.746500	461.233398	2893.811523
19489.798245	16962.746500	459.971680	2868.529297
19489.798245	16962.746500	458.709961	2837.158447
19489.798245	16962.746500	457.447266	3005.771729
19489.798245	16962.746500	456.184570	2688.722412
19489.798245	16962.746500	454.921875	2831.564697
19489.798245	16962.746500	453.658203	3031.714355
19489.798245	16962.746500	452.394531	3121.705078
19489.798245	16962.746500	451.130859	3192.018066
19489.798245	16962.746500	449.867188	3173.405762
19489.798245	16962.746500	448.602539	2985.137451
19489.798245	16962.746500	447.337891	3111.823975
19489.798245	16962.746500	446.073242	3097.670654
19489.798245	16962.746500	444.807617	3207.962646
19489.798245	16962.746500	443.542969	3300.427490
19489.798245	16962.746500	442.276367	3232.889160
19489.798245	16962.746500	441.010742	3266.651123
19489.798245	16962.746500	439.744141	3420.819336
19489.798245	16962.746500	438.478516	3347.835205
19489.798245	16962.746500	437.210938	3281.967285
19489.798245	16962.746500	435.944336	3545.591064
19489.798245	16962.746500	434.676758	3177.287598
19489.798245	16962.746500	433.409180	3190.206299
19489.798245	16962.746500	432.141602	3269.582275
19489.798245	16962.746500	430.873047	3363.575439
19489.798245	16962.746500	429.604492	3428.076660
19489.798245	16962.746500	428.335938	3261.859375
19489.798245	16962.746500	427.067383	3441.772949
19489.798245	16962.746500	425.797852	3615.087646
19489.798245	16962.746500	424.528320	3291.508057
19489.798245	16962.746500	423.258789	3375.105957
19489.798245	16962.746500	421.988281	3540.140381
19489.798245	16962.746500	420.717773	3424.811035
19489.798245	16962.746500	419.447266	3346.921143
19489.798245	16962.746500	418.175781	3625.894531
19489.798245	16962.746500	416.905273	3492.602295
19489.798245	16962.746500	415.633789	3377.516357
19489.798245	16962.746500	414.362305	3467.978271
19489.798245	16962.746500	413.089844	3500.026855
19489.798245	16962.746500	411.817383	3320.808594
19489.798245	16962.746500	410.544922	3295.359375
19489.798245	16962.746500	409.272461	3286.017578
19489.798245	16962.746500	407.999023	3201.050293
19489.798245	16962.746500	406.725586	3355.545166
19489.798245	16962.746500	405.452148	3308.344727
19489.798245	16962.746500	404.177734	3439.327637
19489.798245	16962.746500	402.903320	3267.516357
19489.798245	16962.746500	401.628906	3357.761963
19489.798245	16962.746500	400.354492	3223.500244
19489.798245	16962.746500	399.079102	3288.144043
19489.798245	16962.746500	397.803711	3204.573975
19489.798245	16962.746500	396.528320	3293.075684
19489.798245	16962.746500	395.251953	3298.110352
19489.798245	16962.746500	393.976563	3193.085938
19489.798245	16962.746500	392.700195	3309.409912
19489.798245	16962.746500	391.422852	3321.245361
19489.798245	16962.746500	390.145508	3241.982666
19489.798245	16962.746500	388.869141	2982.213623
19489.798245	16962.746500	387.590820	3253.682617
19489.798245	16962.746500	386.313477	3047.661133
19489.798245	16962.746500	385.035156	2860.850342
19489.798245	16962.746500	383.756836	3001.343994
19489.798245	16962.746500	382.478516	3096.192627
19489.798245	16962.746500	381.199219	2803.138184
19489.798245	16962.746500	379.919922	2861.800293
19489.798245	16962.746500	378.640625	2832.939697
19489.798245	16962.746500	377.360352	2963.498291
19489.798245	16962.746500	376.080078	2818.402832
19489.798245	16962.746500	374.799805	2950.403564
19489.798245	16962.746500	373.519531	2565.647217
19489.798245	16962.746500	372.238281	2524.251465
19489.798245	16962.746500	370.957031	2607.753418
19489.798245	16962.746500	369.675781	2633.868652
19489.798245	16962.746500	368.394531	2494.457520
19489.798245	16962.746500	367.112305	2773.648682
19489.798245	16962.746500	365.830078	2549.652344
19489.798245	16962.746500	364.546875	2336.417480
19489.798245	16962.746500	363.264648	2249.630371
19489.798245	16962.746500	361.981445	2264.377197
19489.798245	16962.746500	360.698242	2236.623779
19489.798245	16962.746500	359.414063	2257.180664
19489.798245	16962.746500	358.129883	2028.718872
19489.798245	16962.746500	356.845703	2081.454834
19489.798245	16962.746500	355.561523	2176.645996
19489.798245	16962.746500	354.276367	2215.709229
19489.798245	16962.746500	352.991211	1922.464355
19489.798245	16962.746500	351.706055	1962.909302
19489.798245	16962.746500	350.420898	2024.713379
19489.798245	16962.746500	349.134766	1752.234741
19489.798245	16962.746500	347.848633	1565.374756
19489.798245	16962.746500	346.561523	1599.988281
19489.798245	16962.746500	345.275391	1355.325562
19489.798245	16962.746500	343.988281	1607.730957
19489.798245	16962.746500	342.700195	1406.772827
19489.798245	16962.746500	341.413086	1511.983521
19489.798245	16962.746500	340.125000	1456.564697
19489.798245	16962.746500	338.836914	1385.986084
19489.798245	16962.746500	337.548828	1198.278564
19489.798245	16962.746500	336.259766	1315.931641
19489.798245	16962.746500	334.970703	1050.302979
19489.798245	16962.746500	333.681641	1050.284912
19489.798245	16962.746500	332.391602	934.639099
19489.798245	16962.746500	331.101563	820.349487
19489.798245	16962.746500	329.811523	935.371216
19489.798245	16962.746500	328.521484	569.126770
19489.798245	16962.746500	327.230469	774.730408
19489.798245	16962.746500	325.939453	659.140564
19489.798245	16962.746500	324.648438	657.442017
19489.798245	16962.746500	323.356445	633.767090
19489.798245	16962.746500	322.064453	488.432373
19489.798245	16962.746500	320.772461	413.362030
19489.798245	16962.746500	319.480469	43.435989
19489.798245	16962.746500	318.187500	108.369392
19489.798245	16962.746500	316.894531	107.731956
19489.798245	16962.746500	315.601563	30.184412
19489.798245	16962.746500	314.307617	168.720139
19489.798245	16962.746500	313.013672	115.472870
19489.798245	16962.746500	311.719727	182.346848
19489.798245	16962.746500	310.425781	-190.614471
19489.798245	16962.746500	309.130859	-17.470507
19489.798245	16962.746500	307.835938	-318.039734
19489.798245	16962.746500	306.541016	24.808311
19489.798245	16962.746500	305.245117	-110.115807
19489.798245	16962.746500	303.949219	-31.903254
19489.798245	16962.746500	302.653320	-48.471424
19489.798245	16962.746500	301.356445	237.513519
19489.798245	16962.746500	300.060547	374.278442
19489.798245	16962.746500	298.763672	293.841003
