#X		#Y		#Wave		#Intensity
19430.927500	16877.951000	2000.043945	212.450760
19430.927500	16877.951000	1999.080078	129.265671
19430.927500	16877.951000	1998.116211	202.239578
19430.927500	16877.951000	1997.151367	7.915033
19430.927500	16877.951000	1996.186523	-247.909363
19430.927500	16877.951000	1995.222656	-168.840759
19430.927500	16877.951000	1994.256836	-74.599098
19430.927500	16877.951000	1993.291992	109.113663
19430.927500	16877.951000	1992.327148	-68.374626
19430.927500	16877.951000	1991.361328	160.500702
19430.927500	16877.951000	1990.395508	70.354767
19430.927500	16877.951000	1989.429688	-91.193008
19430.927500	16877.951000	1988.463867	-4.960617
19430.927500	16877.951000	1987.497070	-17.394529
19430.927500	16877.951000	1986.531250	-123.490776
19430.927500	16877.951000	1985.564453	25.430948
19430.927500	16877.951000	1984.597656	65.815224
19430.927500	16877.951000	1983.630859	249.833633
19430.927500	16877.951000	1982.664063	-33.004307
19430.927500	16877.951000	1981.696289	129.281891
19430.927500	16877.951000	1980.728516	101.561646
19430.927500	16877.951000	1979.761719	106.228706
19430.927500	16877.951000	1978.792969	-54.303642
19430.927500	16877.951000	1977.825195	-93.540390
19430.927500	16877.951000	1976.857422	-51.052959
19430.927500	16877.951000	1975.888672	-141.615784
19430.927500	16877.951000	1974.919922	153.038712
19430.927500	16877.951000	1973.951172	1.262399
19430.927500	16877.951000	1972.982422	219.773422
19430.927500	16877.951000	1972.013672	43.827091
19430.927500	16877.951000	1971.043945	-40.604477
19430.927500	16877.951000	1970.075195	-171.633652
19430.927500	16877.951000	1969.105469	-4.161137
19430.927500	16877.951000	1968.135742	-112.562164
19430.927500	16877.951000	1967.165039	-95.065750
19430.927500	16877.951000	1966.195313	-28.115747
19430.927500	16877.951000	1965.224609	135.054977
19430.927500	16877.951000	1964.253906	140.741501
19430.927500	16877.951000	1963.283203	65.353943
19430.927500	16877.951000	1962.312500	125.556389
19430.927500	16877.951000	1961.341797	13.619430
19430.927500	16877.951000	1960.370117	226.706299
19430.927500	16877.951000	1959.399414	149.556580
19430.927500	16877.951000	1958.427734	23.395319
19430.927500	16877.951000	1957.455078	163.042587
19430.927500	16877.951000	1956.483398	251.144424
19430.927500	16877.951000	1955.511719	-56.457619
19430.927500	16877.951000	1954.539063	142.539566
19430.927500	16877.951000	1953.566406	71.265724
19430.927500	16877.951000	1952.593750	-61.281494
19430.927500	16877.951000	1951.621094	-24.149342
19430.927500	16877.951000	1950.647461	-85.155113
19430.927500	16877.951000	1949.674805	-74.811485
19430.927500	16877.951000	1948.701172	-44.715408
19430.927500	16877.951000	1947.727539	-46.435814
19430.927500	16877.951000	1946.753906	-227.218918
19430.927500	16877.951000	1945.780273	21.592440
19430.927500	16877.951000	1944.805664	-73.069092
19430.927500	16877.951000	1943.831055	-339.310760
19430.927500	16877.951000	1942.856445	-33.931324
19430.927500	16877.951000	1941.881836	136.555679
19430.927500	16877.951000	1940.907227	-82.744125
19430.927500	16877.951000	1939.932617	310.898010
19430.927500	16877.951000	1938.957031	-50.338390
19430.927500	16877.951000	1937.981445	196.284866
19430.927500	16877.951000	1937.005859	-20.124416
19430.927500	16877.951000	1936.030273	113.861885
19430.927500	16877.951000	1935.054688	-136.613190
19430.927500	16877.951000	1934.078125	134.573761
19430.927500	16877.951000	1933.101563	163.366913
19430.927500	16877.951000	1932.125000	-40.313259
19430.927500	16877.951000	1931.148438	-334.412384
19430.927500	16877.951000	1930.171875	42.003815
19430.927500	16877.951000	1929.194336	53.851151
19430.927500	16877.951000	1928.217773	82.846138
19430.927500	16877.951000	1927.240234	-5.502455
19430.927500	16877.951000	1926.262695	60.232929
19430.927500	16877.951000	1925.284180	-28.015970
19430.927500	16877.951000	1924.306641	140.392075
19430.927500	16877.951000	1923.328125	15.557055
19430.927500	16877.951000	1922.350586	-202.048752
19430.927500	16877.951000	1921.372070	73.826202
19430.927500	16877.951000	1920.392578	-55.757393
19430.927500	16877.951000	1919.414063	-295.158264
19430.927500	16877.951000	1918.434570	107.554008
19430.927500	16877.951000	1917.456055	39.069572
19430.927500	16877.951000	1916.476563	-2.538468
19430.927500	16877.951000	1915.497070	109.570770
19430.927500	16877.951000	1914.516602	207.005341
19430.927500	16877.951000	1913.537109	216.595200
19430.927500	16877.951000	1912.556641	60.369648
19430.927500	16877.951000	1911.576172	-29.984579
19430.927500	16877.951000	1910.595703	-122.756012
19430.927500	16877.951000	1909.615234	-66.849365
19430.927500	16877.951000	1908.633789	249.735184
19430.927500	16877.951000	1907.653320	-30.668127
19430.927500	16877.951000	1906.671875	-79.597336
19430.927500	16877.951000	1905.690430	27.320158
19430.927500	16877.951000	1904.708984	0.259913
19430.927500	16877.951000	1903.727539	238.518616
19430.927500	16877.951000	1902.745117	-36.875526
19430.927500	16877.951000	1901.762695	-183.230347
19430.927500	16877.951000	1900.780273	40.237286
19430.927500	16877.951000	1899.797852	64.123032
19430.927500	16877.951000	1898.815430	360.344849
19430.927500	16877.951000	1897.832031	26.648701
19430.927500	16877.951000	1896.849609	50.401150
19430.927500	16877.951000	1895.866211	98.410507
19430.927500	16877.951000	1894.882813	190.098953
19430.927500	16877.951000	1893.898438	106.769020
19430.927500	16877.951000	1892.915039	-93.190720
19430.927500	16877.951000	1891.930664	97.918411
19430.927500	16877.951000	1890.947266	-87.500107
19430.927500	16877.951000	1889.962891	134.990555
19430.927500	16877.951000	1888.977539	-103.873116
19430.927500	16877.951000	1887.993164	-133.987015
19430.927500	16877.951000	1887.007813	71.228996
19430.927500	16877.951000	1886.023438	-56.072819
19430.927500	16877.951000	1885.038086	68.880836
19430.927500	16877.951000	1884.051758	254.355896
19430.927500	16877.951000	1883.066406	-173.765427
19430.927500	16877.951000	1882.081055	55.184547
19430.927500	16877.951000	1881.094727	90.078278
19430.927500	16877.951000	1880.108398	83.690826
19430.927500	16877.951000	1879.122070	222.607819
19430.927500	16877.951000	1878.135742	199.095551
19430.927500	16877.951000	1877.148438	209.428665
19430.927500	16877.951000	1876.162109	35.640995
19430.927500	16877.951000	1875.174805	111.217644
19430.927500	16877.951000	1874.187500	266.569061
19430.927500	16877.951000	1873.199219	-108.237335
19430.927500	16877.951000	1872.211914	119.529297
19430.927500	16877.951000	1871.223633	6.011768
19430.927500	16877.951000	1870.236328	-109.967880
19430.927500	16877.951000	1869.248047	160.956497
19430.927500	16877.951000	1868.258789	93.187004
19430.927500	16877.951000	1867.270508	-114.859993
19430.927500	16877.951000	1866.282227	56.556625
19430.927500	16877.951000	1865.292969	90.079041
19430.927500	16877.951000	1864.303711	26.855104
19430.927500	16877.951000	1863.314453	11.878112
19430.927500	16877.951000	1862.324219	274.567383
19430.927500	16877.951000	1861.334961	-143.896790
19430.927500	16877.951000	1860.344727	-149.448395
19430.927500	16877.951000	1859.354492	79.051208
19430.927500	16877.951000	1858.364258	-20.849850
19430.927500	16877.951000	1857.374023	178.395569
19430.927500	16877.951000	1856.383789	102.446968
19430.927500	16877.951000	1855.392578	91.557167
19430.927500	16877.951000	1854.401367	222.858582
19430.927500	16877.951000	1853.410156	281.677795
19430.927500	16877.951000	1852.418945	137.880386
19430.927500	16877.951000	1851.426758	254.342972
19430.927500	16877.951000	1850.435547	430.906372
19430.927500	16877.951000	1849.443359	147.123077
19430.927500	16877.951000	1848.451172	246.355682
19430.927500	16877.951000	1847.458984	172.044189
19430.927500	16877.951000	1846.466797	254.176422
19430.927500	16877.951000	1845.473633	66.535744
19430.927500	16877.951000	1844.480469	-12.820401
19430.927500	16877.951000	1843.487305	-58.557415
19430.927500	16877.951000	1842.494141	124.202278
19430.927500	16877.951000	1841.500977	277.922241
19430.927500	16877.951000	1840.506836	130.823883
19430.927500	16877.951000	1839.513672	-4.299329
19430.927500	16877.951000	1838.519531	103.360947
19430.927500	16877.951000	1837.525391	35.392307
19430.927500	16877.951000	1836.530273	8.200425
19430.927500	16877.951000	1835.536133	4.943936
19430.927500	16877.951000	1834.541016	85.669678
19430.927500	16877.951000	1833.545898	171.063416
19430.927500	16877.951000	1832.550781	162.654312
19430.927500	16877.951000	1831.555664	7.669772
19430.927500	16877.951000	1830.560547	116.716164
19430.927500	16877.951000	1829.564453	187.209320
19430.927500	16877.951000	1828.568359	233.569962
19430.927500	16877.951000	1827.572266	145.441635
19430.927500	16877.951000	1826.576172	110.014732
19430.927500	16877.951000	1825.580078	249.580276
19430.927500	16877.951000	1824.583008	225.920868
19430.927500	16877.951000	1823.585938	221.342606
19430.927500	16877.951000	1822.588867	84.817245
19430.927500	16877.951000	1821.591797	-6.227406
19430.927500	16877.951000	1820.594727	-27.856695
19430.927500	16877.951000	1819.596680	103.740837
19430.927500	16877.951000	1818.599609	218.415176
19430.927500	16877.951000	1817.601563	-38.262703
19430.927500	16877.951000	1816.603516	-69.879379
19430.927500	16877.951000	1815.604492	-94.412804
19430.927500	16877.951000	1814.606445	-174.091202
19430.927500	16877.951000	1813.607422	-67.192978
19430.927500	16877.951000	1812.608398	-46.574749
19430.927500	16877.951000	1811.609375	-112.188416
19430.927500	16877.951000	1810.610352	125.858856
19430.927500	16877.951000	1809.610352	-90.626244
19430.927500	16877.951000	1808.611328	276.216309
19430.927500	16877.951000	1807.611328	104.987808
19430.927500	16877.951000	1806.611328	124.908539
19430.927500	16877.951000	1805.610352	111.260429
19430.927500	16877.951000	1804.610352	109.460037
19430.927500	16877.951000	1803.609375	169.653824
19430.927500	16877.951000	1802.608398	19.570324
19430.927500	16877.951000	1801.607422	24.632805
19430.927500	16877.951000	1800.606445	-30.088020
19430.927500	16877.951000	1799.605469	91.722725
19430.927500	16877.951000	1798.603516	105.999687
19430.927500	16877.951000	1797.601563	-120.798515
19430.927500	16877.951000	1796.599609	-73.298370
19430.927500	16877.951000	1795.597656	14.624617
19430.927500	16877.951000	1794.595703	-131.263428
19430.927500	16877.951000	1793.592773	27.950224
19430.927500	16877.951000	1792.589844	-141.927582
19430.927500	16877.951000	1791.587891	140.951385
19430.927500	16877.951000	1790.583984	85.277931
19430.927500	16877.951000	1789.581055	208.195358
19430.927500	16877.951000	1788.577148	245.219452
19430.927500	16877.951000	1787.574219	-36.957211
19430.927500	16877.951000	1786.570313	-47.713722
19430.927500	16877.951000	1785.566406	3.325854
19430.927500	16877.951000	1784.561523	-26.674511
19430.927500	16877.951000	1783.557617	59.839859
19430.927500	16877.951000	1782.552734	-193.981506
19430.927500	16877.951000	1781.547852	11.265074
19430.927500	16877.951000	1780.542969	102.187691
19430.927500	16877.951000	1779.538086	-185.068466
19430.927500	16877.951000	1778.532227	-49.168987
19430.927500	16877.951000	1777.527344	-229.519989
19430.927500	16877.951000	1776.521484	-72.461212
19430.927500	16877.951000	1775.515625	-141.263184
19430.927500	16877.951000	1774.508789	-55.733406
19430.927500	16877.951000	1773.502930	-160.317291
19430.927500	16877.951000	1772.496094	72.223877
19430.927500	16877.951000	1771.489258	45.813301
19430.927500	16877.951000	1770.482422	-260.762115
19430.927500	16877.951000	1769.475586	-38.092430
19430.927500	16877.951000	1768.467773	-133.544174
19430.927500	16877.951000	1767.460938	27.164835
19430.927500	16877.951000	1766.453125	-39.973709
19430.927500	16877.951000	1765.445313	-135.627838
19430.927500	16877.951000	1764.437500	-328.536987
19430.927500	16877.951000	1763.428711	83.004265
19430.927500	16877.951000	1762.420898	110.372650
19430.927500	16877.951000	1761.412109	-77.989700
19430.927500	16877.951000	1760.403320	-316.111694
19430.927500	16877.951000	1759.393555	-68.655441
19430.927500	16877.951000	1758.384766	-29.767920
19430.927500	16877.951000	1757.375000	-178.034927
19430.927500	16877.951000	1756.366211	40.618511
19430.927500	16877.951000	1755.356445	53.186405
19430.927500	16877.951000	1754.345703	-36.089355
19430.927500	16877.951000	1753.335938	-217.671448
19430.927500	16877.951000	1752.325195	-146.157059
19430.927500	16877.951000	1751.315430	192.514847
19430.927500	16877.951000	1750.304688	126.630615
19430.927500	16877.951000	1749.292969	280.557159
19430.927500	16877.951000	1748.282227	290.176300
19430.927500	16877.951000	1747.270508	101.200699
19430.927500	16877.951000	1746.259766	491.122803
19430.927500	16877.951000	1745.248047	476.856232
19430.927500	16877.951000	1744.235352	356.234741
19430.927500	16877.951000	1743.223633	261.576355
19430.927500	16877.951000	1742.211914	369.934967
19430.927500	16877.951000	1741.199219	367.232391
19430.927500	16877.951000	1740.186523	541.475342
19430.927500	16877.951000	1739.173828	809.974426
19430.927500	16877.951000	1738.160156	554.557495
19430.927500	16877.951000	1737.147461	763.859680
19430.927500	16877.951000	1736.133789	623.985107
19430.927500	16877.951000	1735.120117	701.026672
19430.927500	16877.951000	1734.106445	457.374084
19430.927500	16877.951000	1733.091797	506.009338
19430.927500	16877.951000	1732.078125	637.057312
19430.927500	16877.951000	1731.063477	558.301270
19430.927500	16877.951000	1730.048828	333.475128
19430.927500	16877.951000	1729.034180	367.746887
19430.927500	16877.951000	1728.019531	444.338196
19430.927500	16877.951000	1727.003906	452.565826
19430.927500	16877.951000	1725.988281	260.666779
19430.927500	16877.951000	1724.972656	78.205559
19430.927500	16877.951000	1723.957031	335.757416
19430.927500	16877.951000	1722.941406	423.787231
19430.927500	16877.951000	1721.924805	410.591003
19430.927500	16877.951000	1720.909180	547.863037
19430.927500	16877.951000	1719.892578	663.869019
19430.927500	16877.951000	1718.875977	314.358093
19430.927500	16877.951000	1717.858398	181.147491
19430.927500	16877.951000	1716.841797	113.749252
19430.927500	16877.951000	1715.824219	356.434662
19430.927500	16877.951000	1714.806641	133.914841
19430.927500	16877.951000	1713.789063	343.547302
19430.927500	16877.951000	1712.770508	123.377724
19430.927500	16877.951000	1711.752930	175.575684
19430.927500	16877.951000	1710.734375	347.408234
19430.927500	16877.951000	1709.715820	-222.384003
19430.927500	16877.951000	1708.697266	301.314270
19430.927500	16877.951000	1707.678711	163.292221
19430.927500	16877.951000	1706.659180	234.008469
19430.927500	16877.951000	1705.640625	-173.661041
19430.927500	16877.951000	1704.621094	215.865875
19430.927500	16877.951000	1703.600586	284.091187
19430.927500	16877.951000	1702.581055	-57.830654
19430.927500	16877.951000	1701.561523	221.248352
19430.927500	16877.951000	1700.541016	-158.071686
19430.927500	16877.951000	1699.520508	170.043854
19430.927500	16877.951000	1698.500000	90.564781
19430.927500	16877.951000	1697.478516	448.887054
19430.927500	16877.951000	1696.458008	137.608673
19430.927500	16877.951000	1695.436523	114.275345
19430.927500	16877.951000	1694.415039	313.218842
19430.927500	16877.951000	1693.393555	287.486115
19430.927500	16877.951000	1692.372070	41.885887
19430.927500	16877.951000	1691.349609	76.974159
19430.927500	16877.951000	1690.327148	411.304443
19430.927500	16877.951000	1689.304688	401.866089
19430.927500	16877.951000	1688.282227	478.895477
19430.927500	16877.951000	1687.259766	252.110535
19430.927500	16877.951000	1686.236328	252.009598
19430.927500	16877.951000	1685.213867	417.751434
19430.927500	16877.951000	1684.190430	359.218445
19430.927500	16877.951000	1683.166016	141.916626
19430.927500	16877.951000	1682.142578	249.192169
19430.927500	16877.951000	1681.119141	398.434113
19430.927500	16877.951000	1680.094727	370.254120
19430.927500	16877.951000	1679.070313	146.100235
19430.927500	16877.951000	1678.045898	92.315331
19430.927500	16877.951000	1677.020508	344.059875
19430.927500	16877.951000	1675.996094	64.077583
19430.927500	16877.951000	1674.970703	17.325089
19430.927500	16877.951000	1673.945313	-90.010292
19430.927500	16877.951000	1672.919922	156.923065
19430.927500	16877.951000	1671.893555	-66.896942
19430.927500	16877.951000	1670.868164	254.491058
19430.927500	16877.951000	1669.841797	221.733276
19430.927500	16877.951000	1668.815430	-34.549465
19430.927500	16877.951000	1667.789063	100.406555
19430.927500	16877.951000	1666.761719	58.402554
19430.927500	16877.951000	1665.735352	137.454437
19430.927500	16877.951000	1664.708008	423.564972
19430.927500	16877.951000	1663.680664	221.039459
19430.927500	16877.951000	1662.653320	158.162155
19430.927500	16877.951000	1661.625000	367.392548
19430.927500	16877.951000	1660.597656	311.517792
19430.927500	16877.951000	1659.569336	302.160980
19430.927500	16877.951000	1658.541016	332.337280
19430.927500	16877.951000	1657.512695	181.274246
19430.927500	16877.951000	1656.483398	323.005707
19430.927500	16877.951000	1655.455078	469.357635
19430.927500	16877.951000	1654.425781	462.392822
19430.927500	16877.951000	1653.396484	485.637970
19430.927500	16877.951000	1652.366211	515.851624
19430.927500	16877.951000	1651.336914	687.670105
19430.927500	16877.951000	1650.306641	1017.232483
19430.927500	16877.951000	1649.276367	731.874084
19430.927500	16877.951000	1648.246094	919.857544
19430.927500	16877.951000	1647.215820	1079.966919
19430.927500	16877.951000	1646.185547	804.123291
19430.927500	16877.951000	1645.154297	971.200500
19430.927500	16877.951000	1644.123047	1054.801147
19430.927500	16877.951000	1643.091797	1105.961304
19430.927500	16877.951000	1642.060547	1493.088135
19430.927500	16877.951000	1641.028320	1363.514893
19430.927500	16877.951000	1639.997070	1328.994141
19430.927500	16877.951000	1638.964844	1746.054443
19430.927500	16877.951000	1637.931641	1808.765015
19430.927500	16877.951000	1636.899414	1952.511475
19430.927500	16877.951000	1635.867188	1887.962646
19430.927500	16877.951000	1634.833984	1772.563110
19430.927500	16877.951000	1633.800781	2020.446411
19430.927500	16877.951000	1632.767578	2226.644531
19430.927500	16877.951000	1631.734375	2196.934082
19430.927500	16877.951000	1630.700195	2206.575928
19430.927500	16877.951000	1629.666016	2304.096191
19430.927500	16877.951000	1628.631836	2510.247314
19430.927500	16877.951000	1627.597656	2473.745117
19430.927500	16877.951000	1626.563477	2675.256836
19430.927500	16877.951000	1625.528320	2708.117676
19430.927500	16877.951000	1624.493164	2777.962646
19430.927500	16877.951000	1623.458008	2616.947021
19430.927500	16877.951000	1622.422852	2636.098877
19430.927500	16877.951000	1621.387695	2417.577148
19430.927500	16877.951000	1620.351563	2621.458252
19430.927500	16877.951000	1619.315430	2359.286865
19430.927500	16877.951000	1618.279297	2293.334961
19430.927500	16877.951000	1617.243164	2351.998291
19430.927500	16877.951000	1616.207031	2260.822510
19430.927500	16877.951000	1615.169922	1973.782104
19430.927500	16877.951000	1614.132813	1912.785156
19430.927500	16877.951000	1613.095703	1980.914307
19430.927500	16877.951000	1612.058594	1947.703735
19430.927500	16877.951000	1611.020508	1923.772705
19430.927500	16877.951000	1609.983398	1411.679688
19430.927500	16877.951000	1608.945313	1546.864136
19430.927500	16877.951000	1607.907227	1481.774292
19430.927500	16877.951000	1606.868164	1326.998779
19430.927500	16877.951000	1605.830078	1453.106934
19430.927500	16877.951000	1604.791016	1498.695190
19430.927500	16877.951000	1603.751953	1693.854126
19430.927500	16877.951000	1602.712891	1780.908569
19430.927500	16877.951000	1601.673828	1688.640747
19430.927500	16877.951000	1600.633789	1798.781860
19430.927500	16877.951000	1599.594727	1796.326294
19430.927500	16877.951000	1598.554688	1855.982544
19430.927500	16877.951000	1597.513672	1722.679077
19430.927500	16877.951000	1596.473633	2014.484131
19430.927500	16877.951000	1595.433594	1814.746338
19430.927500	16877.951000	1594.392578	2007.816772
19430.927500	16877.951000	1593.351563	1978.189697
19430.927500	16877.951000	1592.310547	2123.098145
19430.927500	16877.951000	1591.268555	2001.803345
19430.927500	16877.951000	1590.227539	1947.179199
19430.927500	16877.951000	1589.185547	1816.941284
19430.927500	16877.951000	1588.143555	2072.157471
19430.927500	16877.951000	1587.100586	1740.298584
19430.927500	16877.951000	1586.058594	1858.022705
19430.927500	16877.951000	1585.015625	1831.360474
19430.927500	16877.951000	1583.972656	1752.078857
19430.927500	16877.951000	1582.929688	1881.420654
19430.927500	16877.951000	1581.886719	2035.993774
19430.927500	16877.951000	1580.843750	1915.730347
19430.927500	16877.951000	1579.799805	1786.431763
19430.927500	16877.951000	1578.755859	1977.805786
19430.927500	16877.951000	1577.711914	1832.686890
19430.927500	16877.951000	1576.666992	2017.273071
19430.927500	16877.951000	1575.623047	1824.318726
19430.927500	16877.951000	1574.578125	1832.846069
19430.927500	16877.951000	1573.533203	1846.027344
19430.927500	16877.951000	1572.488281	1905.029053
19430.927500	16877.951000	1571.443359	1950.375244
19430.927500	16877.951000	1570.397461	1831.195923
19430.927500	16877.951000	1569.351563	1776.145264
19430.927500	16877.951000	1568.305664	1705.210205
19430.927500	16877.951000	1567.259766	1961.094360
19430.927500	16877.951000	1566.213867	2020.528687
19430.927500	16877.951000	1565.166992	1860.783936
19430.927500	16877.951000	1564.120117	1870.156982
19430.927500	16877.951000	1563.073242	2050.831543
19430.927500	16877.951000	1562.026367	2258.913574
19430.927500	16877.951000	1560.978516	2076.789795
19430.927500	16877.951000	1559.930664	2034.002197
19430.927500	16877.951000	1558.883789	1938.864136
19430.927500	16877.951000	1557.834961	2117.521484
19430.927500	16877.951000	1556.787109	2018.026367
19430.927500	16877.951000	1555.739258	2253.783203
19430.927500	16877.951000	1554.690430	2120.298096
19430.927500	16877.951000	1553.641602	1738.571533
19430.927500	16877.951000	1552.592773	2072.494873
19430.927500	16877.951000	1551.542969	2007.744019
19430.927500	16877.951000	1550.494141	1861.131836
19430.927500	16877.951000	1549.444336	1689.623901
19430.927500	16877.951000	1548.394531	1734.554199
19430.927500	16877.951000	1547.344727	1285.645874
19430.927500	16877.951000	1546.293945	1260.286499
19430.927500	16877.951000	1545.244141	998.414551
19430.927500	16877.951000	1544.193359	961.944092
19430.927500	16877.951000	1543.142578	714.075684
19430.927500	16877.951000	1542.090820	1037.144775
19430.927500	16877.951000	1541.040039	757.729553
19430.927500	16877.951000	1539.988281	614.903015
19430.927500	16877.951000	1538.936523	451.781342
19430.927500	16877.951000	1537.884766	427.419586
19430.927500	16877.951000	1536.833008	482.679260
19430.927500	16877.951000	1535.780273	488.048553
19430.927500	16877.951000	1534.727539	516.225525
19430.927500	16877.951000	1533.674805	331.087280
19430.927500	16877.951000	1532.622070	366.300049
19430.927500	16877.951000	1531.569336	238.203903
19430.927500	16877.951000	1530.515625	350.769867
19430.927500	16877.951000	1529.461914	202.515747
19430.927500	16877.951000	1528.408203	199.580383
19430.927500	16877.951000	1527.354492	360.016663
19430.927500	16877.951000	1526.299805	196.290192
19430.927500	16877.951000	1525.246094	80.335579
19430.927500	16877.951000	1524.191406	567.353455
19430.927500	16877.951000	1523.136719	433.452728
19430.927500	16877.951000	1522.081055	546.634521
19430.927500	16877.951000	1521.026367	741.412720
19430.927500	16877.951000	1519.970703	841.113647
19430.927500	16877.951000	1518.915039	820.885010
19430.927500	16877.951000	1517.859375	859.625183
19430.927500	16877.951000	1516.802734	554.458801
19430.927500	16877.951000	1515.747070	887.596069
19430.927500	16877.951000	1514.690430	698.131836
19430.927500	16877.951000	1513.633789	802.881104
19430.927500	16877.951000	1512.577148	898.650513
19430.927500	16877.951000	1511.519531	933.444153
19430.927500	16877.951000	1510.461914	950.248474
19430.927500	16877.951000	1509.405273	820.252747
19430.927500	16877.951000	1508.346680	758.201843
19430.927500	16877.951000	1507.289063	965.116577
19430.927500	16877.951000	1506.231445	419.924866
19430.927500	16877.951000	1505.172852	809.953552
19430.927500	16877.951000	1504.114258	845.467773
19430.927500	16877.951000	1503.055664	594.397278
19430.927500	16877.951000	1501.996094	348.049561
19430.927500	16877.951000	1500.937500	420.057617
19430.927500	16877.951000	1499.877930	379.349091
19430.927500	16877.951000	1498.818359	388.385956
19430.927500	16877.951000	1497.757813	336.642090
19430.927500	16877.951000	1496.698242	118.183296
19430.927500	16877.951000	1495.637695	294.400879
19430.927500	16877.951000	1494.577148	321.908661
19430.927500	16877.951000	1493.516602	-101.139114
19430.927500	16877.951000	1492.456055	41.546497
19430.927500	16877.951000	1491.394531	123.471222
19430.927500	16877.951000	1490.333008	47.836357
19430.927500	16877.951000	1489.271484	-29.910948
19430.927500	16877.951000	1488.209961	-271.845032
19430.927500	16877.951000	1487.148438	-173.739487
19430.927500	16877.951000	1486.085938	-278.072479
19430.927500	16877.951000	1485.023438	-87.547577
19430.927500	16877.951000	1483.960938	-220.883667
19430.927500	16877.951000	1482.898438	160.915192
19430.927500	16877.951000	1481.834961	25.552797
19430.927500	16877.951000	1480.772461	7.244160
19430.927500	16877.951000	1479.708984	60.955742
19430.927500	16877.951000	1478.644531	36.132961
19430.927500	16877.951000	1477.581055	161.919907
19430.927500	16877.951000	1476.517578	-26.676718
19430.927500	16877.951000	1475.453125	-35.354908
19430.927500	16877.951000	1474.388672	310.588959
19430.927500	16877.951000	1473.323242	250.359390
19430.927500	16877.951000	1472.258789	248.533081
19430.927500	16877.951000	1471.193359	417.390503
19430.927500	16877.951000	1470.127930	438.310608
19430.927500	16877.951000	1469.062500	318.134949
19430.927500	16877.951000	1467.997070	338.884735
19430.927500	16877.951000	1466.930664	373.624420
19430.927500	16877.951000	1465.865234	473.415833
19430.927500	16877.951000	1464.798828	566.360840
19430.927500	16877.951000	1463.731445	578.887146
19430.927500	16877.951000	1462.665039	613.960327
19430.927500	16877.951000	1461.597656	986.678833
19430.927500	16877.951000	1460.530273	771.227417
19430.927500	16877.951000	1459.462891	558.519775
19430.927500	16877.951000	1458.395508	475.332977
19430.927500	16877.951000	1457.327148	653.240051
19430.927500	16877.951000	1456.259766	619.910400
19430.927500	16877.951000	1455.191406	536.877258
19430.927500	16877.951000	1454.123047	543.250488
19430.927500	16877.951000	1453.053711	434.388611
19430.927500	16877.951000	1451.985352	710.128296
19430.927500	16877.951000	1450.916016	673.464355
19430.927500	16877.951000	1449.846680	834.314880
19430.927500	16877.951000	1448.776367	730.165771
19430.927500	16877.951000	1447.707031	697.358582
19430.927500	16877.951000	1446.636719	961.332458
19430.927500	16877.951000	1445.566406	843.163086
19430.927500	16877.951000	1444.496094	1000.977112
19430.927500	16877.951000	1443.425781	794.321045
19430.927500	16877.951000	1442.354492	731.202576
19430.927500	16877.951000	1441.283203	792.482483
19430.927500	16877.951000	1440.211914	978.978638
19430.927500	16877.951000	1439.140625	557.551941
19430.927500	16877.951000	1438.069336	540.664795
19430.927500	16877.951000	1436.997070	524.352844
19430.927500	16877.951000	1435.924805	877.068115
19430.927500	16877.951000	1434.852539	598.384216
19430.927500	16877.951000	1433.780273	464.076202
19430.927500	16877.951000	1432.707031	480.982635
19430.927500	16877.951000	1431.633789	465.348145
19430.927500	16877.951000	1430.560547	257.984711
19430.927500	16877.951000	1429.487305	575.897705
19430.927500	16877.951000	1428.413086	181.348022
19430.927500	16877.951000	1427.339844	442.119171
19430.927500	16877.951000	1426.265625	617.608398
19430.927500	16877.951000	1425.191406	624.883972
19430.927500	16877.951000	1424.116211	536.187500
19430.927500	16877.951000	1423.041992	474.333099
19430.927500	16877.951000	1421.966797	431.228424
19430.927500	16877.951000	1420.891602	441.683594
19430.927500	16877.951000	1419.816406	598.211670
19430.927500	16877.951000	1418.740234	762.767578
19430.927500	16877.951000	1417.665039	377.242798
19430.927500	16877.951000	1416.588867	994.545654
19430.927500	16877.951000	1415.512695	914.034729
19430.927500	16877.951000	1414.435547	786.752991
19430.927500	16877.951000	1413.359375	1014.821777
19430.927500	16877.951000	1412.282227	1069.105103
19430.927500	16877.951000	1411.205078	1157.527710
19430.927500	16877.951000	1410.127930	1439.287964
19430.927500	16877.951000	1409.049805	1263.904053
19430.927500	16877.951000	1407.972656	1408.625488
19430.927500	16877.951000	1406.894531	1567.252319
19430.927500	16877.951000	1405.816406	1818.990356
19430.927500	16877.951000	1404.737305	1717.726685
19430.927500	16877.951000	1403.659180	1680.589233
19430.927500	16877.951000	1402.580078	1837.921753
19430.927500	16877.951000	1401.500977	1466.382568
19430.927500	16877.951000	1400.421875	1819.629272
19430.927500	16877.951000	1399.341797	1994.508667
19430.927500	16877.951000	1398.262695	2030.891602
19430.927500	16877.951000	1397.182617	2134.839844
19430.927500	16877.951000	1396.102539	2095.510986
19430.927500	16877.951000	1395.021484	2356.605713
19430.927500	16877.951000	1393.941406	2147.033447
19430.927500	16877.951000	1392.860352	2448.301514
19430.927500	16877.951000	1391.779297	2537.327393
19430.927500	16877.951000	1390.698242	2541.998779
19430.927500	16877.951000	1389.616211	2259.387939
19430.927500	16877.951000	1388.535156	2726.800293
19430.927500	16877.951000	1387.453125	2617.803955
19430.927500	16877.951000	1386.371094	2560.774902
19430.927500	16877.951000	1385.288086	2468.123779
19430.927500	16877.951000	1384.206055	2594.068848
19430.927500	16877.951000	1383.123047	2526.011475
19430.927500	16877.951000	1382.040039	2569.458008
19430.927500	16877.951000	1380.957031	2371.087402
19430.927500	16877.951000	1379.873047	2480.978271
19430.927500	16877.951000	1378.789063	2500.162354
19430.927500	16877.951000	1377.705078	2693.798828
19430.927500	16877.951000	1376.621094	2488.242676
19430.927500	16877.951000	1375.537109	2840.268555
19430.927500	16877.951000	1374.452148	3021.537354
19430.927500	16877.951000	1373.367188	2940.861328
19430.927500	16877.951000	1372.282227	2980.708740
19430.927500	16877.951000	1371.197266	3228.124023
19430.927500	16877.951000	1370.112305	3142.885498
19430.927500	16877.951000	1369.026367	3154.714844
19430.927500	16877.951000	1367.940430	3120.789551
19430.927500	16877.951000	1366.854492	3187.558105
19430.927500	16877.951000	1365.767578	3416.496094
19430.927500	16877.951000	1364.681641	3017.974609
19430.927500	16877.951000	1363.594727	3265.107666
19430.927500	16877.951000	1362.507813	3357.634766
19430.927500	16877.951000	1361.419922	3162.620117
19430.927500	16877.951000	1360.333008	3301.754150
19430.927500	16877.951000	1359.245117	2879.505127
19430.927500	16877.951000	1358.157227	2937.592773
19430.927500	16877.951000	1357.069336	2798.024414
19430.927500	16877.951000	1355.981445	2496.777832
19430.927500	16877.951000	1354.892578	2674.624023
19430.927500	16877.951000	1353.803711	2591.620605
19430.927500	16877.951000	1352.714844	2704.552002
19430.927500	16877.951000	1351.625000	2424.281250
19430.927500	16877.951000	1350.536133	2410.551025
19430.927500	16877.951000	1349.446289	2412.046875
19430.927500	16877.951000	1348.356445	2456.326660
19430.927500	16877.951000	1347.266602	2097.201660
19430.927500	16877.951000	1346.175781	1990.021362
19430.927500	16877.951000	1345.085938	1988.233521
19430.927500	16877.951000	1343.995117	1829.730835
19430.927500	16877.951000	1342.903320	1912.299927
19430.927500	16877.951000	1341.812500	1723.872437
19430.927500	16877.951000	1340.720703	1592.487793
19430.927500	16877.951000	1339.629883	1623.017212
19430.927500	16877.951000	1338.538086	1402.271729
19430.927500	16877.951000	1337.445313	1348.616089
19430.927500	16877.951000	1336.353516	1392.463989
19430.927500	16877.951000	1335.260742	1361.142456
19430.927500	16877.951000	1334.167969	1134.681152
19430.927500	16877.951000	1333.075195	1162.214233
19430.927500	16877.951000	1331.981445	1048.023193
19430.927500	16877.951000	1330.888672	1213.118896
19430.927500	16877.951000	1329.794922	1360.104248
19430.927500	16877.951000	1328.701172	1345.567383
19430.927500	16877.951000	1327.606445	1356.731323
19430.927500	16877.951000	1326.512695	1679.542480
19430.927500	16877.951000	1325.417969	1606.205200
19430.927500	16877.951000	1324.323242	1339.975830
19430.927500	16877.951000	1323.227539	1486.985352
19430.927500	16877.951000	1322.132813	1646.084473
19430.927500	16877.951000	1321.037109	1543.171143
19430.927500	16877.951000	1319.941406	1608.915405
19430.927500	16877.951000	1318.845703	1766.722778
19430.927500	16877.951000	1317.750000	1870.125732
19430.927500	16877.951000	1316.653320	1660.677612
19430.927500	16877.951000	1315.556641	1595.772827
19430.927500	16877.951000	1314.459961	1527.785767
19430.927500	16877.951000	1313.363281	1601.664917
19430.927500	16877.951000	1312.265625	1643.389404
19430.927500	16877.951000	1311.167969	1475.767700
19430.927500	16877.951000	1310.070313	1422.967041
19430.927500	16877.951000	1308.972656	1149.494507
19430.927500	16877.951000	1307.874023	1022.593201
19430.927500	16877.951000	1306.776367	1246.196777
19430.927500	16877.951000	1305.677734	941.225525
19430.927500	16877.951000	1304.579102	1005.630371
19430.927500	16877.951000	1303.479492	946.375122
19430.927500	16877.951000	1302.380859	1017.100403
19430.927500	16877.951000	1301.281250	828.020630
19430.927500	16877.951000	1300.181641	843.140259
19430.927500	16877.951000	1299.081055	911.792419
19430.927500	16877.951000	1297.981445	725.348938
19430.927500	16877.951000	1296.880859	742.796875
19430.927500	16877.951000	1295.780273	744.065552
19430.927500	16877.951000	1294.679688	765.280151
19430.927500	16877.951000	1293.578125	689.843140
19430.927500	16877.951000	1292.476563	744.832214
19430.927500	16877.951000	1291.375000	639.813049
19430.927500	16877.951000	1290.273438	755.658936
19430.927500	16877.951000	1289.171875	745.581238
19430.927500	16877.951000	1288.069336	804.000793
19430.927500	16877.951000	1286.966797	974.516846
19430.927500	16877.951000	1285.864258	773.016357
19430.927500	16877.951000	1284.761719	828.883484
19430.927500	16877.951000	1283.658203	623.324341
19430.927500	16877.951000	1282.554688	801.223206
19430.927500	16877.951000	1281.451172	794.407593
19430.927500	16877.951000	1280.347656	733.105286
19430.927500	16877.951000	1279.244141	562.507080
19430.927500	16877.951000	1278.139648	551.822083
19430.927500	16877.951000	1277.035156	353.207031
19430.927500	16877.951000	1275.930664	410.681793
19430.927500	16877.951000	1274.825195	396.063904
19430.927500	16877.951000	1273.720703	292.969269
19430.927500	16877.951000	1272.615234	215.938904
19430.927500	16877.951000	1271.508789	391.116669
19430.927500	16877.951000	1270.403320	321.038422
19430.927500	16877.951000	1269.297852	407.960175
19430.927500	16877.951000	1268.191406	420.228821
19430.927500	16877.951000	1267.084961	400.756927
19430.927500	16877.951000	1265.977539	243.755630
19430.927500	16877.951000	1264.871094	311.988342
19430.927500	16877.951000	1263.763672	343.292908
19430.927500	16877.951000	1262.656250	327.860352
19430.927500	16877.951000	1261.548828	411.570923
19430.927500	16877.951000	1260.440430	551.657166
19430.927500	16877.951000	1259.333008	610.143311
19430.927500	16877.951000	1258.224609	361.155273
19430.927500	16877.951000	1257.115234	527.369202
19430.927500	16877.951000	1256.006836	450.846527
19430.927500	16877.951000	1254.897461	418.354706
19430.927500	16877.951000	1253.788086	443.689270
19430.927500	16877.951000	1252.678711	387.764679
19430.927500	16877.951000	1251.569336	464.411438
19430.927500	16877.951000	1250.458984	371.091553
19430.927500	16877.951000	1249.349609	158.071625
19430.927500	16877.951000	1248.239258	241.568298
19430.927500	16877.951000	1247.127930	191.659058
19430.927500	16877.951000	1246.017578	265.307892
19430.927500	16877.951000	1244.906250	185.327057
19430.927500	16877.951000	1243.794922	114.999519
19430.927500	16877.951000	1242.683594	200.755417
19430.927500	16877.951000	1241.571289	79.516632
19430.927500	16877.951000	1240.459961	98.013916
19430.927500	16877.951000	1239.347656	-2.402528
19430.927500	16877.951000	1238.234375	-68.567261
19430.927500	16877.951000	1237.122070	-87.614677
19430.927500	16877.951000	1236.008789	41.230152
19430.927500	16877.951000	1234.896484	-1.071383
19430.927500	16877.951000	1233.782227	-5.375818
19430.927500	16877.951000	1232.668945	24.275892
19430.927500	16877.951000	1231.555664	-7.900466
19430.927500	16877.951000	1230.441406	-87.209686
19430.927500	16877.951000	1229.327148	-14.067718
19430.927500	16877.951000	1228.211914	7.102446
19430.927500	16877.951000	1227.097656	21.165831
19430.927500	16877.951000	1225.982422	95.236885
19430.927500	16877.951000	1224.867188	139.435898
19430.927500	16877.951000	1223.751953	-60.598927
19430.927500	16877.951000	1222.635742	67.642921
19430.927500	16877.951000	1221.520508	-179.031860
19430.927500	16877.951000	1220.404297	-67.669205
19430.927500	16877.951000	1219.287109	-2.198324
19430.927500	16877.951000	1218.170898	52.802853
19430.927500	16877.951000	1217.053711	133.460159
19430.927500	16877.951000	1215.936523	287.940002
19430.927500	16877.951000	1214.819336	213.324005
19430.927500	16877.951000	1213.702148	304.791412
19430.927500	16877.951000	1212.583984	504.165070
19430.927500	16877.951000	1211.465820	277.537292
19430.927500	16877.951000	1210.347656	377.368622
19430.927500	16877.951000	1209.229492	330.012146
19430.927500	16877.951000	1208.110352	528.971313
19430.927500	16877.951000	1206.992188	450.991028
19430.927500	16877.951000	1205.873047	435.421234
19430.927500	16877.951000	1204.752930	450.627686
19430.927500	16877.951000	1203.633789	354.663147
19430.927500	16877.951000	1202.513672	378.583435
19430.927500	16877.951000	1201.393555	346.618835
19430.927500	16877.951000	1200.273438	347.171417
19430.927500	16877.951000	1199.152344	325.772644
19430.927500	16877.951000	1198.032227	302.074219
19430.927500	16877.951000	1196.911133	310.120026
19430.927500	16877.951000	1195.790039	131.109253
19430.927500	16877.951000	1194.667969	140.348770
19430.927500	16877.951000	1193.545898	135.502701
19430.927500	16877.951000	1192.424805	175.346664
19430.927500	16877.951000	1191.301758	5.207846
19430.927500	16877.951000	1190.179688	76.860977
19430.927500	16877.951000	1189.056641	-24.154379
19430.927500	16877.951000	1187.933594	-64.541084
19430.927500	16877.951000	1186.810547	60.740616
19430.927500	16877.951000	1185.687500	-35.077137
19430.927500	16877.951000	1184.563477	-236.181900
19430.927500	16877.951000	1183.440430	-91.369339
19430.927500	16877.951000	1182.316406	-59.132477
19430.927500	16877.951000	1181.191406	12.487300
19430.927500	16877.951000	1180.067383	33.127186
19430.927500	16877.951000	1178.942383	-25.541012
19430.927500	16877.951000	1177.817383	63.218685
19430.927500	16877.951000	1176.692383	-26.194542
19430.927500	16877.951000	1175.566406	12.215095
19430.927500	16877.951000	1174.440430	-165.982315
19430.927500	16877.951000	1173.314453	20.904413
19430.927500	16877.951000	1172.188477	-79.767509
19430.927500	16877.951000	1171.062500	-164.724854
19430.927500	16877.951000	1169.935547	-41.355774
19430.927500	16877.951000	1168.808594	90.293823
19430.927500	16877.951000	1167.681641	-133.914932
19430.927500	16877.951000	1166.553711	-58.860519
19430.927500	16877.951000	1165.426758	-58.415470
19430.927500	16877.951000	1164.298828	-59.980141
19430.927500	16877.951000	1163.170898	-168.734024
19430.927500	16877.951000	1162.041992	-113.000053
19430.927500	16877.951000	1160.914063	-89.081116
19430.927500	16877.951000	1159.785156	-166.210846
19430.927500	16877.951000	1158.656250	-170.365448
19430.927500	16877.951000	1157.526367	-250.922668
19430.927500	16877.951000	1156.397461	-102.963379
19430.927500	16877.951000	1155.267578	-101.085770
19430.927500	16877.951000	1154.137695	-86.966057
19430.927500	16877.951000	1153.006836	-28.359072
19430.927500	16877.951000	1151.876953	-32.415672
19430.927500	16877.951000	1150.746094	100.889694
19430.927500	16877.951000	1149.615234	-127.338737
19430.927500	16877.951000	1148.484375	126.107925
19430.927500	16877.951000	1147.352539	136.019577
19430.927500	16877.951000	1146.220703	-18.671259
19430.927500	16877.951000	1145.088867	-42.110191
19430.927500	16877.951000	1143.957031	97.632401
19430.927500	16877.951000	1142.825195	122.133598
19430.927500	16877.951000	1141.692383	207.179230
19430.927500	16877.951000	1140.559570	2.697123
19430.927500	16877.951000	1139.426758	213.462631
19430.927500	16877.951000	1138.292969	105.901123
19430.927500	16877.951000	1137.159180	139.428848
19430.927500	16877.951000	1136.025391	98.959854
19430.927500	16877.951000	1134.891602	217.518509
19430.927500	16877.951000	1133.757813	246.837204
19430.927500	16877.951000	1132.623047	54.854813
19430.927500	16877.951000	1131.488281	43.946808
19430.927500	16877.951000	1130.353516	128.896393
19430.927500	16877.951000	1129.217773	248.821991
19430.927500	16877.951000	1128.083008	269.590179
19430.927500	16877.951000	1126.947266	256.857788
19430.927500	16877.951000	1125.811523	95.198723
19430.927500	16877.951000	1124.674805	118.132660
19430.927500	16877.951000	1123.539063	238.353668
19430.927500	16877.951000	1122.402344	358.639343
19430.927500	16877.951000	1121.265625	323.413391
19430.927500	16877.951000	1120.127930	324.483429
19430.927500	16877.951000	1118.990234	221.895401
19430.927500	16877.951000	1117.853516	279.977539
19430.927500	16877.951000	1116.714844	334.779388
19430.927500	16877.951000	1115.577148	329.154816
19430.927500	16877.951000	1114.439453	421.663422
19430.927500	16877.951000	1113.300781	227.488510
19430.927500	16877.951000	1112.162109	498.470215
19430.927500	16877.951000	1111.022461	276.448120
19430.927500	16877.951000	1109.883789	510.713013
19430.927500	16877.951000	1108.744141	358.183136
19430.927500	16877.951000	1107.604492	281.408752
19430.927500	16877.951000	1106.463867	406.447083
19430.927500	16877.951000	1105.324219	473.319702
19430.927500	16877.951000	1104.183594	240.753204
19430.927500	16877.951000	1103.042969	322.928833
19430.927500	16877.951000	1101.902344	313.257874
19430.927500	16877.951000	1100.760742	398.149841
19430.927500	16877.951000	1099.619141	381.138763
19430.927500	16877.951000	1098.477539	371.938538
19430.927500	16877.951000	1097.335938	412.858948
19430.927500	16877.951000	1096.193359	209.138474
19430.927500	16877.951000	1095.051758	428.472290
19430.927500	16877.951000	1093.909180	318.489655
19430.927500	16877.951000	1092.765625	345.573425
19430.927500	16877.951000	1091.623047	410.800842
19430.927500	16877.951000	1090.479492	398.788208
19430.927500	16877.951000	1089.335938	381.560120
19430.927500	16877.951000	1088.192383	218.559113
19430.927500	16877.951000	1087.047852	142.847656
19430.927500	16877.951000	1085.903320	130.585236
19430.927500	16877.951000	1084.758789	158.494644
19430.927500	16877.951000	1083.614258	129.162994
19430.927500	16877.951000	1082.469727	253.530899
19430.927500	16877.951000	1081.324219	341.312012
19430.927500	16877.951000	1080.178711	357.838837
19430.927500	16877.951000	1079.033203	197.179001
19430.927500	16877.951000	1077.886719	242.669067
19430.927500	16877.951000	1076.740234	259.647583
19430.927500	16877.951000	1075.593750	262.066833
19430.927500	16877.951000	1074.447266	465.489594
19430.927500	16877.951000	1073.300781	357.216797
19430.927500	16877.951000	1072.153320	368.877899
19430.927500	16877.951000	1071.005859	225.982483
19430.927500	16877.951000	1069.858398	192.251465
19430.927500	16877.951000	1068.709961	236.659882
19430.927500	16877.951000	1067.561523	240.231094
19430.927500	16877.951000	1066.413086	420.767120
19430.927500	16877.951000	1065.264648	321.907806
19430.927500	16877.951000	1064.116211	349.811584
19430.927500	16877.951000	1062.966797	370.816620
19430.927500	16877.951000	1061.817383	373.259979
19430.927500	16877.951000	1060.667969	231.582275
19430.927500	16877.951000	1059.517578	102.242714
19430.927500	16877.951000	1058.368164	99.700592
19430.927500	16877.951000	1057.217773	133.315369
19430.927500	16877.951000	1056.067383	106.469200
19430.927500	16877.951000	1054.916016	247.776382
19430.927500	16877.951000	1053.764648	276.716797
19430.927500	16877.951000	1052.613281	245.140305
19430.927500	16877.951000	1051.461914	332.467072
19430.927500	16877.951000	1050.310547	219.619263
19430.927500	16877.951000	1049.158203	83.940475
19430.927500	16877.951000	1048.005859	57.744785
19430.927500	16877.951000	1046.853516	-255.209747
19430.927500	16877.951000	1045.700195	-80.658684
19430.927500	16877.951000	1044.547852	103.455788
19430.927500	16877.951000	1043.394531	-123.870926
19430.927500	16877.951000	1042.240234	185.998077
19430.927500	16877.951000	1041.086914	104.576813
19430.927500	16877.951000	1039.932617	9.095884
19430.927500	16877.951000	1038.778320	-11.120649
19430.927500	16877.951000	1037.624023	266.406006
19430.927500	16877.951000	1036.469727	351.863617
19430.927500	16877.951000	1035.314453	346.803497
19430.927500	16877.951000	1034.159180	523.545898
19430.927500	16877.951000	1033.003906	665.435913
19430.927500	16877.951000	1031.847656	778.210205
19430.927500	16877.951000	1030.692383	668.314026
19430.927500	16877.951000	1029.536133	676.442383
19430.927500	16877.951000	1028.378906	638.011353
19430.927500	16877.951000	1027.222656	433.578796
19430.927500	16877.951000	1026.065430	571.551270
19430.927500	16877.951000	1024.908203	393.287415
19430.927500	16877.951000	1023.750977	214.368561
19430.927500	16877.951000	1022.593750	233.083084
19430.927500	16877.951000	1021.435547	355.159698
19430.927500	16877.951000	1020.277344	246.585999
19430.927500	16877.951000	1019.119141	227.477554
19430.927500	16877.951000	1017.959961	150.396942
19430.927500	16877.951000	1016.800781	333.360199
19430.927500	16877.951000	1015.641602	236.958435
19430.927500	16877.951000	1014.482422	292.374542
19430.927500	16877.951000	1013.323242	131.786560
19430.927500	16877.951000	1012.163086	333.924927
19430.927500	16877.951000	1011.002930	296.975739
19430.927500	16877.951000	1009.842773	178.982193
19430.927500	16877.951000	1008.681641	100.268494
19430.927500	16877.951000	1007.520508	341.552979
19430.927500	16877.951000	1006.359375	440.267578
19430.927500	16877.951000	1005.198242	354.713318
19430.927500	16877.951000	1004.037109	312.676697
19430.927500	16877.951000	1002.875000	391.887878
19430.927500	16877.951000	1001.712891	460.813477
19430.927500	16877.951000	1000.550781	556.758423
19430.927500	16877.951000	999.387695	296.329865
19430.927500	16877.951000	998.224609	423.796173
19430.927500	16877.951000	997.061523	114.468147
19430.927500	16877.951000	995.898438	178.160538
19430.927500	16877.951000	994.734375	138.909088
19430.927500	16877.951000	993.571289	281.582520
19430.927500	16877.951000	992.407227	155.899551
19430.927500	16877.951000	991.242188	118.625008
19430.927500	16877.951000	990.078125	-37.328335
19430.927500	16877.951000	988.913086	-22.230165
19430.927500	16877.951000	987.748047	-9.502391
19430.927500	16877.951000	986.583008	-148.737518
19430.927500	16877.951000	985.416992	-73.028862
19430.927500	16877.951000	984.250977	20.416584
19430.927500	16877.951000	983.084961	53.937943
19430.927500	16877.951000	981.918945	88.742493
19430.927500	16877.951000	980.751953	33.745632
19430.927500	16877.951000	979.584961	105.707230
19430.927500	16877.951000	978.417969	-253.271881
19430.927500	16877.951000	977.250977	-72.638733
19430.927500	16877.951000	976.083008	-113.460419
19430.927500	16877.951000	974.915039	7.815958
19430.927500	16877.951000	973.747070	-168.431442
19430.927500	16877.951000	972.579102	-186.748291
19430.927500	16877.951000	971.410156	-60.056240
19430.927500	16877.951000	970.242188	-141.724182
19430.927500	16877.951000	969.072266	-52.422924
19430.927500	16877.951000	967.903320	-133.767334
19430.927500	16877.951000	966.733398	-92.568878
19430.927500	16877.951000	965.563477	-16.475691
19430.927500	16877.951000	964.393555	32.663795
19430.927500	16877.951000	963.223633	-190.604309
19430.927500	16877.951000	962.052734	-5.132497
19430.927500	16877.951000	960.881836	-34.734890
19430.927500	16877.951000	959.710938	-213.402496
19430.927500	16877.951000	958.540039	-139.268921
19430.927500	16877.951000	957.368164	-350.474792
19430.927500	16877.951000	956.196289	-144.351791
19430.927500	16877.951000	955.024414	159.342484
19430.927500	16877.951000	953.851563	74.081566
19430.927500	16877.951000	952.679688	136.747009
19430.927500	16877.951000	951.506836	18.477125
19430.927500	16877.951000	950.333984	4.621952
19430.927500	16877.951000	949.160156	27.859074
19430.927500	16877.951000	947.986328	-61.813984
19430.927500	16877.951000	946.812500	160.418365
19430.927500	16877.951000	945.638672	-26.326527
19430.927500	16877.951000	944.464844	179.050110
19430.927500	16877.951000	943.290039	-67.023232
19430.927500	16877.951000	942.115234	158.831863
19430.927500	16877.951000	940.940430	144.889954
19430.927500	16877.951000	939.764648	-170.177383
19430.927500	16877.951000	938.588867	-11.279758
19430.927500	16877.951000	937.413086	173.937439
19430.927500	16877.951000	936.237305	177.944061
19430.927500	16877.951000	935.060547	80.327621
19430.927500	16877.951000	933.883789	200.311371
19430.927500	16877.951000	932.707031	133.218628
19430.927500	16877.951000	931.530273	-204.094025
19430.927500	16877.951000	930.352539	173.910080
19430.927500	16877.951000	929.175781	-63.870476
19430.927500	16877.951000	927.998047	181.979370
19430.927500	16877.951000	926.819336	94.513367
19430.927500	16877.951000	925.641602	108.619431
19430.927500	16877.951000	924.462891	43.538692
19430.927500	16877.951000	923.284180	-39.815140
19430.927500	16877.951000	922.104492	61.592556
19430.927500	16877.951000	920.924805	49.283909
19430.927500	16877.951000	919.746094	55.600430
19430.927500	16877.951000	919.551758	-59.413219
19430.927500	16877.951000	918.386719	100.664513
19430.927500	16877.951000	917.220703	-108.533821
19430.927500	16877.951000	916.054688	-181.771210
19430.927500	16877.951000	914.887695	-141.430145
19430.927500	16877.951000	913.721680	-196.408661
19430.927500	16877.951000	912.554688	-237.182709
19430.927500	16877.951000	911.387695	74.663437
19430.927500	16877.951000	910.220703	37.878830
19430.927500	16877.951000	909.052734	-169.056793
19430.927500	16877.951000	907.885742	-33.650749
19430.927500	16877.951000	906.717773	-80.546135
19430.927500	16877.951000	905.548828	129.677917
19430.927500	16877.951000	904.380859	52.383278
19430.927500	16877.951000	903.211914	-73.454086
19430.927500	16877.951000	902.042969	-162.834396
19430.927500	16877.951000	900.874023	-134.866074
19430.927500	16877.951000	899.704102	113.525200
19430.927500	16877.951000	898.535156	157.577393
19430.927500	16877.951000	897.365234	-75.353813
19430.927500	16877.951000	896.194336	275.922943
19430.927500	16877.951000	895.024414	45.058701
19430.927500	16877.951000	893.853516	137.537048
19430.927500	16877.951000	892.682617	-0.307244
19430.927500	16877.951000	891.511719	193.094131
19430.927500	16877.951000	890.340820	-100.202278
19430.927500	16877.951000	889.168945	34.577927
19430.927500	16877.951000	887.997070	34.064476
19430.927500	16877.951000	886.825195	-65.337448
19430.927500	16877.951000	885.653320	0.719728
19430.927500	16877.951000	884.480469	-5.871526
19430.927500	16877.951000	883.307617	108.525391
19430.927500	16877.951000	882.134766	-0.940223
19430.927500	16877.951000	880.961914	44.843834
19430.927500	16877.951000	879.788086	-38.385307
19430.927500	16877.951000	878.614258	-69.204895
19430.927500	16877.951000	877.440430	137.694534
19430.927500	16877.951000	876.266602	-50.280933
19430.927500	16877.951000	875.091797	33.667309
19430.927500	16877.951000	873.916992	41.060677
19430.927500	16877.951000	872.742188	-1.887111
19430.927500	16877.951000	871.567383	108.118713
19430.927500	16877.951000	870.391602	208.009476
19430.927500	16877.951000	869.215820	126.791992
19430.927500	16877.951000	868.040039	25.478767
19430.927500	16877.951000	866.864258	-9.448911
19430.927500	16877.951000	865.687500	-167.010971
19430.927500	16877.951000	864.510742	51.354118
19430.927500	16877.951000	863.333984	28.457693
19430.927500	16877.951000	862.157227	27.656004
19430.927500	16877.951000	860.979492	173.485687
19430.927500	16877.951000	859.802734	244.923645
19430.927500	16877.951000	858.625000	47.250355
19430.927500	16877.951000	857.446289	130.705795
19430.927500	16877.951000	856.268555	-28.762373
19430.927500	16877.951000	855.089844	68.686790
19430.927500	16877.951000	853.911133	270.408844
19430.927500	16877.951000	852.731445	70.847504
19430.927500	16877.951000	851.552734	-50.439087
19430.927500	16877.951000	850.373047	-105.521286
19430.927500	16877.951000	849.193359	-46.332558
19430.927500	16877.951000	848.013672	58.912022
19430.927500	16877.951000	846.833008	-222.648621
19430.927500	16877.951000	845.652344	-91.401047
19430.927500	16877.951000	844.471680	59.802952
19430.927500	16877.951000	843.291016	36.696495
19430.927500	16877.951000	842.110352	-150.604477
19430.927500	16877.951000	840.928711	-185.706253
19430.927500	16877.951000	839.747070	-44.691601
19430.927500	16877.951000	838.564453	132.266739
19430.927500	16877.951000	837.382813	49.050491
19430.927500	16877.951000	836.200195	-46.150414
19430.927500	16877.951000	835.017578	32.644791
19430.927500	16877.951000	833.834961	83.393814
19430.927500	16877.951000	832.651367	102.121063
19430.927500	16877.951000	831.467773	-117.006126
19430.927500	16877.951000	830.284180	95.523666
19430.927500	16877.951000	829.100586	68.218918
19430.927500	16877.951000	827.916992	-200.769318
19430.927500	16877.951000	826.732422	-66.299576
19430.927500	16877.951000	825.547852	52.117847
19430.927500	16877.951000	824.363281	-3.194134
19430.927500	16877.951000	823.177734	-24.579477
19430.927500	16877.951000	821.992188	-41.990818
19430.927500	16877.951000	820.806641	76.225807
19430.927500	16877.951000	819.621094	104.618904
19430.927500	16877.951000	818.434570	33.277996
19430.927500	16877.951000	817.249023	13.769080
19430.927500	16877.951000	816.062500	-33.661083
19430.927500	16877.951000	814.875000	-59.175014
19430.927500	16877.951000	813.688477	122.493607
19430.927500	16877.951000	812.500977	186.537674
19430.927500	16877.951000	811.313477	33.451027
19430.927500	16877.951000	810.125977	79.508705
19430.927500	16877.951000	808.937500	187.232651
19430.927500	16877.951000	807.749023	113.766190
19430.927500	16877.951000	806.560547	245.256409
19430.927500	16877.951000	805.372070	269.230286
19430.927500	16877.951000	804.182617	215.593491
19430.927500	16877.951000	802.994141	98.307060
19430.927500	16877.951000	801.803711	146.067032
19430.927500	16877.951000	800.614258	390.565338
19430.927500	16877.951000	799.424805	231.484894
19430.927500	16877.951000	798.234375	183.713638
19430.927500	16877.951000	797.043945	525.298401
19430.927500	16877.951000	795.852539	346.333069
19430.927500	16877.951000	794.662109	495.055511
19430.927500	16877.951000	793.470703	540.446838
19430.927500	16877.951000	792.279297	526.234619
19430.927500	16877.951000	791.087891	525.885315
19430.927500	16877.951000	789.895508	392.566956
19430.927500	16877.951000	788.703125	419.947601
19430.927500	16877.951000	787.510742	235.066956
19430.927500	16877.951000	786.318359	155.319199
19430.927500	16877.951000	785.125000	79.535248
19430.927500	16877.951000	783.931641	102.847244
19430.927500	16877.951000	782.738281	294.550720
19430.927500	16877.951000	781.544922	462.362122
19430.927500	16877.951000	780.350586	368.597595
19430.927500	16877.951000	779.156250	213.439209
19430.927500	16877.951000	777.961914	394.906158
19430.927500	16877.951000	776.767578	368.400391
19430.927500	16877.951000	775.572266	391.347321
19430.927500	16877.951000	774.376953	129.299316
19430.927500	16877.951000	773.181641	373.780396
19430.927500	16877.951000	771.986328	256.151581
19430.927500	16877.951000	770.790039	85.139832
19430.927500	16877.951000	769.593750	222.587708
19430.927500	16877.951000	768.397461	118.775139
19430.927500	16877.951000	767.201172	70.299438
19430.927500	16877.951000	766.003906	124.549591
19430.927500	16877.951000	764.806641	117.492302
19430.927500	16877.951000	763.609375	-98.964554
19430.927500	16877.951000	762.412109	-68.542999
19430.927500	16877.951000	761.213867	184.913422
19430.927500	16877.951000	760.015625	90.821739
19430.927500	16877.951000	758.817383	20.405291
19430.927500	16877.951000	757.618164	127.545982
19430.927500	16877.951000	756.419922	27.468250
19430.927500	16877.951000	755.220703	93.052437
19430.927500	16877.951000	754.021484	172.363251
19430.927500	16877.951000	752.821289	-61.852264
19430.927500	16877.951000	751.621094	9.481421
19430.927500	16877.951000	750.420898	-19.761953
19430.927500	16877.951000	749.220703	41.584320
19430.927500	16877.951000	748.020508	-54.722229
19430.927500	16877.951000	746.819336	118.761536
19430.927500	16877.951000	745.618164	99.168999
19430.927500	16877.951000	744.416992	288.196198
19430.927500	16877.951000	743.214844	278.318359
19430.927500	16877.951000	742.012695	276.265717
19430.927500	16877.951000	740.810547	240.718674
19430.927500	16877.951000	739.608398	256.273682
19430.927500	16877.951000	738.406250	393.690247
19430.927500	16877.951000	737.203125	271.482544
19430.927500	16877.951000	736.000000	516.845825
19430.927500	16877.951000	734.795898	689.343018
19430.927500	16877.951000	733.592773	594.500000
19430.927500	16877.951000	732.388672	548.755249
19430.927500	16877.951000	731.184570	394.958466
19430.927500	16877.951000	729.979492	419.858063
19430.927500	16877.951000	728.775391	397.576904
19430.927500	16877.951000	727.570313	269.264130
19430.927500	16877.951000	726.365234	225.332184
19430.927500	16877.951000	725.160156	149.973328
19430.927500	16877.951000	723.954102	141.284286
19430.927500	16877.951000	722.748047	146.272461
19430.927500	16877.951000	721.541992	174.732620
19430.927500	16877.951000	720.334961	44.343452
19430.927500	16877.951000	719.128906	-37.050636
19430.927500	16877.951000	717.921875	-85.153732
19430.927500	16877.951000	716.714844	-86.273621
19430.927500	16877.951000	715.506836	-144.249344
19430.927500	16877.951000	714.298828	-69.095634
19430.927500	16877.951000	713.090820	117.567337
19430.927500	16877.951000	711.882813	-91.302467
19430.927500	16877.951000	710.674805	-145.536148
19430.927500	16877.951000	709.465820	-150.887970
19430.927500	16877.951000	708.256836	-62.396793
19430.927500	16877.951000	707.047852	-187.177856
19430.927500	16877.951000	705.837891	-124.247231
19430.927500	16877.951000	704.627930	-284.263733
19430.927500	16877.951000	703.417969	-160.860153
19430.927500	16877.951000	702.208008	-18.022799
19430.927500	16877.951000	700.998047	-228.926422
19430.927500	16877.951000	699.787109	-256.184937
19430.927500	16877.951000	698.576172	-273.723450
19430.927500	16877.951000	697.364258	-164.399094
19430.927500	16877.951000	696.153320	-141.067749
19430.927500	16877.951000	694.941406	-70.962326
19430.927500	16877.951000	693.729492	-24.357321
19430.927500	16877.951000	692.516602	-51.960594
19430.927500	16877.951000	691.304688	-108.863914
19430.927500	16877.951000	690.091797	-54.648167
19430.927500	16877.951000	688.878906	124.266853
19430.927500	16877.951000	687.665039	28.210287
19430.927500	16877.951000	686.451172	-42.525642
19430.927500	16877.951000	685.237305	122.468452
19430.927500	16877.951000	684.023438	139.291412
19430.927500	16877.951000	682.809570	130.734482
19430.927500	16877.951000	681.594727	371.362976
19430.927500	16877.951000	680.379883	164.081680
19430.927500	16877.951000	679.165039	215.698517
19430.927500	16877.951000	677.949219	411.237701
19430.927500	16877.951000	676.733398	365.395172
19430.927500	16877.951000	675.517578	533.482849
19430.927500	16877.951000	674.301758	349.453125
19430.927500	16877.951000	673.084961	669.021545
19430.927500	16877.951000	671.869141	797.901611
19430.927500	16877.951000	670.651367	753.704895
19430.927500	16877.951000	669.434570	1065.055908
19430.927500	16877.951000	668.216797	1078.997437
19430.927500	16877.951000	667.000000	1112.305054
19430.927500	16877.951000	665.781250	1077.581909
19430.927500	16877.951000	664.563477	1106.890625
19430.927500	16877.951000	663.344727	1009.969116
19430.927500	16877.951000	662.125977	1062.467163
19430.927500	16877.951000	660.907227	823.862732
19430.927500	16877.951000	659.688477	750.192505
19430.927500	16877.951000	658.468750	880.139404
19430.927500	16877.951000	657.249023	767.612183
19430.927500	16877.951000	656.029297	914.851685
19430.927500	16877.951000	654.808594	854.599365
19430.927500	16877.951000	653.587891	654.808167
19430.927500	16877.951000	652.367188	482.178772
19430.927500	16877.951000	651.146484	605.926636
19430.927500	16877.951000	649.924805	584.337158
19430.927500	16877.951000	648.704102	584.011292
19430.927500	16877.951000	647.482422	568.154907
19430.927500	16877.951000	646.259766	743.854431
19430.927500	16877.951000	645.037109	807.214539
19430.927500	16877.951000	643.815430	613.223694
19430.927500	16877.951000	642.591797	556.588928
19430.927500	16877.951000	641.369141	457.398590
19430.927500	16877.951000	640.145508	394.941193
19430.927500	16877.951000	638.921875	390.455414
19430.927500	16877.951000	637.698242	389.798370
19430.927500	16877.951000	636.474609	352.396606
19430.927500	16877.951000	635.250000	185.553864
19430.927500	16877.951000	634.025391	316.150482
19430.927500	16877.951000	632.800781	228.476364
19430.927500	16877.951000	631.575195	15.330269
19430.927500	16877.951000	630.349609	147.704025
19430.927500	16877.951000	629.124023	214.383636
19430.927500	16877.951000	627.898438	144.033981
19430.927500	16877.951000	626.671875	145.043640
19430.927500	16877.951000	625.445313	26.466148
19430.927500	16877.951000	624.218750	175.890244
19430.927500	16877.951000	622.992188	70.791435
19430.927500	16877.951000	621.764648	295.241852
19430.927500	16877.951000	620.537109	284.512909
19430.927500	16877.951000	619.309570	144.700241
19430.927500	16877.951000	618.081055	241.803696
19430.927500	16877.951000	616.852539	311.885803
19430.927500	16877.951000	615.624023	120.105736
19430.927500	16877.951000	614.395508	138.171448
19430.927500	16877.951000	613.166992	-9.276441
19430.927500	16877.951000	611.937500	6.840978
19430.927500	16877.951000	610.708008	69.095154
19430.927500	16877.951000	609.477539	-9.078570
19430.927500	16877.951000	608.248047	-102.616280
19430.927500	16877.951000	607.017578	-132.699066
19430.927500	16877.951000	605.787109	8.254394
19430.927500	16877.951000	604.555664	-50.692657
19430.927500	16877.951000	603.325195	-65.443970
19430.927500	16877.951000	602.093750	52.315422
19430.927500	16877.951000	600.861328	104.726173
19430.927500	16877.951000	599.629883	109.112129
19430.927500	16877.951000	598.397461	136.516739
19430.927500	16877.951000	597.165039	175.413986
19430.927500	16877.951000	595.932617	-129.127701
19430.927500	16877.951000	594.699219	19.126787
19430.927500	16877.951000	593.465820	46.497166
19430.927500	16877.951000	592.232422	123.701279
19430.927500	16877.951000	590.999023	-44.492233
19430.927500	16877.951000	589.764648	-88.047485
19430.927500	16877.951000	588.530273	-35.781467
19430.927500	16877.951000	587.295898	52.859604
19430.927500	16877.951000	586.061523	-19.418148
19430.927500	16877.951000	584.826172	-116.557335
19430.927500	16877.951000	583.590820	0.764679
19430.927500	16877.951000	582.355469	41.479595
19430.927500	16877.951000	581.119141	103.229767
19430.927500	16877.951000	579.882813	-129.675858
19430.927500	16877.951000	578.646484	-131.024368
19430.927500	16877.951000	577.410156	-117.064720
19430.927500	16877.951000	576.172852	-32.360626
19430.927500	16877.951000	574.935547	2.616522
19430.927500	16877.951000	573.698242	-0.634238
19430.927500	16877.951000	572.460938	112.686897
19430.927500	16877.951000	571.222656	-20.467163
19430.927500	16877.951000	569.984375	89.014137
19430.927500	16877.951000	568.746094	81.982330
19430.927500	16877.951000	567.506836	191.424500
19430.927500	16877.951000	566.267578	87.058533
19430.927500	16877.951000	565.028320	385.411713
19430.927500	16877.951000	563.789063	279.178253
19430.927500	16877.951000	562.548828	224.510300
19430.927500	16877.951000	561.309570	135.560242
19430.927500	16877.951000	560.068359	187.760330
19430.927500	16877.951000	558.828125	68.397713
19430.927500	16877.951000	557.586914	-201.458588
19430.927500	16877.951000	556.345703	-72.930801
19430.927500	16877.951000	555.104492	-22.541649
19430.927500	16877.951000	553.863281	-109.284576
19430.927500	16877.951000	552.621094	-108.370773
19430.927500	16877.951000	551.378906	-126.469543
19430.927500	16877.951000	550.136719	-76.008987
19430.927500	16877.951000	548.893555	-185.398560
19430.927500	16877.951000	547.650391	-94.938606
19430.927500	16877.951000	546.407227	-101.500671
19430.927500	16877.951000	545.164063	-85.208321
19430.927500	16877.951000	543.919922	48.990860
19430.927500	16877.951000	542.675781	-227.450775
19430.927500	16877.951000	541.431641	24.618492
19430.927500	16877.951000	540.186523	12.484428
19430.927500	16877.951000	538.941406	-73.703552
19430.927500	16877.951000	537.696289	147.873123
19430.927500	16877.951000	536.451172	76.947052
19430.927500	16877.951000	535.205078	-88.845520
19430.927500	16877.951000	533.959961	54.863834
19430.927500	16877.951000	532.712891	-61.448959
19430.927500	16877.951000	531.466797	10.156145
19430.927500	16877.951000	530.219727	115.905586
19430.927500	16877.951000	528.972656	121.126862
19430.927500	16877.951000	527.725586	1.233819
19430.927500	16877.951000	526.478516	72.889252
19430.927500	16877.951000	525.230469	45.987957
19430.927500	16877.951000	523.982422	147.981094
19430.927500	16877.951000	522.734375	200.705109
19430.927500	16877.951000	521.485352	52.661102
19430.927500	16877.951000	520.236328	173.611465
19430.927500	16877.951000	518.987305	-27.316587
19430.927500	16877.951000	517.737305	-61.560566
19430.927500	16877.951000	516.488281	82.128128
19430.927500	16877.951000	515.238281	208.752060
19430.927500	16877.951000	513.988281	244.546707
19430.927500	16877.951000	512.737305	337.085052
19430.927500	16877.951000	511.486328	297.249847
19430.927500	16877.951000	510.235352	98.656006
19430.927500	16877.951000	508.984375	359.441742
19430.927500	16877.951000	507.732422	334.800812
19430.927500	16877.951000	506.480469	544.448547
19430.927500	16877.951000	505.228516	642.582397
19430.927500	16877.951000	503.976563	429.102966
19430.927500	16877.951000	502.723633	568.778748
19430.927500	16877.951000	501.470703	759.367615
19430.927500	16877.951000	500.217773	670.580200
19430.927500	16877.951000	498.963867	762.965088
19430.927500	16877.951000	497.709961	787.403687
19430.927500	16877.951000	496.456055	947.619080
19430.927500	16877.951000	495.202148	885.269714
19430.927500	16877.951000	493.947266	922.852905
19430.927500	16877.951000	492.692383	1103.650879
19430.927500	16877.951000	491.437500	860.386047
19430.927500	16877.951000	490.181641	1046.744873
19430.927500	16877.951000	488.926758	1101.159424
19430.927500	16877.951000	487.670898	1161.178101
19430.927500	16877.951000	486.414063	1275.743408
19430.927500	16877.951000	485.158203	1211.413330
19430.927500	16877.951000	483.901367	1339.029297
19430.927500	16877.951000	482.644531	1099.663696
19430.927500	16877.951000	481.386719	1356.965088
19430.927500	16877.951000	480.128906	1516.314209
19430.927500	16877.951000	478.871094	1500.679077
19430.927500	16877.951000	477.613281	1515.072388
19430.927500	16877.951000	476.355469	1550.075195
19430.927500	16877.951000	475.096680	1878.127075
19430.927500	16877.951000	473.837891	1508.989014
19430.927500	16877.951000	472.578125	1521.215088
19430.927500	16877.951000	471.319336	1439.463867
19430.927500	16877.951000	470.059570	1455.284058
19430.927500	16877.951000	468.799805	1559.223511
19430.927500	16877.951000	467.539063	1584.198120
19430.927500	16877.951000	466.278320	1278.839600
19430.927500	16877.951000	465.017578	1483.720215
19430.927500	16877.951000	463.756836	1463.340820
19430.927500	16877.951000	462.495117	1549.715576
19430.927500	16877.951000	461.233398	1568.430542
19430.927500	16877.951000	459.971680	1482.038696
19430.927500	16877.951000	458.709961	1579.163818
19430.927500	16877.951000	457.447266	1608.640991
19430.927500	16877.951000	456.184570	1540.541992
19430.927500	16877.951000	454.921875	1532.216675
19430.927500	16877.951000	453.658203	1574.253418
19430.927500	16877.951000	452.394531	1657.253418
19430.927500	16877.951000	451.130859	1715.684448
19430.927500	16877.951000	449.867188	1496.972290
19430.927500	16877.951000	448.602539	1670.939941
19430.927500	16877.951000	447.337891	1550.982056
19430.927500	16877.951000	446.073242	1629.020264
19430.927500	16877.951000	444.807617	1351.588135
19430.927500	16877.951000	443.542969	1687.018799
19430.927500	16877.951000	442.276367	1668.860229
19430.927500	16877.951000	441.010742	1603.716553
19430.927500	16877.951000	439.744141	1715.722168
19430.927500	16877.951000	438.478516	1814.293335
19430.927500	16877.951000	437.210938	1871.404907
19430.927500	16877.951000	435.944336	1885.219849
19430.927500	16877.951000	434.676758	1792.293945
19430.927500	16877.951000	433.409180	1954.634644
19430.927500	16877.951000	432.141602	1717.340576
19430.927500	16877.951000	430.873047	1850.850830
19430.927500	16877.951000	429.604492	1933.540649
19430.927500	16877.951000	428.335938	1939.329956
19430.927500	16877.951000	427.067383	1948.392334
19430.927500	16877.951000	425.797852	1970.015381
19430.927500	16877.951000	424.528320	1920.352173
19430.927500	16877.951000	423.258789	1907.455933
19430.927500	16877.951000	421.988281	1642.653809
19430.927500	16877.951000	420.717773	1608.270630
19430.927500	16877.951000	419.447266	1802.278198
19430.927500	16877.951000	418.175781	1668.100586
19430.927500	16877.951000	416.905273	1706.413940
19430.927500	16877.951000	415.633789	1749.660034
19430.927500	16877.951000	414.362305	1636.036865
19430.927500	16877.951000	413.089844	1741.179443
19430.927500	16877.951000	411.817383	1854.885132
19430.927500	16877.951000	410.544922	1676.061646
19430.927500	16877.951000	409.272461	1674.957153
19430.927500	16877.951000	407.999023	1719.527100
19430.927500	16877.951000	406.725586	1813.444458
19430.927500	16877.951000	405.452148	1572.292847
19430.927500	16877.951000	404.177734	1822.353149
19430.927500	16877.951000	402.903320	1514.648193
19430.927500	16877.951000	401.628906	1547.630005
19430.927500	16877.951000	400.354492	1648.335815
19430.927500	16877.951000	399.079102	1525.468384
19430.927500	16877.951000	397.803711	1436.926636
19430.927500	16877.951000	396.528320	1527.271851
19430.927500	16877.951000	395.251953	1436.737305
19430.927500	16877.951000	393.976563	1547.213379
19430.927500	16877.951000	392.700195	1695.448364
19430.927500	16877.951000	391.422852	1590.558105
19430.927500	16877.951000	390.145508	1804.962769
19430.927500	16877.951000	388.869141	1707.057251
19430.927500	16877.951000	387.590820	1754.175659
19430.927500	16877.951000	386.313477	1679.756226
19430.927500	16877.951000	385.035156	1626.266479
19430.927500	16877.951000	383.756836	1639.934204
19430.927500	16877.951000	382.478516	1478.385498
19430.927500	16877.951000	381.199219	1581.767822
19430.927500	16877.951000	379.919922	1456.280518
19430.927500	16877.951000	378.640625	1431.042603
19430.927500	16877.951000	377.360352	1679.624512
19430.927500	16877.951000	376.080078	1300.227661
19430.927500	16877.951000	374.799805	1416.296387
19430.927500	16877.951000	373.519531	1405.107544
19430.927500	16877.951000	372.238281	1266.661133
19430.927500	16877.951000	370.957031	1335.152100
19430.927500	16877.951000	369.675781	1320.649414
19430.927500	16877.951000	368.394531	1245.304565
19430.927500	16877.951000	367.112305	1168.097900
19430.927500	16877.951000	365.830078	1266.082520
19430.927500	16877.951000	364.546875	1245.860107
19430.927500	16877.951000	363.264648	1420.957886
19430.927500	16877.951000	361.981445	1217.882324
19430.927500	16877.951000	360.698242	1132.576172
19430.927500	16877.951000	359.414063	1262.499268
19430.927500	16877.951000	358.129883	1224.385498
19430.927500	16877.951000	356.845703	1088.271484
19430.927500	16877.951000	355.561523	1030.913086
19430.927500	16877.951000	354.276367	776.033020
19430.927500	16877.951000	352.991211	800.406616
19430.927500	16877.951000	351.706055	796.525330
19430.927500	16877.951000	350.420898	963.018066
19430.927500	16877.951000	349.134766	803.077026
19430.927500	16877.951000	347.848633	945.766663
19430.927500	16877.951000	346.561523	1015.733765
19430.927500	16877.951000	345.275391	867.910461
19430.927500	16877.951000	343.988281	1029.595581
19430.927500	16877.951000	342.700195	947.538879
19430.927500	16877.951000	341.413086	746.887695
19430.927500	16877.951000	340.125000	915.950745
19430.927500	16877.951000	338.836914	1032.234497
19430.927500	16877.951000	337.548828	1002.089905
19430.927500	16877.951000	336.259766	717.175720
19430.927500	16877.951000	334.970703	618.006653
19430.927500	16877.951000	333.681641	561.308472
19430.927500	16877.951000	332.391602	308.466827
19430.927500	16877.951000	331.101563	417.018311
19430.927500	16877.951000	329.811523	402.701447
19430.927500	16877.951000	328.521484	402.972198
19430.927500	16877.951000	327.230469	157.436874
19430.927500	16877.951000	325.939453	226.847260
19430.927500	16877.951000	324.648438	149.367004
19430.927500	16877.951000	323.356445	-97.085678
19430.927500	16877.951000	322.064453	69.795090
19430.927500	16877.951000	320.772461	65.774025
19430.927500	16877.951000	319.480469	130.592896
19430.927500	16877.951000	318.187500	-145.830429
19430.927500	16877.951000	316.894531	-174.263748
19430.927500	16877.951000	315.601563	-115.893776
19430.927500	16877.951000	314.307617	-60.606907
19430.927500	16877.951000	313.013672	9.916334
19430.927500	16877.951000	311.719727	-43.326172
19430.927500	16877.951000	310.425781	-10.236580
19430.927500	16877.951000	309.130859	-33.621243
19430.927500	16877.951000	307.835938	-14.775994
19430.927500	16877.951000	306.541016	-156.512421
19430.927500	16877.951000	305.245117	2.849770
19430.927500	16877.951000	303.949219	-86.195763
19430.927500	16877.951000	302.653320	-40.411255
19430.927500	16877.951000	301.356445	223.738373
19430.927500	16877.951000	300.060547	279.554657
19430.927500	16877.951000	298.763672	381.976898
