#X		#Y		#Wave		#Intensity
19348.183830	16856.394000	2000.043945	85.051193
19348.183830	16856.394000	1999.080078	51.333214
19348.183830	16856.394000	1998.116211	-171.519608
19348.183830	16856.394000	1997.151367	-3.131381
19348.183830	16856.394000	1996.186523	511.664703
19348.183830	16856.394000	1995.222656	-2.193552
19348.183830	16856.394000	1994.256836	239.214508
19348.183830	16856.394000	1993.291992	103.744766
19348.183830	16856.394000	1992.327148	-126.115494
19348.183830	16856.394000	1991.361328	428.478638
19348.183830	16856.394000	1990.395508	279.648224
19348.183830	16856.394000	1989.429688	-309.912811
19348.183830	16856.394000	1988.463867	-149.940353
19348.183830	16856.394000	1987.497070	239.716965
19348.183830	16856.394000	1986.531250	47.738815
19348.183830	16856.394000	1985.564453	162.167374
19348.183830	16856.394000	1984.597656	71.081474
19348.183830	16856.394000	1983.630859	93.455139
19348.183830	16856.394000	1982.664063	192.172348
19348.183830	16856.394000	1981.696289	421.565247
19348.183830	16856.394000	1980.728516	161.494308
19348.183830	16856.394000	1979.761719	-340.776764
19348.183830	16856.394000	1978.792969	-168.907822
19348.183830	16856.394000	1977.825195	-165.226654
19348.183830	16856.394000	1976.857422	206.050644
19348.183830	16856.394000	1975.888672	448.656097
19348.183830	16856.394000	1974.919922	7.446712
19348.183830	16856.394000	1973.951172	-73.585777
19348.183830	16856.394000	1972.982422	360.765045
19348.183830	16856.394000	1972.013672	284.264008
19348.183830	16856.394000	1971.043945	419.696106
19348.183830	16856.394000	1970.075195	165.378845
19348.183830	16856.394000	1969.105469	204.327942
19348.183830	16856.394000	1968.135742	-72.329872
19348.183830	16856.394000	1967.165039	538.001648
19348.183830	16856.394000	1966.195313	-12.347636
19348.183830	16856.394000	1965.224609	368.409637
19348.183830	16856.394000	1964.253906	51.993973
19348.183830	16856.394000	1963.283203	319.090698
19348.183830	16856.394000	1962.312500	556.431885
19348.183830	16856.394000	1961.341797	-134.293442
19348.183830	16856.394000	1960.370117	240.637924
19348.183830	16856.394000	1959.399414	152.787079
19348.183830	16856.394000	1958.427734	111.622345
19348.183830	16856.394000	1957.455078	399.941223
19348.183830	16856.394000	1956.483398	257.750305
19348.183830	16856.394000	1955.511719	189.283752
19348.183830	16856.394000	1954.539063	81.447098
19348.183830	16856.394000	1953.566406	366.784821
19348.183830	16856.394000	1952.593750	497.144867
19348.183830	16856.394000	1951.621094	219.597748
19348.183830	16856.394000	1950.647461	121.399803
19348.183830	16856.394000	1949.674805	185.245361
19348.183830	16856.394000	1948.701172	-131.536819
19348.183830	16856.394000	1947.727539	-325.515778
19348.183830	16856.394000	1946.753906	273.284607
19348.183830	16856.394000	1945.780273	633.789612
19348.183830	16856.394000	1944.805664	-38.760906
19348.183830	16856.394000	1943.831055	39.508984
19348.183830	16856.394000	1942.856445	-78.483543
19348.183830	16856.394000	1941.881836	188.506699
19348.183830	16856.394000	1940.907227	23.892746
19348.183830	16856.394000	1939.932617	-23.037455
19348.183830	16856.394000	1938.957031	-13.591784
19348.183830	16856.394000	1937.981445	191.843658
19348.183830	16856.394000	1937.005859	328.595612
19348.183830	16856.394000	1936.030273	117.475090
19348.183830	16856.394000	1935.054688	445.167999
19348.183830	16856.394000	1934.078125	420.170593
19348.183830	16856.394000	1933.101563	838.248840
19348.183830	16856.394000	1932.125000	260.041443
19348.183830	16856.394000	1931.148438	-29.211288
19348.183830	16856.394000	1930.171875	70.648796
19348.183830	16856.394000	1929.194336	-22.761391
19348.183830	16856.394000	1928.217773	-191.963272
19348.183830	16856.394000	1927.240234	328.458588
19348.183830	16856.394000	1926.262695	-175.660080
19348.183830	16856.394000	1925.284180	-105.163597
19348.183830	16856.394000	1924.306641	-337.737762
19348.183830	16856.394000	1923.328125	135.934937
19348.183830	16856.394000	1922.350586	-157.651764
19348.183830	16856.394000	1921.372070	120.432831
19348.183830	16856.394000	1920.392578	-148.579620
19348.183830	16856.394000	1919.414063	-7.301116
19348.183830	16856.394000	1918.434570	87.562187
19348.183830	16856.394000	1917.456055	-12.851902
19348.183830	16856.394000	1916.476563	-193.733978
19348.183830	16856.394000	1915.497070	167.094604
19348.183830	16856.394000	1914.516602	164.359238
19348.183830	16856.394000	1913.537109	195.779404
19348.183830	16856.394000	1912.556641	510.066742
19348.183830	16856.394000	1911.576172	192.837112
19348.183830	16856.394000	1910.595703	234.052002
19348.183830	16856.394000	1909.615234	-238.936508
19348.183830	16856.394000	1908.633789	106.963943
19348.183830	16856.394000	1907.653320	-44.215202
19348.183830	16856.394000	1906.671875	-39.426453
19348.183830	16856.394000	1905.690430	67.664368
19348.183830	16856.394000	1904.708984	203.952057
19348.183830	16856.394000	1903.727539	-32.235065
19348.183830	16856.394000	1902.745117	-61.425861
19348.183830	16856.394000	1901.762695	196.557327
19348.183830	16856.394000	1900.780273	-253.508087
19348.183830	16856.394000	1899.797852	121.217804
19348.183830	16856.394000	1898.815430	-14.893922
19348.183830	16856.394000	1897.832031	233.264481
19348.183830	16856.394000	1896.849609	160.438339
19348.183830	16856.394000	1895.866211	-167.543594
19348.183830	16856.394000	1894.882813	-19.062708
19348.183830	16856.394000	1893.898438	-290.948822
19348.183830	16856.394000	1892.915039	71.320473
19348.183830	16856.394000	1891.930664	-115.430023
19348.183830	16856.394000	1890.947266	-370.088226
19348.183830	16856.394000	1889.962891	47.909027
19348.183830	16856.394000	1888.977539	96.811440
19348.183830	16856.394000	1887.993164	-155.245697
19348.183830	16856.394000	1887.007813	238.289078
19348.183830	16856.394000	1886.023438	325.996216
19348.183830	16856.394000	1885.038086	360.337402
19348.183830	16856.394000	1884.051758	295.261383
19348.183830	16856.394000	1883.066406	-48.624184
19348.183830	16856.394000	1882.081055	179.764725
19348.183830	16856.394000	1881.094727	114.816917
19348.183830	16856.394000	1880.108398	-61.568455
19348.183830	16856.394000	1879.122070	62.572857
19348.183830	16856.394000	1878.135742	0.154281
19348.183830	16856.394000	1877.148438	56.463013
19348.183830	16856.394000	1876.162109	-27.694464
19348.183830	16856.394000	1875.174805	110.944359
19348.183830	16856.394000	1874.187500	-253.952042
19348.183830	16856.394000	1873.199219	320.352722
19348.183830	16856.394000	1872.211914	-308.174866
19348.183830	16856.394000	1871.223633	-167.104309
19348.183830	16856.394000	1870.236328	-96.238754
19348.183830	16856.394000	1869.248047	-347.022675
19348.183830	16856.394000	1868.258789	26.132969
19348.183830	16856.394000	1867.270508	-135.114075
19348.183830	16856.394000	1866.282227	-98.101723
19348.183830	16856.394000	1865.292969	112.910278
19348.183830	16856.394000	1864.303711	89.484703
19348.183830	16856.394000	1863.314453	155.452728
19348.183830	16856.394000	1862.324219	100.648323
19348.183830	16856.394000	1861.334961	137.619720
19348.183830	16856.394000	1860.344727	-187.558075
19348.183830	16856.394000	1859.354492	153.611267
19348.183830	16856.394000	1858.364258	38.521389
19348.183830	16856.394000	1857.374023	-98.242691
19348.183830	16856.394000	1856.383789	-25.072493
19348.183830	16856.394000	1855.392578	110.791664
19348.183830	16856.394000	1854.401367	388.889038
19348.183830	16856.394000	1853.410156	-13.066452
19348.183830	16856.394000	1852.418945	-87.021042
19348.183830	16856.394000	1851.426758	347.616943
19348.183830	16856.394000	1850.435547	516.993408
19348.183830	16856.394000	1849.443359	281.546448
19348.183830	16856.394000	1848.451172	446.049805
19348.183830	16856.394000	1847.458984	355.190002
19348.183830	16856.394000	1846.466797	329.368439
19348.183830	16856.394000	1845.473633	368.555603
19348.183830	16856.394000	1844.480469	366.798676
19348.183830	16856.394000	1843.487305	263.952118
19348.183830	16856.394000	1842.494141	117.815842
19348.183830	16856.394000	1841.500977	549.088074
19348.183830	16856.394000	1840.506836	285.075226
19348.183830	16856.394000	1839.513672	290.470306
19348.183830	16856.394000	1838.519531	199.683884
19348.183830	16856.394000	1837.525391	445.454590
19348.183830	16856.394000	1836.530273	126.315247
19348.183830	16856.394000	1835.536133	367.158356
19348.183830	16856.394000	1834.541016	557.448914
19348.183830	16856.394000	1833.545898	396.937469
19348.183830	16856.394000	1832.550781	3.509789
19348.183830	16856.394000	1831.555664	525.047791
19348.183830	16856.394000	1830.560547	246.925583
19348.183830	16856.394000	1829.564453	48.101673
19348.183830	16856.394000	1828.568359	-193.872543
19348.183830	16856.394000	1827.572266	336.806763
19348.183830	16856.394000	1826.576172	421.064484
19348.183830	16856.394000	1825.580078	198.255264
19348.183830	16856.394000	1824.583008	-46.072701
19348.183830	16856.394000	1823.585938	273.085327
19348.183830	16856.394000	1822.588867	139.037064
19348.183830	16856.394000	1821.591797	141.613770
19348.183830	16856.394000	1820.594727	184.888824
19348.183830	16856.394000	1819.596680	362.285309
19348.183830	16856.394000	1818.599609	503.642120
19348.183830	16856.394000	1817.601563	510.802338
19348.183830	16856.394000	1816.603516	393.419373
19348.183830	16856.394000	1815.604492	592.045105
19348.183830	16856.394000	1814.606445	225.690659
19348.183830	16856.394000	1813.607422	450.519135
19348.183830	16856.394000	1812.608398	-25.804089
19348.183830	16856.394000	1811.609375	110.396027
19348.183830	16856.394000	1810.610352	299.118774
19348.183830	16856.394000	1809.610352	327.525238
19348.183830	16856.394000	1808.611328	95.271599
19348.183830	16856.394000	1807.611328	286.157257
19348.183830	16856.394000	1806.611328	510.386932
19348.183830	16856.394000	1805.610352	251.828644
19348.183830	16856.394000	1804.610352	76.928024
19348.183830	16856.394000	1803.609375	396.476349
19348.183830	16856.394000	1802.608398	286.006714
19348.183830	16856.394000	1801.607422	-352.133820
19348.183830	16856.394000	1800.606445	0.589304
19348.183830	16856.394000	1799.605469	174.128662
19348.183830	16856.394000	1798.603516	400.055084
19348.183830	16856.394000	1797.601563	29.394194
19348.183830	16856.394000	1796.599609	-219.526443
19348.183830	16856.394000	1795.597656	278.070038
19348.183830	16856.394000	1794.595703	267.538544
19348.183830	16856.394000	1793.592773	483.445862
19348.183830	16856.394000	1792.589844	344.071838
19348.183830	16856.394000	1791.587891	247.579330
19348.183830	16856.394000	1790.583984	408.411438
19348.183830	16856.394000	1789.581055	202.264847
19348.183830	16856.394000	1788.577148	143.812241
19348.183830	16856.394000	1787.574219	678.259094
19348.183830	16856.394000	1786.570313	174.410782
19348.183830	16856.394000	1785.566406	-343.585205
19348.183830	16856.394000	1784.561523	180.978119
19348.183830	16856.394000	1783.557617	236.517685
19348.183830	16856.394000	1782.552734	334.807190
19348.183830	16856.394000	1781.547852	283.150726
19348.183830	16856.394000	1780.542969	150.598694
19348.183830	16856.394000	1779.538086	232.029770
19348.183830	16856.394000	1778.532227	227.795227
19348.183830	16856.394000	1777.527344	641.808838
19348.183830	16856.394000	1776.521484	-37.496117
19348.183830	16856.394000	1775.515625	-91.748764
19348.183830	16856.394000	1774.508789	276.788727
19348.183830	16856.394000	1773.502930	98.878304
19348.183830	16856.394000	1772.496094	628.585693
19348.183830	16856.394000	1771.489258	46.969486
19348.183830	16856.394000	1770.482422	158.603836
19348.183830	16856.394000	1769.475586	163.347977
19348.183830	16856.394000	1768.467773	222.603485
19348.183830	16856.394000	1767.460938	547.461304
19348.183830	16856.394000	1766.453125	476.048981
19348.183830	16856.394000	1765.445313	77.351418
19348.183830	16856.394000	1764.437500	465.888092
19348.183830	16856.394000	1763.428711	185.751785
19348.183830	16856.394000	1762.420898	21.780212
19348.183830	16856.394000	1761.412109	374.381622
19348.183830	16856.394000	1760.403320	340.619415
19348.183830	16856.394000	1759.393555	354.191711
19348.183830	16856.394000	1758.384766	301.374237
19348.183830	16856.394000	1757.375000	269.832642
19348.183830	16856.394000	1756.366211	448.924927
19348.183830	16856.394000	1755.356445	43.277504
19348.183830	16856.394000	1754.345703	208.034790
19348.183830	16856.394000	1753.335938	247.262299
19348.183830	16856.394000	1752.325195	385.773560
19348.183830	16856.394000	1751.315430	472.130402
19348.183830	16856.394000	1750.304688	-193.549103
19348.183830	16856.394000	1749.292969	107.910782
19348.183830	16856.394000	1748.282227	480.099670
19348.183830	16856.394000	1747.270508	-123.935051
19348.183830	16856.394000	1746.259766	49.556648
19348.183830	16856.394000	1745.248047	-95.991333
19348.183830	16856.394000	1744.235352	155.260910
19348.183830	16856.394000	1743.223633	-219.432266
19348.183830	16856.394000	1742.211914	312.575836
19348.183830	16856.394000	1741.199219	25.220734
19348.183830	16856.394000	1740.186523	-243.209946
19348.183830	16856.394000	1739.173828	45.284103
19348.183830	16856.394000	1738.160156	269.911743
19348.183830	16856.394000	1737.147461	397.681976
19348.183830	16856.394000	1736.133789	79.633255
19348.183830	16856.394000	1735.120117	386.475403
19348.183830	16856.394000	1734.106445	-205.029449
19348.183830	16856.394000	1733.091797	-235.407074
19348.183830	16856.394000	1732.078125	-133.870453
19348.183830	16856.394000	1731.063477	-171.432419
19348.183830	16856.394000	1730.048828	-65.343742
19348.183830	16856.394000	1729.034180	125.431190
19348.183830	16856.394000	1728.019531	-209.021225
19348.183830	16856.394000	1727.003906	85.191010
19348.183830	16856.394000	1725.988281	-171.557602
19348.183830	16856.394000	1724.972656	105.952179
19348.183830	16856.394000	1723.957031	-66.107246
19348.183830	16856.394000	1722.941406	-0.551755
19348.183830	16856.394000	1721.924805	79.037796
19348.183830	16856.394000	1720.909180	-71.913574
19348.183830	16856.394000	1719.892578	223.857635
19348.183830	16856.394000	1718.875977	-352.629120
19348.183830	16856.394000	1717.858398	-172.177460
19348.183830	16856.394000	1716.841797	285.423187
19348.183830	16856.394000	1715.824219	136.682098
19348.183830	16856.394000	1714.806641	-232.845856
19348.183830	16856.394000	1713.789063	113.980583
19348.183830	16856.394000	1712.770508	-81.743988
19348.183830	16856.394000	1711.752930	-272.749847
19348.183830	16856.394000	1710.734375	-376.883575
19348.183830	16856.394000	1709.715820	-18.746323
19348.183830	16856.394000	1708.697266	388.475128
19348.183830	16856.394000	1707.678711	457.718994
19348.183830	16856.394000	1706.659180	158.689026
19348.183830	16856.394000	1705.640625	21.518829
19348.183830	16856.394000	1704.621094	179.748047
19348.183830	16856.394000	1703.600586	37.861683
19348.183830	16856.394000	1702.581055	109.235771
19348.183830	16856.394000	1701.561523	-23.297022
19348.183830	16856.394000	1700.541016	401.709106
19348.183830	16856.394000	1699.520508	151.989487
19348.183830	16856.394000	1698.500000	131.810547
19348.183830	16856.394000	1697.478516	-108.471825
19348.183830	16856.394000	1696.458008	-46.742828
19348.183830	16856.394000	1695.436523	-176.979019
19348.183830	16856.394000	1694.415039	654.484863
19348.183830	16856.394000	1693.393555	313.548126
19348.183830	16856.394000	1692.372070	412.434204
19348.183830	16856.394000	1691.349609	356.909027
19348.183830	16856.394000	1690.327148	698.845032
19348.183830	16856.394000	1689.304688	638.547791
19348.183830	16856.394000	1688.282227	218.322800
19348.183830	16856.394000	1687.259766	106.674896
19348.183830	16856.394000	1686.236328	90.830780
19348.183830	16856.394000	1685.213867	224.452911
19348.183830	16856.394000	1684.190430	409.376648
19348.183830	16856.394000	1683.166016	363.052063
19348.183830	16856.394000	1682.142578	358.735504
19348.183830	16856.394000	1681.119141	317.052094
19348.183830	16856.394000	1680.094727	420.044891
19348.183830	16856.394000	1679.070313	567.301575
19348.183830	16856.394000	1678.045898	525.537964
19348.183830	16856.394000	1677.020508	208.570358
19348.183830	16856.394000	1675.996094	633.202393
19348.183830	16856.394000	1674.970703	416.542542
19348.183830	16856.394000	1673.945313	582.213684
19348.183830	16856.394000	1672.919922	323.666107
19348.183830	16856.394000	1671.893555	354.118469
19348.183830	16856.394000	1670.868164	419.483856
19348.183830	16856.394000	1669.841797	256.565918
19348.183830	16856.394000	1668.815430	231.085419
19348.183830	16856.394000	1667.789063	249.840195
19348.183830	16856.394000	1666.761719	156.845795
19348.183830	16856.394000	1665.735352	559.581848
19348.183830	16856.394000	1664.708008	520.058960
19348.183830	16856.394000	1663.680664	417.732361
19348.183830	16856.394000	1662.653320	-5.537665
19348.183830	16856.394000	1661.625000	275.971497
19348.183830	16856.394000	1660.597656	327.180969
19348.183830	16856.394000	1659.569336	408.593506
19348.183830	16856.394000	1658.541016	83.246346
19348.183830	16856.394000	1657.512695	589.898315
19348.183830	16856.394000	1656.483398	464.439972
19348.183830	16856.394000	1655.455078	204.304169
19348.183830	16856.394000	1654.425781	666.517090
19348.183830	16856.394000	1653.396484	601.487183
19348.183830	16856.394000	1652.366211	513.272888
19348.183830	16856.394000	1651.336914	499.365662
19348.183830	16856.394000	1650.306641	722.162842
19348.183830	16856.394000	1649.276367	729.111877
19348.183830	16856.394000	1648.246094	891.483337
19348.183830	16856.394000	1647.215820	513.430481
19348.183830	16856.394000	1646.185547	791.731812
19348.183830	16856.394000	1645.154297	675.828613
19348.183830	16856.394000	1644.123047	1315.598145
19348.183830	16856.394000	1643.091797	958.654480
19348.183830	16856.394000	1642.060547	988.791748
19348.183830	16856.394000	1641.028320	803.502197
19348.183830	16856.394000	1639.997070	1118.558350
19348.183830	16856.394000	1638.964844	1329.310791
19348.183830	16856.394000	1637.931641	882.498962
19348.183830	16856.394000	1636.899414	572.446045
19348.183830	16856.394000	1635.867188	1028.542725
19348.183830	16856.394000	1634.833984	945.375122
19348.183830	16856.394000	1633.800781	841.441223
19348.183830	16856.394000	1632.767578	1024.367065
19348.183830	16856.394000	1631.734375	895.063904
19348.183830	16856.394000	1630.700195	929.992859
19348.183830	16856.394000	1629.666016	1304.729858
19348.183830	16856.394000	1628.631836	1145.483154
19348.183830	16856.394000	1627.597656	993.261536
19348.183830	16856.394000	1626.563477	1012.077637
19348.183830	16856.394000	1625.528320	1208.771729
19348.183830	16856.394000	1624.493164	1123.685425
19348.183830	16856.394000	1623.458008	1221.065674
19348.183830	16856.394000	1622.422852	817.511169
19348.183830	16856.394000	1621.387695	700.339355
19348.183830	16856.394000	1620.351563	1040.132813
19348.183830	16856.394000	1619.315430	1075.299316
19348.183830	16856.394000	1618.279297	822.164063
19348.183830	16856.394000	1617.243164	1251.790527
19348.183830	16856.394000	1616.207031	742.859253
19348.183830	16856.394000	1615.169922	584.570374
19348.183830	16856.394000	1614.132813	1009.503235
19348.183830	16856.394000	1613.095703	1164.701782
19348.183830	16856.394000	1612.058594	1098.706055
19348.183830	16856.394000	1611.020508	878.450378
19348.183830	16856.394000	1609.983398	513.233032
19348.183830	16856.394000	1608.945313	1165.941406
19348.183830	16856.394000	1607.907227	1219.893066
19348.183830	16856.394000	1606.868164	666.229492
19348.183830	16856.394000	1605.830078	991.896912
19348.183830	16856.394000	1604.791016	880.341736
19348.183830	16856.394000	1603.751953	817.189880
19348.183830	16856.394000	1602.712891	919.703979
19348.183830	16856.394000	1601.673828	1141.802856
19348.183830	16856.394000	1600.633789	906.374512
19348.183830	16856.394000	1599.594727	1213.540283
19348.183830	16856.394000	1598.554688	1196.618286
19348.183830	16856.394000	1597.513672	1317.617432
19348.183830	16856.394000	1596.473633	990.674194
19348.183830	16856.394000	1595.433594	1052.063477
19348.183830	16856.394000	1594.392578	989.493713
19348.183830	16856.394000	1593.351563	1179.551270
19348.183830	16856.394000	1592.310547	834.768311
19348.183830	16856.394000	1591.268555	871.146423
19348.183830	16856.394000	1590.227539	921.337158
19348.183830	16856.394000	1589.185547	755.936951
19348.183830	16856.394000	1588.143555	1109.015991
19348.183830	16856.394000	1587.100586	1113.470947
19348.183830	16856.394000	1586.058594	888.714233
19348.183830	16856.394000	1585.015625	842.913269
19348.183830	16856.394000	1583.972656	1021.794189
19348.183830	16856.394000	1582.929688	1150.264038
19348.183830	16856.394000	1581.886719	1109.226074
19348.183830	16856.394000	1580.843750	1281.286377
19348.183830	16856.394000	1579.799805	979.326233
19348.183830	16856.394000	1578.755859	1119.442749
19348.183830	16856.394000	1577.711914	1067.288940
19348.183830	16856.394000	1576.666992	752.035278
19348.183830	16856.394000	1575.623047	796.229858
19348.183830	16856.394000	1574.578125	657.462952
19348.183830	16856.394000	1573.533203	1150.131958
19348.183830	16856.394000	1572.488281	794.249207
19348.183830	16856.394000	1571.443359	662.655457
19348.183830	16856.394000	1570.397461	919.814392
19348.183830	16856.394000	1569.351563	989.537231
19348.183830	16856.394000	1568.305664	981.621521
19348.183830	16856.394000	1567.259766	978.356873
19348.183830	16856.394000	1566.213867	758.177734
19348.183830	16856.394000	1565.166992	793.950500
19348.183830	16856.394000	1564.120117	647.130493
19348.183830	16856.394000	1563.073242	610.030823
19348.183830	16856.394000	1562.026367	812.675537
19348.183830	16856.394000	1560.978516	609.150208
19348.183830	16856.394000	1559.930664	430.886261
19348.183830	16856.394000	1558.883789	804.783630
19348.183830	16856.394000	1557.834961	1048.641113
19348.183830	16856.394000	1556.787109	578.797791
19348.183830	16856.394000	1555.739258	758.940918
19348.183830	16856.394000	1554.690430	264.449402
19348.183830	16856.394000	1553.641602	408.308838
19348.183830	16856.394000	1552.592773	297.027618
19348.183830	16856.394000	1551.542969	577.684143
19348.183830	16856.394000	1550.494141	334.502197
19348.183830	16856.394000	1549.444336	576.516968
19348.183830	16856.394000	1548.394531	572.658997
19348.183830	16856.394000	1547.344727	150.092728
19348.183830	16856.394000	1546.293945	185.201706
19348.183830	16856.394000	1545.244141	104.345497
19348.183830	16856.394000	1544.193359	-110.584366
19348.183830	16856.394000	1543.142578	-129.743866
19348.183830	16856.394000	1542.090820	165.000809
19348.183830	16856.394000	1541.040039	532.469360
19348.183830	16856.394000	1539.988281	493.034576
19348.183830	16856.394000	1538.936523	424.168884
19348.183830	16856.394000	1537.884766	405.415680
19348.183830	16856.394000	1536.833008	448.099609
19348.183830	16856.394000	1535.780273	268.300201
19348.183830	16856.394000	1534.727539	495.130280
19348.183830	16856.394000	1533.674805	340.562805
19348.183830	16856.394000	1532.622070	383.633270
19348.183830	16856.394000	1531.569336	183.963165
19348.183830	16856.394000	1530.515625	572.136353
19348.183830	16856.394000	1529.461914	116.374451
19348.183830	16856.394000	1528.408203	-121.369110
19348.183830	16856.394000	1527.354492	10.698944
19348.183830	16856.394000	1526.299805	301.530029
19348.183830	16856.394000	1525.246094	23.394104
19348.183830	16856.394000	1524.191406	-100.411659
19348.183830	16856.394000	1523.136719	-280.713135
19348.183830	16856.394000	1522.081055	-202.574234
19348.183830	16856.394000	1521.026367	13.782073
19348.183830	16856.394000	1519.970703	-66.475266
19348.183830	16856.394000	1518.915039	91.128227
19348.183830	16856.394000	1517.859375	167.284149
19348.183830	16856.394000	1516.802734	-104.996719
19348.183830	16856.394000	1515.747070	267.784271
19348.183830	16856.394000	1514.690430	-151.242126
19348.183830	16856.394000	1513.633789	18.066055
19348.183830	16856.394000	1512.577148	158.017532
19348.183830	16856.394000	1511.519531	6.373483
19348.183830	16856.394000	1510.461914	47.037243
19348.183830	16856.394000	1509.405273	257.274994
19348.183830	16856.394000	1508.346680	275.499542
19348.183830	16856.394000	1507.289063	79.200607
19348.183830	16856.394000	1506.231445	206.069229
19348.183830	16856.394000	1505.172852	41.703041
19348.183830	16856.394000	1504.114258	155.207840
19348.183830	16856.394000	1503.055664	401.958679
19348.183830	16856.394000	1501.996094	479.467529
19348.183830	16856.394000	1500.937500	-25.109678
19348.183830	16856.394000	1499.877930	27.852591
19348.183830	16856.394000	1498.818359	26.768188
19348.183830	16856.394000	1497.757813	-66.651352
19348.183830	16856.394000	1496.698242	-583.805603
19348.183830	16856.394000	1495.637695	-79.494072
19348.183830	16856.394000	1494.577148	-285.197876
19348.183830	16856.394000	1493.516602	-285.663147
19348.183830	16856.394000	1492.456055	47.395184
19348.183830	16856.394000	1491.394531	-97.060822
19348.183830	16856.394000	1490.333008	-45.430683
19348.183830	16856.394000	1489.271484	-164.827774
19348.183830	16856.394000	1488.209961	-25.197521
19348.183830	16856.394000	1487.148438	-76.817383
19348.183830	16856.394000	1486.085938	-353.306915
19348.183830	16856.394000	1485.023438	198.308853
19348.183830	16856.394000	1483.960938	3.060989
19348.183830	16856.394000	1482.898438	-221.230347
19348.183830	16856.394000	1481.834961	107.772682
19348.183830	16856.394000	1480.772461	115.288528
19348.183830	16856.394000	1479.708984	149.887604
19348.183830	16856.394000	1478.644531	18.347353
19348.183830	16856.394000	1477.581055	-25.508913
19348.183830	16856.394000	1476.517578	175.672394
19348.183830	16856.394000	1475.453125	98.350716
19348.183830	16856.394000	1474.388672	-227.925873
19348.183830	16856.394000	1473.323242	117.208496
19348.183830	16856.394000	1472.258789	260.189423
19348.183830	16856.394000	1471.193359	-20.587034
19348.183830	16856.394000	1470.127930	23.876045
19348.183830	16856.394000	1469.062500	229.742432
19348.183830	16856.394000	1467.997070	86.332108
19348.183830	16856.394000	1466.930664	173.378647
19348.183830	16856.394000	1465.865234	166.703140
19348.183830	16856.394000	1464.798828	19.007465
19348.183830	16856.394000	1463.731445	-154.618622
19348.183830	16856.394000	1462.665039	297.000885
19348.183830	16856.394000	1461.597656	550.099609
19348.183830	16856.394000	1460.530273	266.767273
19348.183830	16856.394000	1459.462891	266.952728
19348.183830	16856.394000	1458.395508	308.878204
19348.183830	16856.394000	1457.327148	62.254543
19348.183830	16856.394000	1456.259766	652.049622
19348.183830	16856.394000	1455.191406	461.154236
19348.183830	16856.394000	1454.123047	522.704468
19348.183830	16856.394000	1453.053711	759.731812
19348.183830	16856.394000	1451.985352	283.031372
19348.183830	16856.394000	1450.916016	201.420578
19348.183830	16856.394000	1449.846680	791.792786
19348.183830	16856.394000	1448.776367	435.777496
19348.183830	16856.394000	1447.707031	612.833191
19348.183830	16856.394000	1446.636719	571.336487
19348.183830	16856.394000	1445.566406	740.813232
19348.183830	16856.394000	1444.496094	635.239441
19348.183830	16856.394000	1443.425781	462.938904
19348.183830	16856.394000	1442.354492	367.822693
19348.183830	16856.394000	1441.283203	703.506165
19348.183830	16856.394000	1440.211914	746.523865
19348.183830	16856.394000	1439.140625	193.988602
19348.183830	16856.394000	1438.069336	785.931030
19348.183830	16856.394000	1436.997070	646.391541
19348.183830	16856.394000	1435.924805	565.059326
19348.183830	16856.394000	1434.852539	468.695343
19348.183830	16856.394000	1433.780273	492.681946
19348.183830	16856.394000	1432.707031	542.153564
19348.183830	16856.394000	1431.633789	276.334076
19348.183830	16856.394000	1430.560547	672.101746
19348.183830	16856.394000	1429.487305	294.256744
19348.183830	16856.394000	1428.413086	319.269775
19348.183830	16856.394000	1427.339844	604.115601
19348.183830	16856.394000	1426.265625	468.970673
19348.183830	16856.394000	1425.191406	261.116943
19348.183830	16856.394000	1424.116211	429.439392
19348.183830	16856.394000	1423.041992	245.357529
19348.183830	16856.394000	1421.966797	605.497559
19348.183830	16856.394000	1420.891602	520.434082
19348.183830	16856.394000	1419.816406	418.994476
19348.183830	16856.394000	1418.740234	425.337616
19348.183830	16856.394000	1417.665039	440.659485
19348.183830	16856.394000	1416.588867	287.489380
19348.183830	16856.394000	1415.512695	175.096786
19348.183830	16856.394000	1414.435547	340.191559
19348.183830	16856.394000	1413.359375	260.457336
19348.183830	16856.394000	1412.282227	-240.290802
19348.183830	16856.394000	1411.205078	86.192818
19348.183830	16856.394000	1410.127930	-53.682381
19348.183830	16856.394000	1409.049805	100.938309
19348.183830	16856.394000	1407.972656	38.901905
19348.183830	16856.394000	1406.894531	266.231110
19348.183830	16856.394000	1405.816406	-22.375618
19348.183830	16856.394000	1404.737305	-432.172699
19348.183830	16856.394000	1403.659180	-16.419130
19348.183830	16856.394000	1402.580078	19.209059
19348.183830	16856.394000	1401.500977	69.042877
19348.183830	16856.394000	1400.421875	-42.867676
19348.183830	16856.394000	1399.341797	-13.487700
19348.183830	16856.394000	1398.262695	208.395813
19348.183830	16856.394000	1397.182617	34.181671
19348.183830	16856.394000	1396.102539	83.044273
19348.183830	16856.394000	1395.021484	-56.985142
19348.183830	16856.394000	1393.941406	33.829372
19348.183830	16856.394000	1392.860352	-9.530916
19348.183830	16856.394000	1391.779297	-23.516832
19348.183830	16856.394000	1390.698242	-431.469055
19348.183830	16856.394000	1389.616211	37.432968
19348.183830	16856.394000	1388.535156	234.604294
19348.183830	16856.394000	1387.453125	119.643898
19348.183830	16856.394000	1386.371094	-151.047760
19348.183830	16856.394000	1385.288086	164.943771
19348.183830	16856.394000	1384.206055	150.548782
19348.183830	16856.394000	1383.123047	-91.547424
19348.183830	16856.394000	1382.040039	444.895203
19348.183830	16856.394000	1380.957031	327.309448
19348.183830	16856.394000	1379.873047	263.180267
19348.183830	16856.394000	1378.789063	421.653809
19348.183830	16856.394000	1377.705078	298.350372
19348.183830	16856.394000	1376.621094	430.823669
19348.183830	16856.394000	1375.537109	815.971375
19348.183830	16856.394000	1374.452148	412.739532
19348.183830	16856.394000	1373.367188	395.379608
19348.183830	16856.394000	1372.282227	745.925842
19348.183830	16856.394000	1371.197266	366.939850
19348.183830	16856.394000	1370.112305	439.186371
19348.183830	16856.394000	1369.026367	531.443787
19348.183830	16856.394000	1367.940430	446.053131
19348.183830	16856.394000	1366.854492	728.880676
19348.183830	16856.394000	1365.767578	482.802521
19348.183830	16856.394000	1364.681641	389.977844
19348.183830	16856.394000	1363.594727	445.995789
19348.183830	16856.394000	1362.507813	274.369049
19348.183830	16856.394000	1361.419922	81.946541
19348.183830	16856.394000	1360.333008	88.660530
19348.183830	16856.394000	1359.245117	-83.044067
19348.183830	16856.394000	1358.157227	412.556213
19348.183830	16856.394000	1357.069336	216.069824
19348.183830	16856.394000	1355.981445	202.425568
19348.183830	16856.394000	1354.892578	57.562420
19348.183830	16856.394000	1353.803711	505.246674
19348.183830	16856.394000	1352.714844	183.157089
19348.183830	16856.394000	1351.625000	599.998352
19348.183830	16856.394000	1350.536133	615.088928
19348.183830	16856.394000	1349.446289	533.561707
19348.183830	16856.394000	1348.356445	450.733643
19348.183830	16856.394000	1347.266602	447.611664
19348.183830	16856.394000	1346.175781	599.267700
19348.183830	16856.394000	1345.085938	280.758240
19348.183830	16856.394000	1343.995117	97.911797
19348.183830	16856.394000	1342.903320	312.879852
19348.183830	16856.394000	1341.812500	432.187469
19348.183830	16856.394000	1340.720703	621.874207
19348.183830	16856.394000	1339.629883	300.023651
19348.183830	16856.394000	1338.538086	637.144226
19348.183830	16856.394000	1337.445313	438.992859
19348.183830	16856.394000	1336.353516	176.891342
19348.183830	16856.394000	1335.260742	577.703613
19348.183830	16856.394000	1334.167969	195.758072
19348.183830	16856.394000	1333.075195	588.479614
19348.183830	16856.394000	1331.981445	437.370148
19348.183830	16856.394000	1330.888672	489.255188
19348.183830	16856.394000	1329.794922	368.948090
19348.183830	16856.394000	1328.701172	502.062317
19348.183830	16856.394000	1327.606445	734.720886
19348.183830	16856.394000	1326.512695	246.140015
19348.183830	16856.394000	1325.417969	744.894714
19348.183830	16856.394000	1324.323242	805.629700
19348.183830	16856.394000	1323.227539	516.710266
19348.183830	16856.394000	1322.132813	346.715759
19348.183830	16856.394000	1321.037109	388.881500
19348.183830	16856.394000	1319.941406	709.539673
19348.183830	16856.394000	1318.845703	527.529236
19348.183830	16856.394000	1317.750000	628.607178
19348.183830	16856.394000	1316.653320	463.013824
19348.183830	16856.394000	1315.556641	355.776581
19348.183830	16856.394000	1314.459961	672.144653
19348.183830	16856.394000	1313.363281	285.890656
19348.183830	16856.394000	1312.265625	338.950134
19348.183830	16856.394000	1311.167969	286.893646
19348.183830	16856.394000	1310.070313	122.778900
19348.183830	16856.394000	1308.972656	-32.465256
19348.183830	16856.394000	1307.874023	103.639778
19348.183830	16856.394000	1306.776367	88.208534
19348.183830	16856.394000	1305.677734	344.378693
19348.183830	16856.394000	1304.579102	306.162231
19348.183830	16856.394000	1303.479492	309.283783
19348.183830	16856.394000	1302.380859	341.221252
19348.183830	16856.394000	1301.281250	83.725555
19348.183830	16856.394000	1300.181641	-214.093658
19348.183830	16856.394000	1299.081055	-44.289070
19348.183830	16856.394000	1297.981445	225.296951
19348.183830	16856.394000	1296.880859	113.364532
19348.183830	16856.394000	1295.780273	307.742096
19348.183830	16856.394000	1294.679688	114.979637
19348.183830	16856.394000	1293.578125	48.090832
19348.183830	16856.394000	1292.476563	123.220581
19348.183830	16856.394000	1291.375000	221.551697
19348.183830	16856.394000	1290.273438	98.946716
19348.183830	16856.394000	1289.171875	167.682190
19348.183830	16856.394000	1288.069336	10.228790
19348.183830	16856.394000	1286.966797	-104.205994
19348.183830	16856.394000	1285.864258	-1.439321
19348.183830	16856.394000	1284.761719	-50.721924
19348.183830	16856.394000	1283.658203	-61.442585
19348.183830	16856.394000	1282.554688	-104.721840
19348.183830	16856.394000	1281.451172	-51.185421
19348.183830	16856.394000	1280.347656	-185.962936
19348.183830	16856.394000	1279.244141	333.343323
19348.183830	16856.394000	1278.139648	103.176544
19348.183830	16856.394000	1277.035156	-93.196976
19348.183830	16856.394000	1275.930664	-107.109955
19348.183830	16856.394000	1274.825195	-26.939594
19348.183830	16856.394000	1273.720703	37.964870
19348.183830	16856.394000	1272.615234	-218.982330
19348.183830	16856.394000	1271.508789	-29.949924
19348.183830	16856.394000	1270.403320	-205.165863
19348.183830	16856.394000	1269.297852	-22.230034
19348.183830	16856.394000	1268.191406	47.448978
19348.183830	16856.394000	1267.084961	217.594818
19348.183830	16856.394000	1265.977539	-424.111298
19348.183830	16856.394000	1264.871094	69.720139
19348.183830	16856.394000	1263.763672	-91.536064
19348.183830	16856.394000	1262.656250	-71.499886
19348.183830	16856.394000	1261.548828	-84.906319
19348.183830	16856.394000	1260.440430	44.652287
19348.183830	16856.394000	1259.333008	113.944733
19348.183830	16856.394000	1258.224609	-104.490433
19348.183830	16856.394000	1257.115234	-66.275002
19348.183830	16856.394000	1256.006836	-364.600861
19348.183830	16856.394000	1254.897461	-231.710953
19348.183830	16856.394000	1253.788086	-90.963165
19348.183830	16856.394000	1252.678711	82.548180
19348.183830	16856.394000	1251.569336	-6.747771
19348.183830	16856.394000	1250.458984	-25.146753
19348.183830	16856.394000	1249.349609	95.819954
19348.183830	16856.394000	1248.239258	-35.688595
19348.183830	16856.394000	1247.127930	67.366035
19348.183830	16856.394000	1246.017578	-88.771805
19348.183830	16856.394000	1244.906250	107.574326
19348.183830	16856.394000	1243.794922	99.599609
19348.183830	16856.394000	1242.683594	26.809429
19348.183830	16856.394000	1241.571289	142.642181
19348.183830	16856.394000	1240.459961	-24.182751
19348.183830	16856.394000	1239.347656	-12.807644
19348.183830	16856.394000	1238.234375	-106.668633
19348.183830	16856.394000	1237.122070	9.356301
19348.183830	16856.394000	1236.008789	382.601196
19348.183830	16856.394000	1234.896484	95.721466
19348.183830	16856.394000	1233.782227	-2.570994
19348.183830	16856.394000	1232.668945	105.227875
19348.183830	16856.394000	1231.555664	254.208618
19348.183830	16856.394000	1230.441406	458.666718
19348.183830	16856.394000	1229.327148	240.741333
19348.183830	16856.394000	1228.211914	127.727890
19348.183830	16856.394000	1227.097656	-56.725357
19348.183830	16856.394000	1225.982422	205.753967
19348.183830	16856.394000	1224.867188	-12.536512
19348.183830	16856.394000	1223.751953	227.592300
19348.183830	16856.394000	1222.635742	-0.015567
19348.183830	16856.394000	1221.520508	104.892174
19348.183830	16856.394000	1220.404297	-1.421905
19348.183830	16856.394000	1219.287109	86.377670
19348.183830	16856.394000	1218.170898	-135.278748
19348.183830	16856.394000	1217.053711	289.869171
19348.183830	16856.394000	1215.936523	108.498413
19348.183830	16856.394000	1214.819336	-5.678418
19348.183830	16856.394000	1213.702148	132.979019
19348.183830	16856.394000	1212.583984	-35.392647
19348.183830	16856.394000	1211.465820	162.809555
19348.183830	16856.394000	1210.347656	39.046322
19348.183830	16856.394000	1209.229492	68.155289
19348.183830	16856.394000	1208.110352	215.493622
19348.183830	16856.394000	1206.992188	244.072800
19348.183830	16856.394000	1205.873047	79.664001
19348.183830	16856.394000	1204.752930	-34.041744
19348.183830	16856.394000	1203.633789	-115.567764
19348.183830	16856.394000	1202.513672	299.171265
19348.183830	16856.394000	1201.393555	24.530813
19348.183830	16856.394000	1200.273438	-97.604538
19348.183830	16856.394000	1199.152344	-14.811564
19348.183830	16856.394000	1198.032227	-68.349380
19348.183830	16856.394000	1196.911133	-32.252254
19348.183830	16856.394000	1195.790039	99.026970
19348.183830	16856.394000	1194.667969	-51.920696
19348.183830	16856.394000	1193.545898	128.702042
19348.183830	16856.394000	1192.424805	-144.779984
19348.183830	16856.394000	1191.301758	-90.841766
19348.183830	16856.394000	1190.179688	-94.744858
19348.183830	16856.394000	1189.056641	97.796112
19348.183830	16856.394000	1187.933594	-46.265022
19348.183830	16856.394000	1186.810547	-8.416626
19348.183830	16856.394000	1185.687500	-58.053295
19348.183830	16856.394000	1184.563477	46.376511
19348.183830	16856.394000	1183.440430	41.353451
19348.183830	16856.394000	1182.316406	137.763840
19348.183830	16856.394000	1181.191406	68.318436
19348.183830	16856.394000	1180.067383	84.582207
19348.183830	16856.394000	1178.942383	-142.437729
19348.183830	16856.394000	1177.817383	176.525513
19348.183830	16856.394000	1176.692383	41.718052
19348.183830	16856.394000	1175.566406	-145.014038
19348.183830	16856.394000	1174.440430	87.686180
19348.183830	16856.394000	1173.314453	-59.066055
19348.183830	16856.394000	1172.188477	164.014450
19348.183830	16856.394000	1171.062500	345.523407
19348.183830	16856.394000	1169.935547	257.556732
19348.183830	16856.394000	1168.808594	16.580988
19348.183830	16856.394000	1167.681641	276.438049
19348.183830	16856.394000	1166.553711	158.542007
19348.183830	16856.394000	1165.426758	-17.071915
19348.183830	16856.394000	1164.298828	-77.222099
19348.183830	16856.394000	1163.170898	-51.509998
19348.183830	16856.394000	1162.041992	69.656036
19348.183830	16856.394000	1160.914063	20.104654
19348.183830	16856.394000	1159.785156	-10.783708
19348.183830	16856.394000	1158.656250	-225.543854
19348.183830	16856.394000	1157.526367	-101.765953
19348.183830	16856.394000	1156.397461	-256.314270
19348.183830	16856.394000	1155.267578	-305.812653
19348.183830	16856.394000	1154.137695	-51.524189
19348.183830	16856.394000	1153.006836	120.324043
19348.183830	16856.394000	1151.876953	-230.188400
19348.183830	16856.394000	1150.746094	-64.207253
19348.183830	16856.394000	1149.615234	-143.286377
19348.183830	16856.394000	1148.484375	-167.956848
19348.183830	16856.394000	1147.352539	392.616547
19348.183830	16856.394000	1146.220703	-131.635498
19348.183830	16856.394000	1145.088867	-90.933487
19348.183830	16856.394000	1143.957031	31.750118
19348.183830	16856.394000	1142.825195	-279.158691
19348.183830	16856.394000	1141.692383	-149.867859
19348.183830	16856.394000	1140.559570	-350.026550
19348.183830	16856.394000	1139.426758	-310.271179
19348.183830	16856.394000	1138.292969	26.711561
19348.183830	16856.394000	1137.159180	-84.188156
19348.183830	16856.394000	1136.025391	204.881470
19348.183830	16856.394000	1134.891602	-31.464066
19348.183830	16856.394000	1133.757813	126.396591
19348.183830	16856.394000	1132.623047	89.372299
19348.183830	16856.394000	1131.488281	139.482376
19348.183830	16856.394000	1130.353516	-38.444778
19348.183830	16856.394000	1129.217773	-282.631287
19348.183830	16856.394000	1128.083008	9.647229
19348.183830	16856.394000	1126.947266	70.203987
19348.183830	16856.394000	1125.811523	85.365227
19348.183830	16856.394000	1124.674805	2.322704
19348.183830	16856.394000	1123.539063	-45.692924
19348.183830	16856.394000	1122.402344	-103.589516
19348.183830	16856.394000	1121.265625	-56.773026
19348.183830	16856.394000	1120.127930	34.024296
19348.183830	16856.394000	1118.990234	148.515732
19348.183830	16856.394000	1117.853516	-28.553995
19348.183830	16856.394000	1116.714844	345.162384
19348.183830	16856.394000	1115.577148	71.269485
19348.183830	16856.394000	1114.439453	89.531067
19348.183830	16856.394000	1113.300781	276.636536
19348.183830	16856.394000	1112.162109	-94.690788
19348.183830	16856.394000	1111.022461	-39.636559
19348.183830	16856.394000	1109.883789	-9.312726
19348.183830	16856.394000	1108.744141	160.461670
19348.183830	16856.394000	1107.604492	310.601593
19348.183830	16856.394000	1106.463867	208.665298
19348.183830	16856.394000	1105.324219	64.711182
19348.183830	16856.394000	1104.183594	-114.949287
19348.183830	16856.394000	1103.042969	151.958405
19348.183830	16856.394000	1101.902344	264.100677
19348.183830	16856.394000	1100.760742	113.998543
19348.183830	16856.394000	1099.619141	173.840698
19348.183830	16856.394000	1098.477539	238.129501
19348.183830	16856.394000	1097.335938	389.177887
19348.183830	16856.394000	1096.193359	161.041870
19348.183830	16856.394000	1095.051758	59.512981
19348.183830	16856.394000	1093.909180	249.150055
19348.183830	16856.394000	1092.765625	270.974884
19348.183830	16856.394000	1091.623047	458.261658
19348.183830	16856.394000	1090.479492	502.031921
19348.183830	16856.394000	1089.335938	387.779449
19348.183830	16856.394000	1088.192383	423.905029
19348.183830	16856.394000	1087.047852	260.468353
19348.183830	16856.394000	1085.903320	347.801208
19348.183830	16856.394000	1084.758789	208.318100
19348.183830	16856.394000	1083.614258	-46.455132
19348.183830	16856.394000	1082.469727	281.466339
19348.183830	16856.394000	1081.324219	344.063843
19348.183830	16856.394000	1080.178711	-46.266167
19348.183830	16856.394000	1079.033203	103.617401
19348.183830	16856.394000	1077.886719	324.283691
19348.183830	16856.394000	1076.740234	529.199524
19348.183830	16856.394000	1075.593750	341.455292
19348.183830	16856.394000	1074.447266	323.713501
19348.183830	16856.394000	1073.300781	-126.574181
19348.183830	16856.394000	1072.153320	182.440506
19348.183830	16856.394000	1071.005859	246.949219
19348.183830	16856.394000	1069.858398	414.686829
19348.183830	16856.394000	1068.709961	189.964355
19348.183830	16856.394000	1067.561523	238.831024
19348.183830	16856.394000	1066.413086	73.195496
19348.183830	16856.394000	1065.264648	381.441071
19348.183830	16856.394000	1064.116211	175.445129
19348.183830	16856.394000	1062.966797	261.618256
19348.183830	16856.394000	1061.817383	146.808609
19348.183830	16856.394000	1060.667969	246.120148
19348.183830	16856.394000	1059.517578	575.084473
19348.183830	16856.394000	1058.368164	45.491352
19348.183830	16856.394000	1057.217773	341.842926
19348.183830	16856.394000	1056.067383	497.184723
19348.183830	16856.394000	1054.916016	457.973969
19348.183830	16856.394000	1053.764648	310.836395
19348.183830	16856.394000	1052.613281	372.864227
19348.183830	16856.394000	1051.461914	523.341187
19348.183830	16856.394000	1050.310547	451.584076
19348.183830	16856.394000	1049.158203	370.600830
19348.183830	16856.394000	1048.005859	75.640343
19348.183830	16856.394000	1046.853516	75.982338
19348.183830	16856.394000	1045.700195	233.974472
19348.183830	16856.394000	1044.547852	328.407196
19348.183830	16856.394000	1043.394531	42.182373
19348.183830	16856.394000	1042.240234	258.161713
19348.183830	16856.394000	1041.086914	-5.192348
19348.183830	16856.394000	1039.932617	586.998474
19348.183830	16856.394000	1038.778320	487.172699
19348.183830	16856.394000	1037.624023	352.871765
19348.183830	16856.394000	1036.469727	479.814911
19348.183830	16856.394000	1035.314453	503.970642
19348.183830	16856.394000	1034.159180	572.211121
19348.183830	16856.394000	1033.003906	903.505615
19348.183830	16856.394000	1031.847656	979.781494
19348.183830	16856.394000	1030.692383	760.308228
19348.183830	16856.394000	1029.536133	963.426697
19348.183830	16856.394000	1028.378906	794.975037
19348.183830	16856.394000	1027.222656	964.142761
19348.183830	16856.394000	1026.065430	308.639679
19348.183830	16856.394000	1024.908203	396.390869
19348.183830	16856.394000	1023.750977	301.726746
19348.183830	16856.394000	1022.593750	137.345078
19348.183830	16856.394000	1021.435547	-60.889378
19348.183830	16856.394000	1020.277344	244.550018
19348.183830	16856.394000	1019.119141	53.491817
19348.183830	16856.394000	1017.959961	275.996063
19348.183830	16856.394000	1016.800781	273.929260
19348.183830	16856.394000	1015.641602	197.385590
19348.183830	16856.394000	1014.482422	115.443565
19348.183830	16856.394000	1013.323242	35.418030
19348.183830	16856.394000	1012.163086	41.189266
19348.183830	16856.394000	1011.002930	117.811340
19348.183830	16856.394000	1009.842773	-74.006371
19348.183830	16856.394000	1008.681641	-289.594574
19348.183830	16856.394000	1007.520508	74.729698
19348.183830	16856.394000	1006.359375	72.621155
19348.183830	16856.394000	1005.198242	-36.095634
19348.183830	16856.394000	1004.037109	110.249611
19348.183830	16856.394000	1002.875000	139.914001
19348.183830	16856.394000	1001.712891	155.840332
19348.183830	16856.394000	1000.550781	324.735992
19348.183830	16856.394000	999.387695	230.115845
19348.183830	16856.394000	998.224609	89.227402
19348.183830	16856.394000	997.061523	327.471375
19348.183830	16856.394000	995.898438	131.949677
19348.183830	16856.394000	994.734375	133.093109
19348.183830	16856.394000	993.571289	85.587852
19348.183830	16856.394000	992.407227	-177.847351
19348.183830	16856.394000	991.242188	53.801472
19348.183830	16856.394000	990.078125	-11.609602
19348.183830	16856.394000	988.913086	177.815872
19348.183830	16856.394000	987.748047	-230.574966
19348.183830	16856.394000	986.583008	-79.162704
19348.183830	16856.394000	985.416992	49.850590
19348.183830	16856.394000	984.250977	294.071838
19348.183830	16856.394000	983.084961	90.210243
19348.183830	16856.394000	981.918945	217.885254
19348.183830	16856.394000	980.751953	-279.327911
19348.183830	16856.394000	979.584961	-164.142700
19348.183830	16856.394000	978.417969	51.888424
19348.183830	16856.394000	977.250977	-92.705009
19348.183830	16856.394000	976.083008	61.312336
19348.183830	16856.394000	974.915039	-52.937023
19348.183830	16856.394000	973.747070	156.980728
19348.183830	16856.394000	972.579102	230.989624
19348.183830	16856.394000	971.410156	98.924561
19348.183830	16856.394000	970.242188	179.803833
19348.183830	16856.394000	969.072266	92.000862
19348.183830	16856.394000	967.903320	159.261734
19348.183830	16856.394000	966.733398	-14.392432
19348.183830	16856.394000	965.563477	6.463608
19348.183830	16856.394000	964.393555	436.033142
19348.183830	16856.394000	963.223633	-29.546982
19348.183830	16856.394000	962.052734	-55.117691
19348.183830	16856.394000	960.881836	137.418106
19348.183830	16856.394000	959.710938	161.482391
19348.183830	16856.394000	958.540039	176.262817
19348.183830	16856.394000	957.368164	183.662521
19348.183830	16856.394000	956.196289	-122.895256
19348.183830	16856.394000	955.024414	62.249760
19348.183830	16856.394000	953.851563	74.127632
19348.183830	16856.394000	952.679688	-376.661346
19348.183830	16856.394000	951.506836	-141.211456
19348.183830	16856.394000	950.333984	169.531403
19348.183830	16856.394000	949.160156	119.700783
19348.183830	16856.394000	947.986328	94.901527
19348.183830	16856.394000	946.812500	20.961809
19348.183830	16856.394000	945.638672	47.772301
19348.183830	16856.394000	944.464844	16.483431
19348.183830	16856.394000	943.290039	125.744331
19348.183830	16856.394000	942.115234	-337.101898
19348.183830	16856.394000	940.940430	-160.182190
19348.183830	16856.394000	939.764648	-25.753693
19348.183830	16856.394000	938.588867	-127.270203
19348.183830	16856.394000	937.413086	74.112022
19348.183830	16856.394000	936.237305	-48.216412
19348.183830	16856.394000	935.060547	19.563494
19348.183830	16856.394000	933.883789	-432.773560
19348.183830	16856.394000	932.707031	-291.893646
19348.183830	16856.394000	931.530273	122.281319
19348.183830	16856.394000	930.352539	-87.507820
19348.183830	16856.394000	929.175781	19.950441
19348.183830	16856.394000	927.998047	-100.178589
19348.183830	16856.394000	926.819336	-57.529762
19348.183830	16856.394000	925.641602	-302.797821
19348.183830	16856.394000	924.462891	100.823112
19348.183830	16856.394000	923.284180	51.683865
19348.183830	16856.394000	922.104492	-170.490417
19348.183830	16856.394000	920.924805	20.229166
19348.183830	16856.394000	919.746094	35.148514
19348.183830	16856.394000	919.551758	107.014267
19348.183830	16856.394000	918.386719	186.966263
19348.183830	16856.394000	917.220703	127.292915
19348.183830	16856.394000	916.054688	-121.930405
19348.183830	16856.394000	914.887695	-106.521576
19348.183830	16856.394000	913.721680	-39.069897
19348.183830	16856.394000	912.554688	-92.388733
19348.183830	16856.394000	911.387695	-310.129272
19348.183830	16856.394000	910.220703	119.450493
19348.183830	16856.394000	909.052734	-50.375568
19348.183830	16856.394000	907.885742	329.051270
19348.183830	16856.394000	906.717773	-233.844116
19348.183830	16856.394000	905.548828	-16.708450
19348.183830	16856.394000	904.380859	-192.609543
19348.183830	16856.394000	903.211914	43.135212
19348.183830	16856.394000	902.042969	-149.322662
19348.183830	16856.394000	900.874023	15.670916
19348.183830	16856.394000	899.704102	-282.637634
19348.183830	16856.394000	898.535156	-113.534882
19348.183830	16856.394000	897.365234	207.089462
19348.183830	16856.394000	896.194336	197.502701
19348.183830	16856.394000	895.024414	-339.308289
19348.183830	16856.394000	893.853516	-4.301637
19348.183830	16856.394000	892.682617	-196.433258
19348.183830	16856.394000	891.511719	-160.308899
19348.183830	16856.394000	890.340820	-169.829254
19348.183830	16856.394000	889.168945	36.306698
19348.183830	16856.394000	887.997070	-45.806179
19348.183830	16856.394000	886.825195	69.011497
19348.183830	16856.394000	885.653320	1.421520
19348.183830	16856.394000	884.480469	-151.079834
19348.183830	16856.394000	883.307617	-160.598877
19348.183830	16856.394000	882.134766	-141.124222
19348.183830	16856.394000	880.961914	395.970764
19348.183830	16856.394000	879.788086	42.697903
19348.183830	16856.394000	878.614258	188.359116
19348.183830	16856.394000	877.440430	383.616180
19348.183830	16856.394000	876.266602	138.119080
19348.183830	16856.394000	875.091797	171.965576
19348.183830	16856.394000	873.916992	-52.712341
19348.183830	16856.394000	872.742188	-269.038086
19348.183830	16856.394000	871.567383	-22.238605
19348.183830	16856.394000	870.391602	131.455643
19348.183830	16856.394000	869.215820	-159.178802
19348.183830	16856.394000	868.040039	64.701439
19348.183830	16856.394000	866.864258	-141.138412
19348.183830	16856.394000	865.687500	-117.674980
19348.183830	16856.394000	864.510742	295.983551
19348.183830	16856.394000	863.333984	304.873901
19348.183830	16856.394000	862.157227	-26.773905
19348.183830	16856.394000	860.979492	122.473610
19348.183830	16856.394000	859.802734	191.181885
19348.183830	16856.394000	858.625000	-169.145081
19348.183830	16856.394000	857.446289	39.810604
19348.183830	16856.394000	856.268555	143.508987
19348.183830	16856.394000	855.089844	-80.575317
19348.183830	16856.394000	853.911133	62.240623
19348.183830	16856.394000	852.731445	-192.662598
19348.183830	16856.394000	851.552734	-148.793594
19348.183830	16856.394000	850.373047	14.505730
19348.183830	16856.394000	849.193359	-5.542593
19348.183830	16856.394000	848.013672	95.863731
19348.183830	16856.394000	846.833008	-152.685837
19348.183830	16856.394000	845.652344	84.501518
19348.183830	16856.394000	844.471680	2.667516
19348.183830	16856.394000	843.291016	169.747253
19348.183830	16856.394000	842.110352	-216.484329
19348.183830	16856.394000	840.928711	65.687119
19348.183830	16856.394000	839.747070	0.302149
19348.183830	16856.394000	838.564453	111.688354
19348.183830	16856.394000	837.382813	-161.269852
19348.183830	16856.394000	836.200195	24.022633
19348.183830	16856.394000	835.017578	69.538055
19348.183830	16856.394000	833.834961	236.174393
19348.183830	16856.394000	832.651367	121.440765
19348.183830	16856.394000	831.467773	84.735283
19348.183830	16856.394000	830.284180	368.188354
19348.183830	16856.394000	829.100586	239.059250
19348.183830	16856.394000	827.916992	157.140518
19348.183830	16856.394000	826.732422	-117.560829
19348.183830	16856.394000	825.547852	229.175720
19348.183830	16856.394000	824.363281	249.753998
19348.183830	16856.394000	823.177734	145.264954
19348.183830	16856.394000	821.992188	153.509262
19348.183830	16856.394000	820.806641	374.814545
19348.183830	16856.394000	819.621094	364.512451
19348.183830	16856.394000	818.434570	59.264061
19348.183830	16856.394000	817.249023	337.696869
19348.183830	16856.394000	816.062500	171.733261
19348.183830	16856.394000	814.875000	202.316040
19348.183830	16856.394000	813.688477	234.891205
19348.183830	16856.394000	812.500977	-102.898346
19348.183830	16856.394000	811.313477	273.330322
19348.183830	16856.394000	810.125977	242.383469
19348.183830	16856.394000	808.937500	317.750092
19348.183830	16856.394000	807.749023	241.772278
19348.183830	16856.394000	806.560547	28.849974
19348.183830	16856.394000	805.372070	245.111664
19348.183830	16856.394000	804.182617	73.077545
19348.183830	16856.394000	802.994141	-31.524540
19348.183830	16856.394000	801.803711	-185.113693
19348.183830	16856.394000	800.614258	443.322113
19348.183830	16856.394000	799.424805	107.931999
19348.183830	16856.394000	798.234375	105.327797
19348.183830	16856.394000	797.043945	141.457352
19348.183830	16856.394000	795.852539	232.625809
19348.183830	16856.394000	794.662109	46.309574
19348.183830	16856.394000	793.470703	37.459160
19348.183830	16856.394000	792.279297	193.715927
19348.183830	16856.394000	791.087891	-100.619728
19348.183830	16856.394000	789.895508	-272.586517
19348.183830	16856.394000	788.703125	117.847633
19348.183830	16856.394000	787.510742	188.246857
19348.183830	16856.394000	786.318359	52.864704
19348.183830	16856.394000	785.125000	-29.550558
19348.183830	16856.394000	783.931641	-22.392447
19348.183830	16856.394000	782.738281	51.887554
19348.183830	16856.394000	781.544922	26.377028
19348.183830	16856.394000	780.350586	-66.298943
19348.183830	16856.394000	779.156250	91.226082
19348.183830	16856.394000	777.961914	-178.450531
19348.183830	16856.394000	776.767578	147.711975
19348.183830	16856.394000	775.572266	-91.450523
19348.183830	16856.394000	774.376953	51.551670
19348.183830	16856.394000	773.181641	-116.457489
19348.183830	16856.394000	771.986328	123.918259
19348.183830	16856.394000	770.790039	-82.711884
19348.183830	16856.394000	769.593750	-47.637341
19348.183830	16856.394000	768.397461	38.137775
19348.183830	16856.394000	767.201172	111.650368
19348.183830	16856.394000	766.003906	-11.771709
19348.183830	16856.394000	764.806641	205.703400
19348.183830	16856.394000	763.609375	-104.422508
19348.183830	16856.394000	762.412109	-85.883972
19348.183830	16856.394000	761.213867	255.037354
19348.183830	16856.394000	760.015625	-211.150665
19348.183830	16856.394000	758.817383	143.747147
19348.183830	16856.394000	757.618164	151.911942
19348.183830	16856.394000	756.419922	111.387321
19348.183830	16856.394000	755.220703	-279.614716
19348.183830	16856.394000	754.021484	141.654160
19348.183830	16856.394000	752.821289	86.855476
19348.183830	16856.394000	751.621094	323.556030
19348.183830	16856.394000	750.420898	400.207001
19348.183830	16856.394000	749.220703	51.816124
19348.183830	16856.394000	748.020508	57.582638
19348.183830	16856.394000	746.819336	346.496002
19348.183830	16856.394000	745.618164	214.588196
19348.183830	16856.394000	744.416992	-77.047043
19348.183830	16856.394000	743.214844	247.964462
19348.183830	16856.394000	742.012695	12.945836
19348.183830	16856.394000	740.810547	-46.225899
19348.183830	16856.394000	739.608398	450.150513
19348.183830	16856.394000	738.406250	514.026367
19348.183830	16856.394000	737.203125	347.621338
19348.183830	16856.394000	736.000000	435.629944
19348.183830	16856.394000	734.795898	444.836334
19348.183830	16856.394000	733.592773	738.541809
19348.183830	16856.394000	732.388672	888.826172
19348.183830	16856.394000	731.184570	752.542297
19348.183830	16856.394000	729.979492	795.777039
19348.183830	16856.394000	728.775391	937.746094
19348.183830	16856.394000	727.570313	559.476257
19348.183830	16856.394000	726.365234	592.502319
19348.183830	16856.394000	725.160156	486.420319
19348.183830	16856.394000	723.954102	194.984818
19348.183830	16856.394000	722.748047	300.451477
19348.183830	16856.394000	721.541992	93.668297
19348.183830	16856.394000	720.334961	-38.567253
19348.183830	16856.394000	719.128906	153.307068
19348.183830	16856.394000	717.921875	25.048033
19348.183830	16856.394000	716.714844	-79.055206
19348.183830	16856.394000	715.506836	142.765457
19348.183830	16856.394000	714.298828	76.816895
19348.183830	16856.394000	713.090820	-13.279398
19348.183830	16856.394000	711.882813	85.609856
19348.183830	16856.394000	710.674805	65.817162
19348.183830	16856.394000	709.465820	-281.586731
19348.183830	16856.394000	708.256836	-317.445129
19348.183830	16856.394000	707.047852	112.728874
19348.183830	16856.394000	705.837891	122.921944
19348.183830	16856.394000	704.627930	76.843719
19348.183830	16856.394000	703.417969	-184.069687
19348.183830	16856.394000	702.208008	-21.393862
19348.183830	16856.394000	700.998047	-93.620384
19348.183830	16856.394000	699.787109	-71.547768
19348.183830	16856.394000	698.576172	-77.604828
19348.183830	16856.394000	697.364258	152.960678
19348.183830	16856.394000	696.153320	-51.720936
19348.183830	16856.394000	694.941406	66.408813
19348.183830	16856.394000	693.729492	228.546341
19348.183830	16856.394000	692.516602	-58.269081
19348.183830	16856.394000	691.304688	-88.568924
19348.183830	16856.394000	690.091797	-227.042923
19348.183830	16856.394000	688.878906	-189.265961
19348.183830	16856.394000	687.665039	-133.509338
19348.183830	16856.394000	686.451172	34.288845
19348.183830	16856.394000	685.237305	-10.151814
19348.183830	16856.394000	684.023438	75.454681
19348.183830	16856.394000	682.809570	68.976379
19348.183830	16856.394000	681.594727	-77.522125
19348.183830	16856.394000	680.379883	7.968571
19348.183830	16856.394000	679.165039	33.422028
19348.183830	16856.394000	677.949219	204.758301
19348.183830	16856.394000	676.733398	280.076721
19348.183830	16856.394000	675.517578	-62.227173
19348.183830	16856.394000	674.301758	-6.904392
19348.183830	16856.394000	673.084961	130.261978
19348.183830	16856.394000	671.869141	-14.188203
19348.183830	16856.394000	670.651367	184.772690
19348.183830	16856.394000	669.434570	16.394482
19348.183830	16856.394000	668.216797	-20.227921
19348.183830	16856.394000	667.000000	-2.991974
19348.183830	16856.394000	665.781250	197.733353
19348.183830	16856.394000	664.563477	260.758667
19348.183830	16856.394000	663.344727	164.254974
19348.183830	16856.394000	662.125977	199.335724
19348.183830	16856.394000	660.907227	-12.724536
19348.183830	16856.394000	659.688477	255.477692
19348.183830	16856.394000	658.468750	204.840988
19348.183830	16856.394000	657.249023	291.639008
19348.183830	16856.394000	656.029297	256.929596
19348.183830	16856.394000	654.808594	100.802704
19348.183830	16856.394000	653.587891	97.993027
19348.183830	16856.394000	652.367188	-6.302921
19348.183830	16856.394000	651.146484	8.814533
19348.183830	16856.394000	649.924805	-57.619270
19348.183830	16856.394000	648.704102	-4.710365
19348.183830	16856.394000	647.482422	91.927124
19348.183830	16856.394000	646.259766	331.657745
19348.183830	16856.394000	645.037109	569.306091
19348.183830	16856.394000	643.815430	115.378387
19348.183830	16856.394000	642.591797	-40.347904
19348.183830	16856.394000	641.369141	72.123810
19348.183830	16856.394000	640.145508	55.492004
19348.183830	16856.394000	638.921875	-94.135529
19348.183830	16856.394000	637.698242	14.347997
19348.183830	16856.394000	636.474609	-28.019001
19348.183830	16856.394000	635.250000	-108.042816
19348.183830	16856.394000	634.025391	46.052299
19348.183830	16856.394000	632.800781	112.839943
19348.183830	16856.394000	631.575195	56.693554
19348.183830	16856.394000	630.349609	30.326353
19348.183830	16856.394000	629.124023	39.669361
19348.183830	16856.394000	627.898438	-42.119850
19348.183830	16856.394000	626.671875	-127.802528
19348.183830	16856.394000	625.445313	71.795410
19348.183830	16856.394000	624.218750	-85.111801
19348.183830	16856.394000	622.992188	-111.253319
19348.183830	16856.394000	621.764648	-184.851273
19348.183830	16856.394000	620.537109	-109.962112
19348.183830	16856.394000	619.309570	-58.813053
19348.183830	16856.394000	618.081055	61.590641
19348.183830	16856.394000	616.852539	176.047897
19348.183830	16856.394000	615.624023	-199.887283
19348.183830	16856.394000	614.395508	17.450451
19348.183830	16856.394000	613.166992	-239.621246
19348.183830	16856.394000	611.937500	-316.712982
19348.183830	16856.394000	610.708008	-123.067078
19348.183830	16856.394000	609.477539	-332.399567
19348.183830	16856.394000	608.248047	-67.649658
19348.183830	16856.394000	607.017578	-134.656906
19348.183830	16856.394000	605.787109	-23.931400
19348.183830	16856.394000	604.555664	-236.859024
19348.183830	16856.394000	603.325195	-60.945709
19348.183830	16856.394000	602.093750	45.904697
19348.183830	16856.394000	600.861328	213.910233
19348.183830	16856.394000	599.629883	-142.628723
19348.183830	16856.394000	598.397461	228.513092
19348.183830	16856.394000	597.165039	-315.006805
19348.183830	16856.394000	595.932617	-26.640564
19348.183830	16856.394000	594.699219	-12.189921
19348.183830	16856.394000	593.465820	177.625458
19348.183830	16856.394000	592.232422	345.753754
19348.183830	16856.394000	590.999023	-41.368599
19348.183830	16856.394000	589.764648	18.597317
19348.183830	16856.394000	588.530273	-106.402451
19348.183830	16856.394000	587.295898	193.734451
19348.183830	16856.394000	586.061523	-9.813500
19348.183830	16856.394000	584.826172	129.028976
19348.183830	16856.394000	583.590820	104.664642
19348.183830	16856.394000	582.355469	-171.273087
19348.183830	16856.394000	581.119141	-49.968655
19348.183830	16856.394000	579.882813	232.494080
19348.183830	16856.394000	578.646484	-143.284805
19348.183830	16856.394000	577.410156	82.247879
19348.183830	16856.394000	576.172852	95.657684
19348.183830	16856.394000	574.935547	336.897461
19348.183830	16856.394000	573.698242	156.043640
19348.183830	16856.394000	572.460938	79.356232
19348.183830	16856.394000	571.222656	-81.595314
19348.183830	16856.394000	569.984375	153.877716
19348.183830	16856.394000	568.746094	24.501955
19348.183830	16856.394000	567.506836	-112.584831
19348.183830	16856.394000	566.267578	175.897537
19348.183830	16856.394000	565.028320	344.759460
19348.183830	16856.394000	563.789063	448.947968
19348.183830	16856.394000	562.548828	290.624207
19348.183830	16856.394000	561.309570	20.771580
19348.183830	16856.394000	560.068359	334.745270
19348.183830	16856.394000	558.828125	380.390289
19348.183830	16856.394000	557.586914	165.728439
19348.183830	16856.394000	556.345703	317.224365
19348.183830	16856.394000	555.104492	380.666382
19348.183830	16856.394000	553.863281	416.758698
19348.183830	16856.394000	552.621094	470.511780
19348.183830	16856.394000	551.378906	152.753052
19348.183830	16856.394000	550.136719	183.206009
19348.183830	16856.394000	548.893555	313.404388
19348.183830	16856.394000	547.650391	531.552185
19348.183830	16856.394000	546.407227	261.198608
19348.183830	16856.394000	545.164063	496.959381
19348.183830	16856.394000	543.919922	506.135559
19348.183830	16856.394000	542.675781	611.037903
19348.183830	16856.394000	541.431641	325.508270
19348.183830	16856.394000	540.186523	295.845581
19348.183830	16856.394000	538.941406	543.334656
19348.183830	16856.394000	537.696289	599.570923
19348.183830	16856.394000	536.451172	702.639832
19348.183830	16856.394000	535.205078	735.509949
19348.183830	16856.394000	533.959961	889.275635
19348.183830	16856.394000	532.712891	442.657654
19348.183830	16856.394000	531.466797	729.021362
19348.183830	16856.394000	530.219727	600.284241
19348.183830	16856.394000	528.972656	711.235718
19348.183830	16856.394000	527.725586	872.798157
19348.183830	16856.394000	526.478516	993.421204
19348.183830	16856.394000	525.230469	915.449158
19348.183830	16856.394000	523.982422	689.598572
19348.183830	16856.394000	522.734375	958.119324
19348.183830	16856.394000	521.485352	932.767334
19348.183830	16856.394000	520.236328	889.918762
19348.183830	16856.394000	518.987305	1014.324890
19348.183830	16856.394000	517.737305	1445.870117
19348.183830	16856.394000	516.488281	1187.144409
19348.183830	16856.394000	515.238281	1286.108398
19348.183830	16856.394000	513.988281	1248.994629
19348.183830	16856.394000	512.737305	1369.223633
19348.183830	16856.394000	511.486328	1390.316895
19348.183830	16856.394000	510.235352	1211.356323
19348.183830	16856.394000	508.984375	1323.624878
19348.183830	16856.394000	507.732422	1146.604858
19348.183830	16856.394000	506.480469	1400.389038
19348.183830	16856.394000	505.228516	1475.509644
19348.183830	16856.394000	503.976563	1635.866211
19348.183830	16856.394000	502.723633	1609.916016
19348.183830	16856.394000	501.470703	1521.843384
19348.183830	16856.394000	500.217773	1902.806274
19348.183830	16856.394000	498.963867	1814.515503
19348.183830	16856.394000	497.709961	1976.093872
19348.183830	16856.394000	496.456055	2005.755615
19348.183830	16856.394000	495.202148	2029.464722
19348.183830	16856.394000	493.947266	2103.373535
19348.183830	16856.394000	492.692383	2273.899414
19348.183830	16856.394000	491.437500	2374.513184
19348.183830	16856.394000	490.181641	2229.170898
19348.183830	16856.394000	488.926758	2555.759277
19348.183830	16856.394000	487.670898	2321.095215
19348.183830	16856.394000	486.414063	2140.488525
19348.183830	16856.394000	485.158203	2696.366455
19348.183830	16856.394000	483.901367	2588.777100
19348.183830	16856.394000	482.644531	2654.929443
19348.183830	16856.394000	481.386719	2716.949707
19348.183830	16856.394000	480.128906	2749.708740
19348.183830	16856.394000	478.871094	2865.229004
19348.183830	16856.394000	477.613281	3407.144043
19348.183830	16856.394000	476.355469	3114.556152
19348.183830	16856.394000	475.096680	3093.930908
19348.183830	16856.394000	473.837891	3306.476074
19348.183830	16856.394000	472.578125	3325.669434
19348.183830	16856.394000	471.319336	3471.796875
19348.183830	16856.394000	470.059570	3413.085693
19348.183830	16856.394000	468.799805	3419.565430
19348.183830	16856.394000	467.539063	3655.025391
19348.183830	16856.394000	466.278320	3756.989502
19348.183830	16856.394000	465.017578	3810.306152
19348.183830	16856.394000	463.756836	3558.787109
19348.183830	16856.394000	462.495117	3834.609131
19348.183830	16856.394000	461.233398	4011.623779
19348.183830	16856.394000	459.971680	3708.707520
19348.183830	16856.394000	458.709961	3784.556396
19348.183830	16856.394000	457.447266	3551.946045
19348.183830	16856.394000	456.184570	3969.128174
19348.183830	16856.394000	454.921875	3998.936035
19348.183830	16856.394000	453.658203	3951.205078
19348.183830	16856.394000	452.394531	3885.561523
19348.183830	16856.394000	451.130859	3840.439453
19348.183830	16856.394000	449.867188	3858.082520
19348.183830	16856.394000	448.602539	4263.130371
19348.183830	16856.394000	447.337891	4227.393066
19348.183830	16856.394000	446.073242	4123.708984
19348.183830	16856.394000	444.807617	4030.820068
19348.183830	16856.394000	443.542969	4353.753418
19348.183830	16856.394000	442.276367	4324.492676
19348.183830	16856.394000	441.010742	4315.513672
19348.183830	16856.394000	439.744141	4447.625488
19348.183830	16856.394000	438.478516	4444.526367
19348.183830	16856.394000	437.210938	4365.701660
19348.183830	16856.394000	435.944336	4481.515137
19348.183830	16856.394000	434.676758	4439.112793
19348.183830	16856.394000	433.409180	4403.378906
19348.183830	16856.394000	432.141602	4437.506348
19348.183830	16856.394000	430.873047	4564.395996
19348.183830	16856.394000	429.604492	4617.346191
19348.183830	16856.394000	428.335938	4715.088379
19348.183830	16856.394000	427.067383	4601.044434
19348.183830	16856.394000	425.797852	5029.368652
19348.183830	16856.394000	424.528320	4629.656250
19348.183830	16856.394000	423.258789	4666.925781
19348.183830	16856.394000	421.988281	4586.182617
19348.183830	16856.394000	420.717773	4905.689453
19348.183830	16856.394000	419.447266	4353.806152
19348.183830	16856.394000	418.175781	4653.193848
19348.183830	16856.394000	416.905273	4620.415527
19348.183830	16856.394000	415.633789	4284.261230
19348.183830	16856.394000	414.362305	4475.819336
19348.183830	16856.394000	413.089844	4787.911133
19348.183830	16856.394000	411.817383	4689.647949
19348.183830	16856.394000	410.544922	4576.399414
19348.183830	16856.394000	409.272461	4404.236328
19348.183830	16856.394000	407.999023	4367.745117
19348.183830	16856.394000	406.725586	4731.982422
19348.183830	16856.394000	405.452148	4472.457031
19348.183830	16856.394000	404.177734	4718.333496
19348.183830	16856.394000	402.903320	4352.109375
19348.183830	16856.394000	401.628906	4725.488281
19348.183830	16856.394000	400.354492	4511.651367
19348.183830	16856.394000	399.079102	4465.340332
19348.183830	16856.394000	397.803711	4180.715820
19348.183830	16856.394000	396.528320	4227.284180
19348.183830	16856.394000	395.251953	4187.767090
19348.183830	16856.394000	393.976563	4166.951660
19348.183830	16856.394000	392.700195	4370.209961
19348.183830	16856.394000	391.422852	4289.319336
19348.183830	16856.394000	390.145508	4375.294434
19348.183830	16856.394000	388.869141	4279.984863
19348.183830	16856.394000	387.590820	4098.352539
19348.183830	16856.394000	386.313477	4144.232422
19348.183830	16856.394000	385.035156	4234.839355
19348.183830	16856.394000	383.756836	4147.814941
19348.183830	16856.394000	382.478516	3997.198486
19348.183830	16856.394000	381.199219	3765.807617
19348.183830	16856.394000	379.919922	4055.662598
19348.183830	16856.394000	378.640625	3624.702637
19348.183830	16856.394000	377.360352	3839.917480
19348.183830	16856.394000	376.080078	3989.240479
19348.183830	16856.394000	374.799805	4362.932129
19348.183830	16856.394000	373.519531	4050.262451
19348.183830	16856.394000	372.238281	3482.023682
19348.183830	16856.394000	370.957031	3615.909668
19348.183830	16856.394000	369.675781	3549.049072
19348.183830	16856.394000	368.394531	3652.965820
19348.183830	16856.394000	367.112305	3349.450928
19348.183830	16856.394000	365.830078	3565.155762
19348.183830	16856.394000	364.546875	3670.746094
19348.183830	16856.394000	363.264648	3257.397217
19348.183830	16856.394000	361.981445	3328.545898
19348.183830	16856.394000	360.698242	3081.357666
19348.183830	16856.394000	359.414063	3180.058594
19348.183830	16856.394000	358.129883	2918.748779
19348.183830	16856.394000	356.845703	2885.840820
19348.183830	16856.394000	355.561523	2839.034668
19348.183830	16856.394000	354.276367	2534.215820
19348.183830	16856.394000	352.991211	2653.979492
19348.183830	16856.394000	351.706055	2326.717285
19348.183830	16856.394000	350.420898	2444.455566
19348.183830	16856.394000	349.134766	2311.490967
19348.183830	16856.394000	347.848633	2243.427246
19348.183830	16856.394000	346.561523	2207.872803
19348.183830	16856.394000	345.275391	2342.808105
19348.183830	16856.394000	343.988281	2109.803711
19348.183830	16856.394000	342.700195	2056.214600
19348.183830	16856.394000	341.413086	1918.010742
19348.183830	16856.394000	340.125000	1775.917480
19348.183830	16856.394000	338.836914	1948.685181
19348.183830	16856.394000	337.548828	1546.104004
19348.183830	16856.394000	336.259766	1631.366943
19348.183830	16856.394000	334.970703	1427.781006
19348.183830	16856.394000	333.681641	1283.984863
19348.183830	16856.394000	332.391602	1033.853271
19348.183830	16856.394000	331.101563	1016.515991
19348.183830	16856.394000	329.811523	1135.674927
19348.183830	16856.394000	328.521484	948.729187
19348.183830	16856.394000	327.230469	1029.569336
19348.183830	16856.394000	325.939453	998.001526
19348.183830	16856.394000	324.648438	940.505432
19348.183830	16856.394000	323.356445	328.219543
19348.183830	16856.394000	322.064453	1043.901123
19348.183830	16856.394000	320.772461	93.559258
19348.183830	16856.394000	319.480469	88.915932
19348.183830	16856.394000	318.187500	126.946373
19348.183830	16856.394000	316.894531	110.023682
19348.183830	16856.394000	315.601563	169.524017
19348.183830	16856.394000	314.307617	-3.004013
19348.183830	16856.394000	313.013672	-279.625122
19348.183830	16856.394000	311.719727	-147.961563
19348.183830	16856.394000	310.425781	23.725657
19348.183830	16856.394000	309.130859	-153.443497
19348.183830	16856.394000	307.835938	-71.318062
19348.183830	16856.394000	306.541016	-214.106934
19348.183830	16856.394000	305.245117	-389.006409
19348.183830	16856.394000	303.949219	397.721924
19348.183830	16856.394000	302.653320	166.049896
19348.183830	16856.394000	301.356445	222.217575
19348.183830	16856.394000	300.060547	544.062134
19348.183830	16856.394000	298.763672	465.605316
