#X		#Y		#Wave		#Intensity
19446.111170	16904.393000	2000.043945	312.324219
19446.111170	16904.393000	1999.080078	-323.185760
19446.111170	16904.393000	1998.116211	165.472473
19446.111170	16904.393000	1997.151367	433.214447
19446.111170	16904.393000	1996.186523	294.325195
19446.111170	16904.393000	1995.222656	63.629528
19446.111170	16904.393000	1994.256836	-466.820465
19446.111170	16904.393000	1993.291992	-219.700516
19446.111170	16904.393000	1992.327148	81.622963
19446.111170	16904.393000	1991.361328	187.126511
19446.111170	16904.393000	1990.395508	-274.333801
19446.111170	16904.393000	1989.429688	157.504105
19446.111170	16904.393000	1988.463867	-346.152405
19446.111170	16904.393000	1987.497070	-125.003517
19446.111170	16904.393000	1986.531250	-114.312492
19446.111170	16904.393000	1985.564453	-153.206711
19446.111170	16904.393000	1984.597656	-24.118551
19446.111170	16904.393000	1983.630859	201.182404
19446.111170	16904.393000	1982.664063	327.418732
19446.111170	16904.393000	1981.696289	55.689827
19446.111170	16904.393000	1980.728516	166.844864
19446.111170	16904.393000	1979.761719	-114.887619
19446.111170	16904.393000	1978.792969	102.215744
19446.111170	16904.393000	1977.825195	-167.276199
19446.111170	16904.393000	1976.857422	148.258804
19446.111170	16904.393000	1975.888672	480.860504
19446.111170	16904.393000	1974.919922	430.753448
19446.111170	16904.393000	1973.951172	25.296356
19446.111170	16904.393000	1972.982422	315.496307
19446.111170	16904.393000	1972.013672	87.586937
19446.111170	16904.393000	1971.043945	-12.099898
19446.111170	16904.393000	1970.075195	-77.336098
19446.111170	16904.393000	1969.105469	-93.324432
19446.111170	16904.393000	1968.135742	114.870888
19446.111170	16904.393000	1967.165039	46.956177
19446.111170	16904.393000	1966.195313	77.519379
19446.111170	16904.393000	1965.224609	213.915405
19446.111170	16904.393000	1964.253906	384.662201
19446.111170	16904.393000	1963.283203	245.051422
19446.111170	16904.393000	1962.312500	132.503647
19446.111170	16904.393000	1961.341797	556.474487
19446.111170	16904.393000	1960.370117	-146.783798
19446.111170	16904.393000	1959.399414	139.180679
19446.111170	16904.393000	1958.427734	56.018337
19446.111170	16904.393000	1957.455078	-59.128098
19446.111170	16904.393000	1956.483398	211.752045
19446.111170	16904.393000	1955.511719	67.000511
19446.111170	16904.393000	1954.539063	27.958786
19446.111170	16904.393000	1953.566406	222.348099
19446.111170	16904.393000	1952.593750	75.088455
19446.111170	16904.393000	1951.621094	453.552948
19446.111170	16904.393000	1950.647461	200.617798
19446.111170	16904.393000	1949.674805	166.278427
19446.111170	16904.393000	1948.701172	77.914169
19446.111170	16904.393000	1947.727539	244.839996
19446.111170	16904.393000	1946.753906	-20.290005
19446.111170	16904.393000	1945.780273	107.264145
19446.111170	16904.393000	1944.805664	-13.043675
19446.111170	16904.393000	1943.831055	-179.941498
19446.111170	16904.393000	1942.856445	403.658173
19446.111170	16904.393000	1941.881836	295.538086
19446.111170	16904.393000	1940.907227	37.887218
19446.111170	16904.393000	1939.932617	103.855438
19446.111170	16904.393000	1938.957031	-158.603806
19446.111170	16904.393000	1937.981445	-175.960831
19446.111170	16904.393000	1937.005859	250.074722
19446.111170	16904.393000	1936.030273	-85.800568
19446.111170	16904.393000	1935.054688	-78.730049
19446.111170	16904.393000	1934.078125	577.157410
19446.111170	16904.393000	1933.101563	84.699982
19446.111170	16904.393000	1932.125000	-304.792633
19446.111170	16904.393000	1931.148438	59.532143
19446.111170	16904.393000	1930.171875	135.011292
19446.111170	16904.393000	1929.194336	200.679688
19446.111170	16904.393000	1928.217773	-132.338196
19446.111170	16904.393000	1927.240234	280.553741
19446.111170	16904.393000	1926.262695	172.552872
19446.111170	16904.393000	1925.284180	-130.950607
19446.111170	16904.393000	1924.306641	-4.238556
19446.111170	16904.393000	1923.328125	159.077850
19446.111170	16904.393000	1922.350586	361.408142
19446.111170	16904.393000	1921.372070	-596.507385
19446.111170	16904.393000	1920.392578	45.460781
19446.111170	16904.393000	1919.414063	181.772873
19446.111170	16904.393000	1918.434570	144.723755
19446.111170	16904.393000	1917.456055	-163.238129
19446.111170	16904.393000	1916.476563	175.576523
19446.111170	16904.393000	1915.497070	-51.756279
19446.111170	16904.393000	1914.516602	121.047729
19446.111170	16904.393000	1913.537109	101.108780
19446.111170	16904.393000	1912.556641	-404.051941
19446.111170	16904.393000	1911.576172	458.653168
19446.111170	16904.393000	1910.595703	216.861160
19446.111170	16904.393000	1909.615234	-132.064407
19446.111170	16904.393000	1908.633789	-215.265244
19446.111170	16904.393000	1907.653320	239.933441
19446.111170	16904.393000	1906.671875	-162.373154
19446.111170	16904.393000	1905.690430	-16.609327
19446.111170	16904.393000	1904.708984	-211.759293
19446.111170	16904.393000	1903.727539	389.173157
19446.111170	16904.393000	1902.745117	155.089172
19446.111170	16904.393000	1901.762695	-110.533348
19446.111170	16904.393000	1900.780273	-183.858398
19446.111170	16904.393000	1899.797852	68.793732
19446.111170	16904.393000	1898.815430	165.708191
19446.111170	16904.393000	1897.832031	65.645325
19446.111170	16904.393000	1896.849609	-233.739914
19446.111170	16904.393000	1895.866211	45.491146
19446.111170	16904.393000	1894.882813	-61.781364
19446.111170	16904.393000	1893.898438	-149.562805
19446.111170	16904.393000	1892.915039	59.051678
19446.111170	16904.393000	1891.930664	78.153008
19446.111170	16904.393000	1890.947266	-427.291504
19446.111170	16904.393000	1889.962891	-116.757401
19446.111170	16904.393000	1888.977539	208.239487
19446.111170	16904.393000	1887.993164	-442.552338
19446.111170	16904.393000	1887.007813	173.567276
19446.111170	16904.393000	1886.023438	-197.973495
19446.111170	16904.393000	1885.038086	303.865356
19446.111170	16904.393000	1884.051758	141.024887
19446.111170	16904.393000	1883.066406	-315.156647
19446.111170	16904.393000	1882.081055	70.053436
19446.111170	16904.393000	1881.094727	307.274506
19446.111170	16904.393000	1880.108398	-100.211235
19446.111170	16904.393000	1879.122070	-260.408142
19446.111170	16904.393000	1878.135742	-284.894745
19446.111170	16904.393000	1877.148438	-188.262680
19446.111170	16904.393000	1876.162109	174.693390
19446.111170	16904.393000	1875.174805	181.614807
19446.111170	16904.393000	1874.187500	-174.571762
19446.111170	16904.393000	1873.199219	-298.278381
19446.111170	16904.393000	1872.211914	-274.350464
19446.111170	16904.393000	1871.223633	141.497772
19446.111170	16904.393000	1870.236328	-250.719757
19446.111170	16904.393000	1869.248047	-318.725128
19446.111170	16904.393000	1868.258789	-45.772877
19446.111170	16904.393000	1867.270508	193.209595
19446.111170	16904.393000	1866.282227	219.399948
19446.111170	16904.393000	1865.292969	156.163315
19446.111170	16904.393000	1864.303711	-1.284635
19446.111170	16904.393000	1863.314453	-122.452354
19446.111170	16904.393000	1862.324219	174.251785
19446.111170	16904.393000	1861.334961	156.908234
19446.111170	16904.393000	1860.344727	-275.693695
19446.111170	16904.393000	1859.354492	-396.760193
19446.111170	16904.393000	1858.364258	-30.291964
19446.111170	16904.393000	1857.374023	-6.613882
19446.111170	16904.393000	1856.383789	-303.820404
19446.111170	16904.393000	1855.392578	392.836212
19446.111170	16904.393000	1854.401367	293.391907
19446.111170	16904.393000	1853.410156	218.076523
19446.111170	16904.393000	1852.418945	342.858063
19446.111170	16904.393000	1851.426758	-265.125305
19446.111170	16904.393000	1850.435547	-22.265409
19446.111170	16904.393000	1849.443359	90.394501
19446.111170	16904.393000	1848.451172	159.628830
19446.111170	16904.393000	1847.458984	108.393860
19446.111170	16904.393000	1846.466797	107.720093
19446.111170	16904.393000	1845.473633	-42.234898
19446.111170	16904.393000	1844.480469	-40.509155
19446.111170	16904.393000	1843.487305	21.353588
19446.111170	16904.393000	1842.494141	143.317413
19446.111170	16904.393000	1841.500977	-21.067667
19446.111170	16904.393000	1840.506836	-173.382523
19446.111170	16904.393000	1839.513672	309.184601
19446.111170	16904.393000	1838.519531	231.339859
19446.111170	16904.393000	1837.525391	372.244629
19446.111170	16904.393000	1836.530273	118.915558
19446.111170	16904.393000	1835.536133	221.277893
19446.111170	16904.393000	1834.541016	-147.313980
19446.111170	16904.393000	1833.545898	70.305313
19446.111170	16904.393000	1832.550781	-43.618935
19446.111170	16904.393000	1831.555664	-107.110931
19446.111170	16904.393000	1830.560547	47.851982
19446.111170	16904.393000	1829.564453	3.508868
19446.111170	16904.393000	1828.568359	16.736210
19446.111170	16904.393000	1827.572266	361.033234
19446.111170	16904.393000	1826.576172	206.188217
19446.111170	16904.393000	1825.580078	68.149597
19446.111170	16904.393000	1824.583008	124.367195
19446.111170	16904.393000	1823.585938	-119.169022
19446.111170	16904.393000	1822.588867	159.911255
19446.111170	16904.393000	1821.591797	213.556488
19446.111170	16904.393000	1820.594727	190.461227
19446.111170	16904.393000	1819.596680	49.942249
19446.111170	16904.393000	1818.599609	536.992554
19446.111170	16904.393000	1817.601563	73.066780
19446.111170	16904.393000	1816.603516	128.854401
19446.111170	16904.393000	1815.604492	74.457214
19446.111170	16904.393000	1814.606445	43.958447
19446.111170	16904.393000	1813.607422	75.648277
19446.111170	16904.393000	1812.608398	499.657837
19446.111170	16904.393000	1811.609375	52.724670
19446.111170	16904.393000	1810.610352	89.023842
19446.111170	16904.393000	1809.610352	-22.987696
19446.111170	16904.393000	1808.611328	520.047363
19446.111170	16904.393000	1807.611328	144.949905
19446.111170	16904.393000	1806.611328	295.710724
19446.111170	16904.393000	1805.610352	97.513176
19446.111170	16904.393000	1804.610352	131.054855
19446.111170	16904.393000	1803.609375	109.597618
19446.111170	16904.393000	1802.608398	326.898163
19446.111170	16904.393000	1801.607422	372.147217
19446.111170	16904.393000	1800.606445	262.156647
19446.111170	16904.393000	1799.605469	-141.417969
19446.111170	16904.393000	1798.603516	75.532127
19446.111170	16904.393000	1797.601563	137.263962
19446.111170	16904.393000	1796.599609	8.081590
19446.111170	16904.393000	1795.597656	-87.730446
19446.111170	16904.393000	1794.595703	-205.024323
19446.111170	16904.393000	1793.592773	206.913895
19446.111170	16904.393000	1792.589844	120.470520
19446.111170	16904.393000	1791.587891	3.004730
19446.111170	16904.393000	1790.583984	273.905334
19446.111170	16904.393000	1789.581055	254.001129
19446.111170	16904.393000	1788.577148	295.970245
19446.111170	16904.393000	1787.574219	442.621826
19446.111170	16904.393000	1786.570313	189.176743
19446.111170	16904.393000	1785.566406	-297.517273
19446.111170	16904.393000	1784.561523	53.647720
19446.111170	16904.393000	1783.557617	178.551849
19446.111170	16904.393000	1782.552734	-127.264267
19446.111170	16904.393000	1781.547852	-226.097122
19446.111170	16904.393000	1780.542969	-213.193268
19446.111170	16904.393000	1779.538086	87.333542
19446.111170	16904.393000	1778.532227	7.325279
19446.111170	16904.393000	1777.527344	183.955917
19446.111170	16904.393000	1776.521484	576.698914
19446.111170	16904.393000	1775.515625	185.180115
19446.111170	16904.393000	1774.508789	242.694427
19446.111170	16904.393000	1773.502930	195.607803
19446.111170	16904.393000	1772.496094	148.471313
19446.111170	16904.393000	1771.489258	113.141640
19446.111170	16904.393000	1770.482422	-62.291771
19446.111170	16904.393000	1769.475586	343.690277
19446.111170	16904.393000	1768.467773	640.304138
19446.111170	16904.393000	1767.460938	338.905060
19446.111170	16904.393000	1766.453125	70.758110
19446.111170	16904.393000	1765.445313	-325.424072
19446.111170	16904.393000	1764.437500	-145.399567
19446.111170	16904.393000	1763.428711	-65.077347
19446.111170	16904.393000	1762.420898	88.597862
19446.111170	16904.393000	1761.412109	180.534958
19446.111170	16904.393000	1760.403320	442.927521
19446.111170	16904.393000	1759.393555	264.577301
19446.111170	16904.393000	1758.384766	474.594879
19446.111170	16904.393000	1757.375000	272.466736
19446.111170	16904.393000	1756.366211	-48.036049
19446.111170	16904.393000	1755.356445	-37.138199
19446.111170	16904.393000	1754.345703	-76.012001
19446.111170	16904.393000	1753.335938	-164.643661
19446.111170	16904.393000	1752.325195	219.784592
19446.111170	16904.393000	1751.315430	31.630676
19446.111170	16904.393000	1750.304688	-64.307472
19446.111170	16904.393000	1749.292969	-98.819244
19446.111170	16904.393000	1748.282227	65.145164
19446.111170	16904.393000	1747.270508	56.449696
19446.111170	16904.393000	1746.259766	168.175751
19446.111170	16904.393000	1745.248047	24.644003
19446.111170	16904.393000	1744.235352	60.588558
19446.111170	16904.393000	1743.223633	56.290558
19446.111170	16904.393000	1742.211914	56.632893
19446.111170	16904.393000	1741.199219	108.826279
19446.111170	16904.393000	1740.186523	-169.496384
19446.111170	16904.393000	1739.173828	-225.991287
19446.111170	16904.393000	1738.160156	-119.760445
19446.111170	16904.393000	1737.147461	-39.599777
19446.111170	16904.393000	1736.133789	-263.775879
19446.111170	16904.393000	1735.120117	-11.663145
19446.111170	16904.393000	1734.106445	39.890839
19446.111170	16904.393000	1733.091797	13.565019
19446.111170	16904.393000	1732.078125	222.814316
19446.111170	16904.393000	1731.063477	33.730816
19446.111170	16904.393000	1730.048828	-157.723511
19446.111170	16904.393000	1729.034180	22.928057
19446.111170	16904.393000	1728.019531	38.599792
19446.111170	16904.393000	1727.003906	214.274933
19446.111170	16904.393000	1725.988281	-238.666229
19446.111170	16904.393000	1724.972656	-178.489075
19446.111170	16904.393000	1723.957031	-513.701172
19446.111170	16904.393000	1722.941406	-119.610832
19446.111170	16904.393000	1721.924805	31.995308
19446.111170	16904.393000	1720.909180	-322.125183
19446.111170	16904.393000	1719.892578	191.364349
19446.111170	16904.393000	1718.875977	-364.967682
19446.111170	16904.393000	1717.858398	14.212953
19446.111170	16904.393000	1716.841797	-227.167511
19446.111170	16904.393000	1715.824219	-196.015213
19446.111170	16904.393000	1714.806641	213.211334
19446.111170	16904.393000	1713.789063	-310.116425
19446.111170	16904.393000	1712.770508	-46.758266
19446.111170	16904.393000	1711.752930	322.056549
19446.111170	16904.393000	1710.734375	139.093124
19446.111170	16904.393000	1709.715820	-285.575409
19446.111170	16904.393000	1708.697266	-137.698563
19446.111170	16904.393000	1707.678711	-578.729004
19446.111170	16904.393000	1706.659180	-163.649597
19446.111170	16904.393000	1705.640625	87.057533
19446.111170	16904.393000	1704.621094	135.980865
19446.111170	16904.393000	1703.600586	137.929321
19446.111170	16904.393000	1702.581055	399.925079
19446.111170	16904.393000	1701.561523	97.082924
19446.111170	16904.393000	1700.541016	12.138412
19446.111170	16904.393000	1699.520508	-70.506317
19446.111170	16904.393000	1698.500000	364.317322
19446.111170	16904.393000	1697.478516	-72.030304
19446.111170	16904.393000	1696.458008	219.692703
19446.111170	16904.393000	1695.436523	148.483871
19446.111170	16904.393000	1694.415039	182.527008
19446.111170	16904.393000	1693.393555	436.389160
19446.111170	16904.393000	1692.372070	170.836609
19446.111170	16904.393000	1691.349609	80.706039
19446.111170	16904.393000	1690.327148	432.431549
19446.111170	16904.393000	1689.304688	330.459198
19446.111170	16904.393000	1688.282227	221.445908
19446.111170	16904.393000	1687.259766	119.419762
19446.111170	16904.393000	1686.236328	559.377380
19446.111170	16904.393000	1685.213867	503.909729
19446.111170	16904.393000	1684.190430	-210.174316
19446.111170	16904.393000	1683.166016	114.989098
19446.111170	16904.393000	1682.142578	311.569550
19446.111170	16904.393000	1681.119141	713.403381
19446.111170	16904.393000	1680.094727	573.635315
19446.111170	16904.393000	1679.070313	825.821472
19446.111170	16904.393000	1678.045898	662.638367
19446.111170	16904.393000	1677.020508	459.812653
19446.111170	16904.393000	1675.996094	403.905304
19446.111170	16904.393000	1674.970703	403.911713
19446.111170	16904.393000	1673.945313	739.509277
19446.111170	16904.393000	1672.919922	986.362915
19446.111170	16904.393000	1671.893555	652.906250
19446.111170	16904.393000	1670.868164	1002.071716
19446.111170	16904.393000	1669.841797	344.893463
19446.111170	16904.393000	1668.815430	707.846008
19446.111170	16904.393000	1667.789063	823.824829
19446.111170	16904.393000	1666.761719	460.196869
19446.111170	16904.393000	1665.735352	469.024139
19446.111170	16904.393000	1664.708008	929.203491
19446.111170	16904.393000	1663.680664	684.264587
19446.111170	16904.393000	1662.653320	495.196625
19446.111170	16904.393000	1661.625000	468.936707
19446.111170	16904.393000	1660.597656	870.445740
19446.111170	16904.393000	1659.569336	1122.983521
19446.111170	16904.393000	1658.541016	538.697144
19446.111170	16904.393000	1657.512695	575.017273
19446.111170	16904.393000	1656.483398	1122.388672
19446.111170	16904.393000	1655.455078	896.022644
19446.111170	16904.393000	1654.425781	871.752991
19446.111170	16904.393000	1653.396484	1042.488647
19446.111170	16904.393000	1652.366211	1143.478882
19446.111170	16904.393000	1651.336914	1065.681519
19446.111170	16904.393000	1650.306641	1398.609619
19446.111170	16904.393000	1649.276367	1360.164673
19446.111170	16904.393000	1648.246094	1470.156372
19446.111170	16904.393000	1647.215820	1248.433350
19446.111170	16904.393000	1646.185547	1235.453979
19446.111170	16904.393000	1645.154297	1222.443970
19446.111170	16904.393000	1644.123047	1438.882935
19446.111170	16904.393000	1643.091797	1715.459595
19446.111170	16904.393000	1642.060547	1354.749268
19446.111170	16904.393000	1641.028320	1353.204224
19446.111170	16904.393000	1639.997070	1805.587646
19446.111170	16904.393000	1638.964844	1634.873169
19446.111170	16904.393000	1637.931641	1934.179077
19446.111170	16904.393000	1636.899414	1474.131836
19446.111170	16904.393000	1635.867188	1882.086060
19446.111170	16904.393000	1634.833984	1834.044922
19446.111170	16904.393000	1633.800781	1015.660034
19446.111170	16904.393000	1632.767578	1807.358398
19446.111170	16904.393000	1631.734375	1590.508667
19446.111170	16904.393000	1630.700195	2025.711304
19446.111170	16904.393000	1629.666016	1868.977539
19446.111170	16904.393000	1628.631836	1548.207153
19446.111170	16904.393000	1627.597656	1375.436401
19446.111170	16904.393000	1626.563477	2360.135742
19446.111170	16904.393000	1625.528320	2115.655273
19446.111170	16904.393000	1624.493164	1725.780151
19446.111170	16904.393000	1623.458008	1947.898193
19446.111170	16904.393000	1622.422852	2012.959961
19446.111170	16904.393000	1621.387695	2449.576172
19446.111170	16904.393000	1620.351563	2272.222412
19446.111170	16904.393000	1619.315430	2028.035034
19446.111170	16904.393000	1618.279297	2335.226318
19446.111170	16904.393000	1617.243164	2028.864136
19446.111170	16904.393000	1616.207031	2149.184082
19446.111170	16904.393000	1615.169922	2209.524902
19446.111170	16904.393000	1614.132813	2276.765625
19446.111170	16904.393000	1613.095703	2399.297852
19446.111170	16904.393000	1612.058594	1899.732300
19446.111170	16904.393000	1611.020508	1794.267578
19446.111170	16904.393000	1609.983398	2276.127930
19446.111170	16904.393000	1608.945313	2168.357422
19446.111170	16904.393000	1607.907227	2267.838379
19446.111170	16904.393000	1606.868164	2562.937500
19446.111170	16904.393000	1605.830078	2305.648193
19446.111170	16904.393000	1604.791016	2303.866455
19446.111170	16904.393000	1603.751953	2447.025146
19446.111170	16904.393000	1602.712891	2820.145508
19446.111170	16904.393000	1601.673828	2751.650391
19446.111170	16904.393000	1600.633789	2722.289551
19446.111170	16904.393000	1599.594727	2610.224121
19446.111170	16904.393000	1598.554688	2773.999023
19446.111170	16904.393000	1597.513672	2597.689941
19446.111170	16904.393000	1596.473633	2952.133301
19446.111170	16904.393000	1595.433594	2649.602539
19446.111170	16904.393000	1594.392578	2411.519287
19446.111170	16904.393000	1593.351563	2162.089600
19446.111170	16904.393000	1592.310547	2725.361816
19446.111170	16904.393000	1591.268555	2733.073975
19446.111170	16904.393000	1590.227539	2979.457275
19446.111170	16904.393000	1589.185547	2365.509766
19446.111170	16904.393000	1588.143555	2728.926270
19446.111170	16904.393000	1587.100586	3062.428955
19446.111170	16904.393000	1586.058594	3145.944092
19446.111170	16904.393000	1585.015625	2525.751709
19446.111170	16904.393000	1583.972656	2412.338623
19446.111170	16904.393000	1582.929688	2592.315918
19446.111170	16904.393000	1581.886719	2662.313477
19446.111170	16904.393000	1580.843750	2858.309570
19446.111170	16904.393000	1579.799805	2706.198975
19446.111170	16904.393000	1578.755859	2833.531006
19446.111170	16904.393000	1577.711914	2525.940186
19446.111170	16904.393000	1576.666992	2259.723389
19446.111170	16904.393000	1575.623047	2254.528320
19446.111170	16904.393000	1574.578125	2306.593506
19446.111170	16904.393000	1573.533203	2047.623657
19446.111170	16904.393000	1572.488281	2788.183105
19446.111170	16904.393000	1571.443359	2479.050049
19446.111170	16904.393000	1570.397461	2343.839111
19446.111170	16904.393000	1569.351563	2057.903809
19446.111170	16904.393000	1568.305664	1822.424683
19446.111170	16904.393000	1567.259766	1831.563721
19446.111170	16904.393000	1566.213867	1256.017212
19446.111170	16904.393000	1565.166992	1646.798462
19446.111170	16904.393000	1564.120117	2373.139160
19446.111170	16904.393000	1563.073242	1619.994019
19446.111170	16904.393000	1562.026367	1602.153320
19446.111170	16904.393000	1560.978516	1529.634277
19446.111170	16904.393000	1559.930664	2164.488770
19446.111170	16904.393000	1558.883789	2094.331055
19446.111170	16904.393000	1557.834961	1559.042725
19446.111170	16904.393000	1556.787109	1154.021973
19446.111170	16904.393000	1555.739258	1624.649658
19446.111170	16904.393000	1554.690430	1400.009766
19446.111170	16904.393000	1553.641602	1528.763062
19446.111170	16904.393000	1552.592773	1691.727417
19446.111170	16904.393000	1551.542969	1378.643311
19446.111170	16904.393000	1550.494141	1411.947510
19446.111170	16904.393000	1549.444336	1308.713745
19446.111170	16904.393000	1548.394531	1378.633545
19446.111170	16904.393000	1547.344727	1084.446777
19446.111170	16904.393000	1546.293945	1204.647949
19446.111170	16904.393000	1545.244141	1115.575562
19446.111170	16904.393000	1544.193359	1322.366577
19446.111170	16904.393000	1543.142578	1570.114502
19446.111170	16904.393000	1542.090820	1185.736450
19446.111170	16904.393000	1541.040039	1194.913696
19446.111170	16904.393000	1539.988281	790.514404
19446.111170	16904.393000	1538.936523	1045.412964
19446.111170	16904.393000	1537.884766	1100.380127
19446.111170	16904.393000	1536.833008	1146.350708
19446.111170	16904.393000	1535.780273	776.789185
19446.111170	16904.393000	1534.727539	947.921082
19446.111170	16904.393000	1533.674805	771.747498
19446.111170	16904.393000	1532.622070	1415.167969
19446.111170	16904.393000	1531.569336	839.789307
19446.111170	16904.393000	1530.515625	943.174072
19446.111170	16904.393000	1529.461914	660.988586
19446.111170	16904.393000	1528.408203	807.698853
19446.111170	16904.393000	1527.354492	1029.305908
19446.111170	16904.393000	1526.299805	679.622986
19446.111170	16904.393000	1525.246094	321.136444
19446.111170	16904.393000	1524.191406	-82.407234
19446.111170	16904.393000	1523.136719	-80.084694
19446.111170	16904.393000	1522.081055	234.991898
19446.111170	16904.393000	1521.026367	319.042328
19446.111170	16904.393000	1519.970703	432.634277
19446.111170	16904.393000	1518.915039	290.475769
19446.111170	16904.393000	1517.859375	456.352936
19446.111170	16904.393000	1516.802734	33.888592
19446.111170	16904.393000	1515.747070	448.910614
19446.111170	16904.393000	1514.690430	327.761292
19446.111170	16904.393000	1513.633789	202.272995
19446.111170	16904.393000	1512.577148	199.083389
19446.111170	16904.393000	1511.519531	519.347107
19446.111170	16904.393000	1510.461914	170.528824
19446.111170	16904.393000	1509.405273	-42.411133
19446.111170	16904.393000	1508.346680	210.349335
19446.111170	16904.393000	1507.289063	151.392273
19446.111170	16904.393000	1506.231445	171.653793
19446.111170	16904.393000	1505.172852	164.957214
19446.111170	16904.393000	1504.114258	61.328896
19446.111170	16904.393000	1503.055664	-161.749832
19446.111170	16904.393000	1501.996094	-425.205261
19446.111170	16904.393000	1500.937500	272.810089
19446.111170	16904.393000	1499.877930	-292.631378
19446.111170	16904.393000	1498.818359	-131.421951
19446.111170	16904.393000	1497.757813	5.075045
19446.111170	16904.393000	1496.698242	317.522339
19446.111170	16904.393000	1495.637695	-174.733109
19446.111170	16904.393000	1494.577148	-64.892845
19446.111170	16904.393000	1493.516602	-58.592838
19446.111170	16904.393000	1492.456055	-49.887024
19446.111170	16904.393000	1491.394531	-153.637909
19446.111170	16904.393000	1490.333008	96.362495
19446.111170	16904.393000	1489.271484	-455.103851
19446.111170	16904.393000	1488.209961	407.455963
19446.111170	16904.393000	1487.148438	117.530846
19446.111170	16904.393000	1486.085938	100.157425
19446.111170	16904.393000	1485.023438	-97.019592
19446.111170	16904.393000	1483.960938	-273.714417
19446.111170	16904.393000	1482.898438	-270.274048
19446.111170	16904.393000	1481.834961	16.635481
19446.111170	16904.393000	1480.772461	-80.792473
19446.111170	16904.393000	1479.708984	93.910400
19446.111170	16904.393000	1478.644531	84.463890
19446.111170	16904.393000	1477.581055	-88.787285
19446.111170	16904.393000	1476.517578	252.522354
19446.111170	16904.393000	1475.453125	254.794098
19446.111170	16904.393000	1474.388672	-270.270416
19446.111170	16904.393000	1473.323242	71.328003
19446.111170	16904.393000	1472.258789	-103.012825
19446.111170	16904.393000	1471.193359	135.529312
19446.111170	16904.393000	1470.127930	-22.610197
19446.111170	16904.393000	1469.062500	224.850327
19446.111170	16904.393000	1467.997070	382.751160
19446.111170	16904.393000	1466.930664	525.443909
19446.111170	16904.393000	1465.865234	-3.585684
19446.111170	16904.393000	1464.798828	445.474609
19446.111170	16904.393000	1463.731445	445.785828
19446.111170	16904.393000	1462.665039	44.594364
19446.111170	16904.393000	1461.597656	575.236877
19446.111170	16904.393000	1460.530273	360.947998
19446.111170	16904.393000	1459.462891	-172.424332
19446.111170	16904.393000	1458.395508	-100.282143
19446.111170	16904.393000	1457.327148	149.711853
19446.111170	16904.393000	1456.259766	654.638000
19446.111170	16904.393000	1455.191406	305.616028
19446.111170	16904.393000	1454.123047	783.922485
19446.111170	16904.393000	1453.053711	812.469421
19446.111170	16904.393000	1451.985352	671.378784
19446.111170	16904.393000	1450.916016	709.099731
19446.111170	16904.393000	1449.846680	710.708862
19446.111170	16904.393000	1448.776367	473.868774
19446.111170	16904.393000	1447.707031	229.875916
19446.111170	16904.393000	1446.636719	462.739197
19446.111170	16904.393000	1445.566406	596.600891
19446.111170	16904.393000	1444.496094	634.574463
19446.111170	16904.393000	1443.425781	411.491943
19446.111170	16904.393000	1442.354492	562.673157
19446.111170	16904.393000	1441.283203	422.576202
19446.111170	16904.393000	1440.211914	200.294769
19446.111170	16904.393000	1439.140625	489.840668
19446.111170	16904.393000	1438.069336	300.698242
19446.111170	16904.393000	1436.997070	554.547424
19446.111170	16904.393000	1435.924805	243.626648
19446.111170	16904.393000	1434.852539	168.756104
19446.111170	16904.393000	1433.780273	108.209229
19446.111170	16904.393000	1432.707031	18.557148
19446.111170	16904.393000	1431.633789	301.361725
19446.111170	16904.393000	1430.560547	167.005707
19446.111170	16904.393000	1429.487305	333.125671
19446.111170	16904.393000	1428.413086	95.777740
19446.111170	16904.393000	1427.339844	-377.728638
19446.111170	16904.393000	1426.265625	59.433838
19446.111170	16904.393000	1425.191406	339.134552
19446.111170	16904.393000	1424.116211	-155.612747
19446.111170	16904.393000	1423.041992	-128.875000
19446.111170	16904.393000	1421.966797	-313.511169
19446.111170	16904.393000	1420.891602	45.191212
19446.111170	16904.393000	1419.816406	-131.584549
19446.111170	16904.393000	1418.740234	38.156494
19446.111170	16904.393000	1417.665039	-374.447235
19446.111170	16904.393000	1416.588867	-234.620361
19446.111170	16904.393000	1415.512695	-160.616180
19446.111170	16904.393000	1414.435547	221.463181
19446.111170	16904.393000	1413.359375	213.430557
19446.111170	16904.393000	1412.282227	-85.527275
19446.111170	16904.393000	1411.205078	170.839584
19446.111170	16904.393000	1410.127930	-49.457516
19446.111170	16904.393000	1409.049805	-12.910643
19446.111170	16904.393000	1407.972656	179.607788
19446.111170	16904.393000	1406.894531	-86.417038
19446.111170	16904.393000	1405.816406	-395.900177
19446.111170	16904.393000	1404.737305	301.897400
19446.111170	16904.393000	1403.659180	230.750320
19446.111170	16904.393000	1402.580078	331.270020
19446.111170	16904.393000	1401.500977	416.638397
19446.111170	16904.393000	1400.421875	412.128387
19446.111170	16904.393000	1399.341797	253.323410
19446.111170	16904.393000	1398.262695	201.660599
19446.111170	16904.393000	1397.182617	167.760635
19446.111170	16904.393000	1396.102539	248.972565
19446.111170	16904.393000	1395.021484	-65.146988
19446.111170	16904.393000	1393.941406	-527.462952
19446.111170	16904.393000	1392.860352	-220.583954
19446.111170	16904.393000	1391.779297	-228.759277
19446.111170	16904.393000	1390.698242	31.041655
19446.111170	16904.393000	1389.616211	71.239479
19446.111170	16904.393000	1388.535156	-86.497185
19446.111170	16904.393000	1387.453125	35.103371
19446.111170	16904.393000	1386.371094	99.724632
19446.111170	16904.393000	1385.288086	-156.813812
19446.111170	16904.393000	1384.206055	249.100723
19446.111170	16904.393000	1383.123047	63.049671
19446.111170	16904.393000	1382.040039	487.665100
19446.111170	16904.393000	1380.957031	100.606339
19446.111170	16904.393000	1379.873047	593.002258
19446.111170	16904.393000	1378.789063	812.636841
19446.111170	16904.393000	1377.705078	437.161469
19446.111170	16904.393000	1376.621094	890.669189
19446.111170	16904.393000	1375.537109	829.744995
19446.111170	16904.393000	1374.452148	439.151245
19446.111170	16904.393000	1373.367188	573.952271
19446.111170	16904.393000	1372.282227	406.354279
19446.111170	16904.393000	1371.197266	804.821167
19446.111170	16904.393000	1370.112305	682.246582
19446.111170	16904.393000	1369.026367	591.241028
19446.111170	16904.393000	1367.940430	572.821350
19446.111170	16904.393000	1366.854492	546.447449
19446.111170	16904.393000	1365.767578	504.863190
19446.111170	16904.393000	1364.681641	520.812500
19446.111170	16904.393000	1363.594727	397.092682
19446.111170	16904.393000	1362.507813	771.922791
19446.111170	16904.393000	1361.419922	805.855774
19446.111170	16904.393000	1360.333008	356.396149
19446.111170	16904.393000	1359.245117	607.853943
19446.111170	16904.393000	1358.157227	508.787476
19446.111170	16904.393000	1357.069336	326.902740
19446.111170	16904.393000	1355.981445	582.210388
19446.111170	16904.393000	1354.892578	481.392822
19446.111170	16904.393000	1353.803711	543.066528
19446.111170	16904.393000	1352.714844	704.351379
19446.111170	16904.393000	1351.625000	1123.980957
19446.111170	16904.393000	1350.536133	1140.953735
19446.111170	16904.393000	1349.446289	861.523132
19446.111170	16904.393000	1348.356445	1279.066650
19446.111170	16904.393000	1347.266602	1079.161011
19446.111170	16904.393000	1346.175781	956.454712
19446.111170	16904.393000	1345.085938	1178.432983
19446.111170	16904.393000	1343.995117	710.635559
19446.111170	16904.393000	1342.903320	1015.229614
19446.111170	16904.393000	1341.812500	919.953735
19446.111170	16904.393000	1340.720703	943.125671
19446.111170	16904.393000	1339.629883	994.885925
19446.111170	16904.393000	1338.538086	814.583862
19446.111170	16904.393000	1337.445313	793.554626
19446.111170	16904.393000	1336.353516	874.933960
19446.111170	16904.393000	1335.260742	919.228210
19446.111170	16904.393000	1334.167969	867.559326
19446.111170	16904.393000	1333.075195	1066.796997
19446.111170	16904.393000	1331.981445	1018.063538
19446.111170	16904.393000	1330.888672	1055.235596
19446.111170	16904.393000	1329.794922	1073.824707
19446.111170	16904.393000	1328.701172	1094.139526
19446.111170	16904.393000	1327.606445	656.673645
19446.111170	16904.393000	1326.512695	1094.549194
19446.111170	16904.393000	1325.417969	1147.973633
19446.111170	16904.393000	1324.323242	1143.704590
19446.111170	16904.393000	1323.227539	918.177185
19446.111170	16904.393000	1322.132813	1384.118408
19446.111170	16904.393000	1321.037109	853.677612
19446.111170	16904.393000	1319.941406	723.506592
19446.111170	16904.393000	1318.845703	646.021973
19446.111170	16904.393000	1317.750000	851.413574
19446.111170	16904.393000	1316.653320	959.590027
19446.111170	16904.393000	1315.556641	813.335327
19446.111170	16904.393000	1314.459961	931.933289
19446.111170	16904.393000	1313.363281	817.433228
19446.111170	16904.393000	1312.265625	762.794617
19446.111170	16904.393000	1311.167969	375.078674
19446.111170	16904.393000	1310.070313	592.819031
19446.111170	16904.393000	1308.972656	463.619659
19446.111170	16904.393000	1307.874023	207.131851
19446.111170	16904.393000	1306.776367	75.794754
19446.111170	16904.393000	1305.677734	130.951523
19446.111170	16904.393000	1304.579102	291.197906
19446.111170	16904.393000	1303.479492	-8.439597
19446.111170	16904.393000	1302.380859	-7.358337
19446.111170	16904.393000	1301.281250	390.386932
19446.111170	16904.393000	1300.181641	103.379929
19446.111170	16904.393000	1299.081055	324.065399
19446.111170	16904.393000	1297.981445	417.834442
19446.111170	16904.393000	1296.880859	-28.902327
19446.111170	16904.393000	1295.780273	206.340866
19446.111170	16904.393000	1294.679688	387.332001
19446.111170	16904.393000	1293.578125	216.117676
19446.111170	16904.393000	1292.476563	265.113098
19446.111170	16904.393000	1291.375000	165.113632
19446.111170	16904.393000	1290.273438	443.984833
19446.111170	16904.393000	1289.171875	525.295471
19446.111170	16904.393000	1288.069336	292.639282
19446.111170	16904.393000	1286.966797	230.083511
19446.111170	16904.393000	1285.864258	454.638306
19446.111170	16904.393000	1284.761719	309.864594
19446.111170	16904.393000	1283.658203	224.332809
19446.111170	16904.393000	1282.554688	398.160828
19446.111170	16904.393000	1281.451172	375.960327
19446.111170	16904.393000	1280.347656	325.643738
19446.111170	16904.393000	1279.244141	339.061035
19446.111170	16904.393000	1278.139648	211.618851
19446.111170	16904.393000	1277.035156	399.157410
19446.111170	16904.393000	1275.930664	94.304039
19446.111170	16904.393000	1274.825195	305.109955
19446.111170	16904.393000	1273.720703	520.467896
19446.111170	16904.393000	1272.615234	434.349121
19446.111170	16904.393000	1271.508789	557.826355
19446.111170	16904.393000	1270.403320	651.944519
19446.111170	16904.393000	1269.297852	627.282227
19446.111170	16904.393000	1268.191406	293.500183
19446.111170	16904.393000	1267.084961	210.727493
19446.111170	16904.393000	1265.977539	410.312408
19446.111170	16904.393000	1264.871094	351.916779
19446.111170	16904.393000	1263.763672	446.473236
19446.111170	16904.393000	1262.656250	170.587265
19446.111170	16904.393000	1261.548828	364.745514
19446.111170	16904.393000	1260.440430	304.483917
19446.111170	16904.393000	1259.333008	94.065598
19446.111170	16904.393000	1258.224609	98.595314
19446.111170	16904.393000	1257.115234	146.696487
19446.111170	16904.393000	1256.006836	59.007187
19446.111170	16904.393000	1254.897461	-16.777941
19446.111170	16904.393000	1253.788086	196.204254
19446.111170	16904.393000	1252.678711	180.792007
19446.111170	16904.393000	1251.569336	544.018860
19446.111170	16904.393000	1250.458984	330.955963
19446.111170	16904.393000	1249.349609	339.522614
19446.111170	16904.393000	1248.239258	80.632233
19446.111170	16904.393000	1247.127930	205.798889
19446.111170	16904.393000	1246.017578	349.578522
19446.111170	16904.393000	1244.906250	376.244019
19446.111170	16904.393000	1243.794922	204.998322
19446.111170	16904.393000	1242.683594	319.957031
19446.111170	16904.393000	1241.571289	163.804611
19446.111170	16904.393000	1240.459961	117.007233
19446.111170	16904.393000	1239.347656	323.283020
19446.111170	16904.393000	1238.234375	-87.150871
19446.111170	16904.393000	1237.122070	75.085861
19446.111170	16904.393000	1236.008789	-300.913696
19446.111170	16904.393000	1234.896484	-167.538712
19446.111170	16904.393000	1233.782227	-107.482880
19446.111170	16904.393000	1232.668945	-140.719681
19446.111170	16904.393000	1231.555664	-33.494385
19446.111170	16904.393000	1230.441406	-59.384399
19446.111170	16904.393000	1229.327148	-122.959999
19446.111170	16904.393000	1228.211914	-145.017349
19446.111170	16904.393000	1227.097656	-197.707031
19446.111170	16904.393000	1225.982422	-181.393311
19446.111170	16904.393000	1224.867188	-178.802582
19446.111170	16904.393000	1223.751953	-188.932480
19446.111170	16904.393000	1222.635742	-41.551937
19446.111170	16904.393000	1221.520508	-148.076843
19446.111170	16904.393000	1220.404297	-319.219391
19446.111170	16904.393000	1219.287109	-325.715515
19446.111170	16904.393000	1218.170898	-37.527817
19446.111170	16904.393000	1217.053711	128.744659
19446.111170	16904.393000	1215.936523	-5.311712
19446.111170	16904.393000	1214.819336	92.629707
19446.111170	16904.393000	1213.702148	-1.803619
19446.111170	16904.393000	1212.583984	-43.685612
19446.111170	16904.393000	1211.465820	54.171848
19446.111170	16904.393000	1210.347656	142.396240
19446.111170	16904.393000	1209.229492	-66.701385
19446.111170	16904.393000	1208.110352	1.191644
19446.111170	16904.393000	1206.992188	223.797272
19446.111170	16904.393000	1205.873047	68.218773
19446.111170	16904.393000	1204.752930	102.583481
19446.111170	16904.393000	1203.633789	-153.956619
19446.111170	16904.393000	1202.513672	144.986588
19446.111170	16904.393000	1201.393555	152.308762
19446.111170	16904.393000	1200.273438	60.485077
19446.111170	16904.393000	1199.152344	-186.539337
19446.111170	16904.393000	1198.032227	108.841194
19446.111170	16904.393000	1196.911133	-149.954468
19446.111170	16904.393000	1195.790039	240.911072
19446.111170	16904.393000	1194.667969	40.511585
19446.111170	16904.393000	1193.545898	-99.561493
19446.111170	16904.393000	1192.424805	-6.392267
19446.111170	16904.393000	1191.301758	-33.440636
19446.111170	16904.393000	1190.179688	-149.768799
19446.111170	16904.393000	1189.056641	-156.724335
19446.111170	16904.393000	1187.933594	80.432999
19446.111170	16904.393000	1186.810547	-184.329315
19446.111170	16904.393000	1185.687500	-151.731247
19446.111170	16904.393000	1184.563477	-17.078424
19446.111170	16904.393000	1183.440430	131.713211
19446.111170	16904.393000	1182.316406	-51.423409
19446.111170	16904.393000	1181.191406	-5.415498
19446.111170	16904.393000	1180.067383	107.450386
19446.111170	16904.393000	1178.942383	-29.096380
19446.111170	16904.393000	1177.817383	18.153906
19446.111170	16904.393000	1176.692383	-77.073341
19446.111170	16904.393000	1175.566406	-3.322541
19446.111170	16904.393000	1174.440430	-49.094658
19446.111170	16904.393000	1173.314453	-180.738464
19446.111170	16904.393000	1172.188477	-4.012861
19446.111170	16904.393000	1171.062500	-4.985351
19446.111170	16904.393000	1169.935547	168.006317
19446.111170	16904.393000	1168.808594	-266.975830
19446.111170	16904.393000	1167.681641	-146.596939
19446.111170	16904.393000	1166.553711	57.480831
19446.111170	16904.393000	1165.426758	-11.585410
19446.111170	16904.393000	1164.298828	-65.208900
19446.111170	16904.393000	1163.170898	-201.807617
19446.111170	16904.393000	1162.041992	-314.012817
19446.111170	16904.393000	1160.914063	-83.111893
19446.111170	16904.393000	1159.785156	178.586685
19446.111170	16904.393000	1158.656250	-91.459633
19446.111170	16904.393000	1157.526367	-162.573822
19446.111170	16904.393000	1156.397461	-210.097198
19446.111170	16904.393000	1155.267578	-255.401398
19446.111170	16904.393000	1154.137695	-357.649658
19446.111170	16904.393000	1153.006836	-301.555908
19446.111170	16904.393000	1151.876953	-249.046555
19446.111170	16904.393000	1150.746094	65.767731
19446.111170	16904.393000	1149.615234	-367.580505
19446.111170	16904.393000	1148.484375	-270.275696
19446.111170	16904.393000	1147.352539	-132.520493
19446.111170	16904.393000	1146.220703	-275.809326
19446.111170	16904.393000	1145.088867	124.478050
19446.111170	16904.393000	1143.957031	124.778419
19446.111170	16904.393000	1142.825195	-119.869926
19446.111170	16904.393000	1141.692383	-65.181793
19446.111170	16904.393000	1140.559570	-299.053406
19446.111170	16904.393000	1139.426758	-233.911301
19446.111170	16904.393000	1138.292969	45.545113
19446.111170	16904.393000	1137.159180	-121.939438
19446.111170	16904.393000	1136.025391	92.091415
19446.111170	16904.393000	1134.891602	30.203426
19446.111170	16904.393000	1133.757813	-146.842316
19446.111170	16904.393000	1132.623047	-380.312164
19446.111170	16904.393000	1131.488281	205.019730
19446.111170	16904.393000	1130.353516	-165.526917
19446.111170	16904.393000	1129.217773	107.632828
19446.111170	16904.393000	1128.083008	313.604614
19446.111170	16904.393000	1126.947266	113.125221
19446.111170	16904.393000	1125.811523	-3.043751
19446.111170	16904.393000	1124.674805	-20.829464
19446.111170	16904.393000	1123.539063	28.351250
19446.111170	16904.393000	1122.402344	116.581978
19446.111170	16904.393000	1121.265625	158.445160
19446.111170	16904.393000	1120.127930	-17.076620
19446.111170	16904.393000	1118.990234	119.677467
19446.111170	16904.393000	1117.853516	136.856995
19446.111170	16904.393000	1116.714844	441.339661
19446.111170	16904.393000	1115.577148	205.735260
19446.111170	16904.393000	1114.439453	320.284027
19446.111170	16904.393000	1113.300781	401.171082
19446.111170	16904.393000	1112.162109	432.132233
19446.111170	16904.393000	1111.022461	334.985199
19446.111170	16904.393000	1109.883789	461.905945
19446.111170	16904.393000	1108.744141	149.635651
19446.111170	16904.393000	1107.604492	478.617676
19446.111170	16904.393000	1106.463867	517.524841
19446.111170	16904.393000	1105.324219	352.510620
19446.111170	16904.393000	1104.183594	534.272339
19446.111170	16904.393000	1103.042969	422.757843
19446.111170	16904.393000	1101.902344	421.962982
19446.111170	16904.393000	1100.760742	167.524902
19446.111170	16904.393000	1099.619141	294.598816
19446.111170	16904.393000	1098.477539	616.989319
19446.111170	16904.393000	1097.335938	657.493103
19446.111170	16904.393000	1096.193359	488.543701
19446.111170	16904.393000	1095.051758	739.043091
19446.111170	16904.393000	1093.909180	746.530273
19446.111170	16904.393000	1092.765625	479.282135
19446.111170	16904.393000	1091.623047	517.611572
19446.111170	16904.393000	1090.479492	457.260040
19446.111170	16904.393000	1089.335938	632.891846
19446.111170	16904.393000	1088.192383	371.381927
19446.111170	16904.393000	1087.047852	513.764648
19446.111170	16904.393000	1085.903320	361.263214
19446.111170	16904.393000	1084.758789	505.112061
19446.111170	16904.393000	1083.614258	347.576874
19446.111170	16904.393000	1082.469727	251.927246
19446.111170	16904.393000	1081.324219	320.874634
19446.111170	16904.393000	1080.178711	-72.640175
19446.111170	16904.393000	1079.033203	319.211060
19446.111170	16904.393000	1077.886719	447.326965
19446.111170	16904.393000	1076.740234	496.980835
19446.111170	16904.393000	1075.593750	481.356323
19446.111170	16904.393000	1074.447266	382.879425
19446.111170	16904.393000	1073.300781	321.013214
19446.111170	16904.393000	1072.153320	367.458527
19446.111170	16904.393000	1071.005859	244.676773
19446.111170	16904.393000	1069.858398	168.681870
19446.111170	16904.393000	1068.709961	129.484879
19446.111170	16904.393000	1067.561523	-121.098854
19446.111170	16904.393000	1066.413086	106.352814
19446.111170	16904.393000	1065.264648	58.738579
19446.111170	16904.393000	1064.116211	110.935707
19446.111170	16904.393000	1062.966797	149.073898
19446.111170	16904.393000	1061.817383	402.805084
19446.111170	16904.393000	1060.667969	343.688202
19446.111170	16904.393000	1059.517578	402.032349
19446.111170	16904.393000	1058.368164	313.134338
19446.111170	16904.393000	1057.217773	492.959564
19446.111170	16904.393000	1056.067383	272.002411
19446.111170	16904.393000	1054.916016	369.571564
19446.111170	16904.393000	1053.764648	735.606995
19446.111170	16904.393000	1052.613281	684.761475
19446.111170	16904.393000	1051.461914	571.238525
19446.111170	16904.393000	1050.310547	441.114838
19446.111170	16904.393000	1049.158203	340.893890
19446.111170	16904.393000	1048.005859	575.875610
19446.111170	16904.393000	1046.853516	204.904312
19446.111170	16904.393000	1045.700195	489.084686
19446.111170	16904.393000	1044.547852	612.062195
19446.111170	16904.393000	1043.394531	570.827026
19446.111170	16904.393000	1042.240234	306.478973
19446.111170	16904.393000	1041.086914	626.224731
19446.111170	16904.393000	1039.932617	275.420990
19446.111170	16904.393000	1038.778320	608.989868
19446.111170	16904.393000	1037.624023	553.982727
19446.111170	16904.393000	1036.469727	743.032959
19446.111170	16904.393000	1035.314453	645.375305
19446.111170	16904.393000	1034.159180	824.403076
19446.111170	16904.393000	1033.003906	1028.753540
19446.111170	16904.393000	1031.847656	1176.479492
19446.111170	16904.393000	1030.692383	974.176575
19446.111170	16904.393000	1029.536133	1066.889038
19446.111170	16904.393000	1028.378906	1100.601440
19446.111170	16904.393000	1027.222656	967.580078
19446.111170	16904.393000	1026.065430	891.696655
19446.111170	16904.393000	1024.908203	499.288879
19446.111170	16904.393000	1023.750977	609.779236
19446.111170	16904.393000	1022.593750	515.940002
19446.111170	16904.393000	1021.435547	427.332855
19446.111170	16904.393000	1020.277344	641.293884
19446.111170	16904.393000	1019.119141	765.544617
19446.111170	16904.393000	1017.959961	346.638550
19446.111170	16904.393000	1016.800781	110.718864
19446.111170	16904.393000	1015.641602	302.356628
19446.111170	16904.393000	1014.482422	144.982315
19446.111170	16904.393000	1013.323242	592.317505
19446.111170	16904.393000	1012.163086	535.075439
19446.111170	16904.393000	1011.002930	300.057953
19446.111170	16904.393000	1009.842773	806.763977
19446.111170	16904.393000	1008.681641	343.015930
19446.111170	16904.393000	1007.520508	343.194031
19446.111170	16904.393000	1006.359375	607.305054
19446.111170	16904.393000	1005.198242	139.951416
19446.111170	16904.393000	1004.037109	213.247269
19446.111170	16904.393000	1002.875000	730.920837
19446.111170	16904.393000	1001.712891	593.671326
19446.111170	16904.393000	1000.550781	650.519165
19446.111170	16904.393000	999.387695	747.754761
19446.111170	16904.393000	998.224609	541.565857
19446.111170	16904.393000	997.061523	353.242523
19446.111170	16904.393000	995.898438	163.348083
19446.111170	16904.393000	994.734375	423.834900
19446.111170	16904.393000	993.571289	239.830353
19446.111170	16904.393000	992.407227	394.226349
19446.111170	16904.393000	991.242188	104.488373
19446.111170	16904.393000	990.078125	129.943665
19446.111170	16904.393000	988.913086	140.104645
19446.111170	16904.393000	987.748047	-58.949493
19446.111170	16904.393000	986.583008	218.043915
19446.111170	16904.393000	985.416992	179.624435
19446.111170	16904.393000	984.250977	245.937912
19446.111170	16904.393000	983.084961	224.924759
19446.111170	16904.393000	981.918945	293.832092
19446.111170	16904.393000	980.751953	9.697175
19446.111170	16904.393000	979.584961	384.953308
19446.111170	16904.393000	978.417969	566.136658
19446.111170	16904.393000	977.250977	310.697449
19446.111170	16904.393000	976.083008	362.450012
19446.111170	16904.393000	974.915039	403.427582
19446.111170	16904.393000	973.747070	294.244415
19446.111170	16904.393000	972.579102	319.989441
19446.111170	16904.393000	971.410156	318.947449
19446.111170	16904.393000	970.242188	357.063568
19446.111170	16904.393000	969.072266	-103.220268
19446.111170	16904.393000	967.903320	67.206802
19446.111170	16904.393000	966.733398	135.010666
19446.111170	16904.393000	965.563477	59.619648
19446.111170	16904.393000	964.393555	113.835541
19446.111170	16904.393000	963.223633	261.649597
19446.111170	16904.393000	962.052734	1.338296
19446.111170	16904.393000	960.881836	8.509885
19446.111170	16904.393000	959.710938	370.220093
19446.111170	16904.393000	958.540039	267.243347
19446.111170	16904.393000	957.368164	350.973083
19446.111170	16904.393000	956.196289	382.793182
19446.111170	16904.393000	955.024414	128.329681
19446.111170	16904.393000	953.851563	112.356659
19446.111170	16904.393000	952.679688	359.981293
19446.111170	16904.393000	951.506836	169.910812
19446.111170	16904.393000	950.333984	236.980591
19446.111170	16904.393000	949.160156	342.452759
19446.111170	16904.393000	947.986328	86.123756
19446.111170	16904.393000	946.812500	124.086365
19446.111170	16904.393000	945.638672	152.095490
19446.111170	16904.393000	944.464844	48.855278
19446.111170	16904.393000	943.290039	210.883408
19446.111170	16904.393000	942.115234	-40.779270
19446.111170	16904.393000	940.940430	-38.184528
19446.111170	16904.393000	939.764648	252.109024
19446.111170	16904.393000	938.588867	105.448982
19446.111170	16904.393000	937.413086	-119.671478
19446.111170	16904.393000	936.237305	-293.308044
19446.111170	16904.393000	935.060547	-272.234375
19446.111170	16904.393000	933.883789	-205.678879
19446.111170	16904.393000	932.707031	26.457075
19446.111170	16904.393000	931.530273	306.125580
19446.111170	16904.393000	930.352539	66.130943
19446.111170	16904.393000	929.175781	142.836121
19446.111170	16904.393000	927.998047	-64.184525
19446.111170	16904.393000	926.819336	109.749481
19446.111170	16904.393000	925.641602	312.509186
19446.111170	16904.393000	924.462891	18.653038
19446.111170	16904.393000	923.284180	-84.847824
19446.111170	16904.393000	922.104492	169.439453
19446.111170	16904.393000	920.924805	-68.508057
19446.111170	16904.393000	919.746094	-56.404575
19446.111170	16904.393000	919.551758	40.818043
19446.111170	16904.393000	918.386719	-147.631683
19446.111170	16904.393000	917.220703	-59.130634
19446.111170	16904.393000	916.054688	-32.682133
19446.111170	16904.393000	914.887695	105.271393
19446.111170	16904.393000	913.721680	-110.019508
19446.111170	16904.393000	912.554688	67.055534
19446.111170	16904.393000	911.387695	-59.430531
19446.111170	16904.393000	910.220703	22.556274
19446.111170	16904.393000	909.052734	160.200287
19446.111170	16904.393000	907.885742	237.920258
19446.111170	16904.393000	906.717773	-129.943283
19446.111170	16904.393000	905.548828	-0.680698
19446.111170	16904.393000	904.380859	-32.330120
19446.111170	16904.393000	903.211914	152.460480
19446.111170	16904.393000	902.042969	-246.104935
19446.111170	16904.393000	900.874023	-277.758087
19446.111170	16904.393000	899.704102	-53.959476
19446.111170	16904.393000	898.535156	27.592831
19446.111170	16904.393000	897.365234	-129.780701
19446.111170	16904.393000	896.194336	165.846313
19446.111170	16904.393000	895.024414	24.928232
19446.111170	16904.393000	893.853516	-196.206818
19446.111170	16904.393000	892.682617	68.319031
19446.111170	16904.393000	891.511719	-161.007278
19446.111170	16904.393000	890.340820	-143.450760
19446.111170	16904.393000	889.168945	-263.687042
19446.111170	16904.393000	887.997070	197.931320
19446.111170	16904.393000	886.825195	406.514252
19446.111170	16904.393000	885.653320	14.909970
19446.111170	16904.393000	884.480469	-58.072906
19446.111170	16904.393000	883.307617	90.816612
19446.111170	16904.393000	882.134766	126.666916
19446.111170	16904.393000	880.961914	174.806641
19446.111170	16904.393000	879.788086	-206.154953
19446.111170	16904.393000	878.614258	-59.468784
19446.111170	16904.393000	877.440430	27.631199
19446.111170	16904.393000	876.266602	-369.528381
19446.111170	16904.393000	875.091797	82.710464
19446.111170	16904.393000	873.916992	1.518674
19446.111170	16904.393000	872.742188	-9.937348
19446.111170	16904.393000	871.567383	-17.301754
19446.111170	16904.393000	870.391602	112.657570
19446.111170	16904.393000	869.215820	2.793179
19446.111170	16904.393000	868.040039	169.546814
19446.111170	16904.393000	866.864258	51.496925
19446.111170	16904.393000	865.687500	-172.999496
19446.111170	16904.393000	864.510742	-249.996140
19446.111170	16904.393000	863.333984	21.036566
19446.111170	16904.393000	862.157227	-17.102312
19446.111170	16904.393000	860.979492	-75.690636
19446.111170	16904.393000	859.802734	-52.439545
19446.111170	16904.393000	858.625000	58.753132
19446.111170	16904.393000	857.446289	-390.434692
19446.111170	16904.393000	856.268555	-189.276688
19446.111170	16904.393000	855.089844	-78.147316
19446.111170	16904.393000	853.911133	49.278580
19446.111170	16904.393000	852.731445	-178.890350
19446.111170	16904.393000	851.552734	-163.876923
19446.111170	16904.393000	850.373047	-204.018692
19446.111170	16904.393000	849.193359	-119.586212
19446.111170	16904.393000	848.013672	-29.071619
19446.111170	16904.393000	846.833008	-291.729675
19446.111170	16904.393000	845.652344	-425.717651
19446.111170	16904.393000	844.471680	-20.996548
19446.111170	16904.393000	843.291016	-297.802643
19446.111170	16904.393000	842.110352	-354.231720
19446.111170	16904.393000	840.928711	-176.138214
19446.111170	16904.393000	839.747070	-216.271332
19446.111170	16904.393000	838.564453	-289.001190
19446.111170	16904.393000	837.382813	-208.876831
19446.111170	16904.393000	836.200195	-210.286987
19446.111170	16904.393000	835.017578	12.368796
19446.111170	16904.393000	833.834961	267.506348
19446.111170	16904.393000	832.651367	70.503441
19446.111170	16904.393000	831.467773	-79.607918
19446.111170	16904.393000	830.284180	-52.591587
19446.111170	16904.393000	829.100586	-212.811081
19446.111170	16904.393000	827.916992	-375.012726
19446.111170	16904.393000	826.732422	313.106873
19446.111170	16904.393000	825.547852	148.817947
19446.111170	16904.393000	824.363281	80.145630
19446.111170	16904.393000	823.177734	-126.733742
19446.111170	16904.393000	821.992188	381.871948
19446.111170	16904.393000	820.806641	103.868629
19446.111170	16904.393000	819.621094	-7.443295
19446.111170	16904.393000	818.434570	70.182693
19446.111170	16904.393000	817.249023	-160.919510
19446.111170	16904.393000	816.062500	278.077484
19446.111170	16904.393000	814.875000	118.061806
19446.111170	16904.393000	813.688477	-19.587627
19446.111170	16904.393000	812.500977	-226.176437
19446.111170	16904.393000	811.313477	-37.110184
19446.111170	16904.393000	810.125977	222.850876
19446.111170	16904.393000	808.937500	135.937363
19446.111170	16904.393000	807.749023	-96.930122
19446.111170	16904.393000	806.560547	-238.507996
19446.111170	16904.393000	805.372070	33.373108
19446.111170	16904.393000	804.182617	-61.603226
19446.111170	16904.393000	802.994141	86.518188
19446.111170	16904.393000	801.803711	147.486542
19446.111170	16904.393000	800.614258	169.924408
19446.111170	16904.393000	799.424805	279.382507
19446.111170	16904.393000	798.234375	-161.758499
19446.111170	16904.393000	797.043945	-151.474457
19446.111170	16904.393000	795.852539	44.925808
19446.111170	16904.393000	794.662109	61.180813
19446.111170	16904.393000	793.470703	188.642303
19446.111170	16904.393000	792.279297	168.422318
19446.111170	16904.393000	791.087891	55.189991
19446.111170	16904.393000	789.895508	36.976131
19446.111170	16904.393000	788.703125	81.383041
19446.111170	16904.393000	787.510742	-1.537386
19446.111170	16904.393000	786.318359	42.797997
19446.111170	16904.393000	785.125000	182.001846
19446.111170	16904.393000	783.931641	117.196030
19446.111170	16904.393000	782.738281	-125.255104
19446.111170	16904.393000	781.544922	-151.696213
19446.111170	16904.393000	780.350586	-83.317566
19446.111170	16904.393000	779.156250	-337.780426
19446.111170	16904.393000	777.961914	-25.419743
19446.111170	16904.393000	776.767578	-78.214996
19446.111170	16904.393000	775.572266	-276.178894
19446.111170	16904.393000	774.376953	-306.802734
19446.111170	16904.393000	773.181641	37.383194
19446.111170	16904.393000	771.986328	2.592691
19446.111170	16904.393000	770.790039	130.949570
19446.111170	16904.393000	769.593750	1.415739
19446.111170	16904.393000	768.397461	-97.908287
19446.111170	16904.393000	767.201172	-156.974777
19446.111170	16904.393000	766.003906	-22.833946
19446.111170	16904.393000	764.806641	175.595352
19446.111170	16904.393000	763.609375	51.985840
19446.111170	16904.393000	762.412109	-13.290574
19446.111170	16904.393000	761.213867	253.239090
19446.111170	16904.393000	760.015625	195.890503
19446.111170	16904.393000	758.817383	108.355835
19446.111170	16904.393000	757.618164	-99.778809
19446.111170	16904.393000	756.419922	327.072540
19446.111170	16904.393000	755.220703	159.040161
19446.111170	16904.393000	754.021484	21.143030
19446.111170	16904.393000	752.821289	104.146675
19446.111170	16904.393000	751.621094	64.579887
19446.111170	16904.393000	750.420898	261.826202
19446.111170	16904.393000	749.220703	133.810150
19446.111170	16904.393000	748.020508	172.315643
19446.111170	16904.393000	746.819336	455.480927
19446.111170	16904.393000	745.618164	227.026413
19446.111170	16904.393000	744.416992	323.437164
19446.111170	16904.393000	743.214844	361.603180
19446.111170	16904.393000	742.012695	175.190369
19446.111170	16904.393000	740.810547	555.898560
19446.111170	16904.393000	739.608398	822.169861
19446.111170	16904.393000	738.406250	867.909119
19446.111170	16904.393000	737.203125	853.474792
19446.111170	16904.393000	736.000000	1297.488159
19446.111170	16904.393000	734.795898	1366.893311
19446.111170	16904.393000	733.592773	1582.284180
19446.111170	16904.393000	732.388672	1429.316040
19446.111170	16904.393000	731.184570	1722.461914
19446.111170	16904.393000	729.979492	1155.323853
19446.111170	16904.393000	728.775391	1092.267944
19446.111170	16904.393000	727.570313	707.259094
19446.111170	16904.393000	726.365234	682.126343
19446.111170	16904.393000	725.160156	277.194366
19446.111170	16904.393000	723.954102	387.850098
19446.111170	16904.393000	722.748047	400.475189
19446.111170	16904.393000	721.541992	185.312485
19446.111170	16904.393000	720.334961	233.727081
19446.111170	16904.393000	719.128906	46.437626
19446.111170	16904.393000	717.921875	72.701073
19446.111170	16904.393000	716.714844	104.837036
19446.111170	16904.393000	715.506836	51.067722
19446.111170	16904.393000	714.298828	-174.333954
19446.111170	16904.393000	713.090820	-80.656464
19446.111170	16904.393000	711.882813	-134.676590
19446.111170	16904.393000	710.674805	-142.936707
19446.111170	16904.393000	709.465820	197.488052
19446.111170	16904.393000	708.256836	-175.714859
19446.111170	16904.393000	707.047852	216.142639
19446.111170	16904.393000	705.837891	52.006641
19446.111170	16904.393000	704.627930	-10.618740
19446.111170	16904.393000	703.417969	-127.096184
19446.111170	16904.393000	702.208008	116.651093
19446.111170	16904.393000	700.998047	135.283844
19446.111170	16904.393000	699.787109	149.808243
19446.111170	16904.393000	698.576172	-64.567940
19446.111170	16904.393000	697.364258	232.167114
19446.111170	16904.393000	696.153320	383.487610
19446.111170	16904.393000	694.941406	302.016113
19446.111170	16904.393000	693.729492	188.642456
19446.111170	16904.393000	692.516602	379.235504
19446.111170	16904.393000	691.304688	374.903107
19446.111170	16904.393000	690.091797	213.513153
19446.111170	16904.393000	688.878906	-29.368311
19446.111170	16904.393000	687.665039	130.783432
19446.111170	16904.393000	686.451172	-134.090347
19446.111170	16904.393000	685.237305	-73.500626
19446.111170	16904.393000	684.023438	530.621643
19446.111170	16904.393000	682.809570	366.581909
19446.111170	16904.393000	681.594727	373.044952
19446.111170	16904.393000	680.379883	42.241787
19446.111170	16904.393000	679.165039	244.759094
19446.111170	16904.393000	677.949219	213.142258
19446.111170	16904.393000	676.733398	591.620667
19446.111170	16904.393000	675.517578	484.349396
19446.111170	16904.393000	674.301758	622.610535
19446.111170	16904.393000	673.084961	421.988129
19446.111170	16904.393000	671.869141	367.822388
19446.111170	16904.393000	670.651367	576.826172
19446.111170	16904.393000	669.434570	615.366455
19446.111170	16904.393000	668.216797	228.270081
19446.111170	16904.393000	667.000000	345.686859
19446.111170	16904.393000	665.781250	27.722824
19446.111170	16904.393000	664.563477	306.975006
19446.111170	16904.393000	663.344727	457.425476
19446.111170	16904.393000	662.125977	433.692017
19446.111170	16904.393000	660.907227	253.668198
19446.111170	16904.393000	659.688477	213.847229
19446.111170	16904.393000	658.468750	314.137939
19446.111170	16904.393000	657.249023	260.158691
19446.111170	16904.393000	656.029297	352.160553
19446.111170	16904.393000	654.808594	828.936829
19446.111170	16904.393000	653.587891	521.713684
19446.111170	16904.393000	652.367188	585.457153
19446.111170	16904.393000	651.146484	321.476990
19446.111170	16904.393000	649.924805	347.405762
19446.111170	16904.393000	648.704102	525.008972
19446.111170	16904.393000	647.482422	507.154175
19446.111170	16904.393000	646.259766	573.896851
19446.111170	16904.393000	645.037109	541.884216
19446.111170	16904.393000	643.815430	373.740753
19446.111170	16904.393000	642.591797	298.080750
19446.111170	16904.393000	641.369141	306.970276
19446.111170	16904.393000	640.145508	95.113129
19446.111170	16904.393000	638.921875	247.405502
19446.111170	16904.393000	637.698242	214.415161
19446.111170	16904.393000	636.474609	291.465820
19446.111170	16904.393000	635.250000	191.210114
19446.111170	16904.393000	634.025391	171.468719
19446.111170	16904.393000	632.800781	181.051682
19446.111170	16904.393000	631.575195	158.978516
19446.111170	16904.393000	630.349609	20.736382
19446.111170	16904.393000	629.124023	-7.561846
19446.111170	16904.393000	627.898438	490.614716
19446.111170	16904.393000	626.671875	275.201080
19446.111170	16904.393000	625.445313	240.403870
19446.111170	16904.393000	624.218750	81.709076
19446.111170	16904.393000	622.992188	-67.291771
19446.111170	16904.393000	621.764648	313.597595
19446.111170	16904.393000	620.537109	-83.062050
19446.111170	16904.393000	619.309570	189.365799
19446.111170	16904.393000	618.081055	204.489166
19446.111170	16904.393000	616.852539	54.658382
19446.111170	16904.393000	615.624023	116.482704
19446.111170	16904.393000	614.395508	-33.649296
19446.111170	16904.393000	613.166992	290.441986
19446.111170	16904.393000	611.937500	-65.823593
19446.111170	16904.393000	610.708008	253.827087
19446.111170	16904.393000	609.477539	57.958160
19446.111170	16904.393000	608.248047	-128.220932
19446.111170	16904.393000	607.017578	-126.548782
19446.111170	16904.393000	605.787109	-324.747711
19446.111170	16904.393000	604.555664	-344.957153
19446.111170	16904.393000	603.325195	-54.212524
19446.111170	16904.393000	602.093750	-196.152344
19446.111170	16904.393000	600.861328	-357.792511
19446.111170	16904.393000	599.629883	4.537605
19446.111170	16904.393000	598.397461	-44.065002
19446.111170	16904.393000	597.165039	-233.579269
19446.111170	16904.393000	595.932617	-210.186584
19446.111170	16904.393000	594.699219	-343.316528
19446.111170	16904.393000	593.465820	-347.652618
19446.111170	16904.393000	592.232422	-217.419144
19446.111170	16904.393000	590.999023	-323.703705
19446.111170	16904.393000	589.764648	-26.034031
19446.111170	16904.393000	588.530273	-255.671097
19446.111170	16904.393000	587.295898	51.229198
19446.111170	16904.393000	586.061523	-22.631599
19446.111170	16904.393000	584.826172	-86.908691
19446.111170	16904.393000	583.590820	-69.444443
19446.111170	16904.393000	582.355469	-444.074371
19446.111170	16904.393000	581.119141	-413.286133
19446.111170	16904.393000	579.882813	-217.048523
19446.111170	16904.393000	578.646484	-282.179474
19446.111170	16904.393000	577.410156	-152.666840
19446.111170	16904.393000	576.172852	204.466080
19446.111170	16904.393000	574.935547	-3.440355
19446.111170	16904.393000	573.698242	-125.788002
19446.111170	16904.393000	572.460938	-34.168182
19446.111170	16904.393000	571.222656	-156.845001
19446.111170	16904.393000	569.984375	76.383827
19446.111170	16904.393000	568.746094	-260.608154
19446.111170	16904.393000	567.506836	30.498497
19446.111170	16904.393000	566.267578	-5.353248
19446.111170	16904.393000	565.028320	133.573425
19446.111170	16904.393000	563.789063	-122.271805
19446.111170	16904.393000	562.548828	57.041298
19446.111170	16904.393000	561.309570	100.118423
19446.111170	16904.393000	560.068359	98.295700
19446.111170	16904.393000	558.828125	-142.545288
19446.111170	16904.393000	557.586914	37.808193
19446.111170	16904.393000	556.345703	-201.356094
19446.111170	16904.393000	555.104492	1.848980
19446.111170	16904.393000	553.863281	-169.667984
19446.111170	16904.393000	552.621094	118.412643
19446.111170	16904.393000	551.378906	55.166214
19446.111170	16904.393000	550.136719	-45.074902
19446.111170	16904.393000	548.893555	92.965477
19446.111170	16904.393000	547.650391	85.406021
19446.111170	16904.393000	546.407227	242.370010
19446.111170	16904.393000	545.164063	-3.868869
19446.111170	16904.393000	543.919922	-70.070274
19446.111170	16904.393000	542.675781	53.343857
19446.111170	16904.393000	541.431641	-113.880257
19446.111170	16904.393000	540.186523	16.850737
19446.111170	16904.393000	538.941406	232.494095
19446.111170	16904.393000	537.696289	-268.008789
19446.111170	16904.393000	536.451172	384.400574
19446.111170	16904.393000	535.205078	86.762146
19446.111170	16904.393000	533.959961	-67.836472
19446.111170	16904.393000	532.712891	-67.932144
19446.111170	16904.393000	531.466797	-70.131088
19446.111170	16904.393000	530.219727	159.342941
19446.111170	16904.393000	528.972656	226.256439
19446.111170	16904.393000	527.725586	215.696808
19446.111170	16904.393000	526.478516	102.606842
19446.111170	16904.393000	525.230469	62.725986
19446.111170	16904.393000	523.982422	252.369812
19446.111170	16904.393000	522.734375	268.059021
19446.111170	16904.393000	521.485352	79.018692
19446.111170	16904.393000	520.236328	204.289169
19446.111170	16904.393000	518.987305	358.242462
19446.111170	16904.393000	517.737305	110.862663
19446.111170	16904.393000	516.488281	322.209045
19446.111170	16904.393000	515.238281	540.961609
19446.111170	16904.393000	513.988281	152.444122
19446.111170	16904.393000	512.737305	361.086975
19446.111170	16904.393000	511.486328	278.600708
19446.111170	16904.393000	510.235352	338.442474
19446.111170	16904.393000	508.984375	434.631744
19446.111170	16904.393000	507.732422	775.006042
19446.111170	16904.393000	506.480469	576.184204
19446.111170	16904.393000	505.228516	840.919617
19446.111170	16904.393000	503.976563	920.657166
19446.111170	16904.393000	502.723633	1080.897095
19446.111170	16904.393000	501.470703	810.144897
19446.111170	16904.393000	500.217773	1194.805908
19446.111170	16904.393000	498.963867	1017.844238
19446.111170	16904.393000	497.709961	1194.288940
19446.111170	16904.393000	496.456055	1145.648071
19446.111170	16904.393000	495.202148	1052.613525
19446.111170	16904.393000	493.947266	1472.069580
19446.111170	16904.393000	492.692383	1764.385254
19446.111170	16904.393000	491.437500	1547.663696
19446.111170	16904.393000	490.181641	1580.233398
19446.111170	16904.393000	488.926758	1499.345215
19446.111170	16904.393000	487.670898	1556.316528
19446.111170	16904.393000	486.414063	1726.118164
19446.111170	16904.393000	485.158203	1930.102783
19446.111170	16904.393000	483.901367	1694.703125
19446.111170	16904.393000	482.644531	1903.756714
19446.111170	16904.393000	481.386719	2152.641602
19446.111170	16904.393000	480.128906	1962.408081
19446.111170	16904.393000	478.871094	2457.633545
19446.111170	16904.393000	477.613281	2598.068604
19446.111170	16904.393000	476.355469	2395.418945
19446.111170	16904.393000	475.096680	2458.560791
19446.111170	16904.393000	473.837891	2555.777832
19446.111170	16904.393000	472.578125	2216.354980
19446.111170	16904.393000	471.319336	2310.961670
19446.111170	16904.393000	470.059570	2743.637207
19446.111170	16904.393000	468.799805	2640.380615
19446.111170	16904.393000	467.539063	2511.904053
19446.111170	16904.393000	466.278320	2501.580811
19446.111170	16904.393000	465.017578	2408.689941
19446.111170	16904.393000	463.756836	2869.431885
19446.111170	16904.393000	462.495117	2594.179932
19446.111170	16904.393000	461.233398	2899.112549
19446.111170	16904.393000	459.971680	2588.713623
19446.111170	16904.393000	458.709961	2812.428223
19446.111170	16904.393000	457.447266	2947.755859
19446.111170	16904.393000	456.184570	2716.217773
19446.111170	16904.393000	454.921875	2881.027344
19446.111170	16904.393000	453.658203	2894.564209
19446.111170	16904.393000	452.394531	3119.193115
19446.111170	16904.393000	451.130859	3280.270508
19446.111170	16904.393000	449.867188	3208.203125
19446.111170	16904.393000	448.602539	2983.117188
19446.111170	16904.393000	447.337891	3323.322021
19446.111170	16904.393000	446.073242	3417.067139
19446.111170	16904.393000	444.807617	3146.405029
19446.111170	16904.393000	443.542969	3271.228271
19446.111170	16904.393000	442.276367	3538.016357
19446.111170	16904.393000	441.010742	3434.853760
19446.111170	16904.393000	439.744141	3528.858887
19446.111170	16904.393000	438.478516	3624.023438
19446.111170	16904.393000	437.210938	3609.931885
19446.111170	16904.393000	435.944336	3317.516113
19446.111170	16904.393000	434.676758	3598.462158
19446.111170	16904.393000	433.409180	3439.453857
19446.111170	16904.393000	432.141602	3460.178955
19446.111170	16904.393000	430.873047	3196.938965
19446.111170	16904.393000	429.604492	3250.093506
19446.111170	16904.393000	428.335938	3013.683838
19446.111170	16904.393000	427.067383	3306.086182
19446.111170	16904.393000	425.797852	3134.233154
19446.111170	16904.393000	424.528320	3397.902344
19446.111170	16904.393000	423.258789	3038.143311
19446.111170	16904.393000	421.988281	2899.361084
19446.111170	16904.393000	420.717773	3083.828613
19446.111170	16904.393000	419.447266	3232.960693
19446.111170	16904.393000	418.175781	3090.809326
19446.111170	16904.393000	416.905273	3358.819336
19446.111170	16904.393000	415.633789	3146.080078
19446.111170	16904.393000	414.362305	2915.123047
19446.111170	16904.393000	413.089844	3082.535645
19446.111170	16904.393000	411.817383	2998.602783
19446.111170	16904.393000	410.544922	3432.045898
19446.111170	16904.393000	409.272461	3407.752686
19446.111170	16904.393000	407.999023	3223.021973
19446.111170	16904.393000	406.725586	3080.396240
19446.111170	16904.393000	405.452148	3151.921387
19446.111170	16904.393000	404.177734	3087.525635
19446.111170	16904.393000	402.903320	2747.396729
19446.111170	16904.393000	401.628906	2984.155029
19446.111170	16904.393000	400.354492	2922.404053
19446.111170	16904.393000	399.079102	2968.449707
19446.111170	16904.393000	397.803711	3080.667725
19446.111170	16904.393000	396.528320	2896.365234
19446.111170	16904.393000	395.251953	2608.211670
19446.111170	16904.393000	393.976563	2524.053467
19446.111170	16904.393000	392.700195	2564.306152
19446.111170	16904.393000	391.422852	2900.540527
19446.111170	16904.393000	390.145508	2845.875977
19446.111170	16904.393000	388.869141	2560.912598
19446.111170	16904.393000	387.590820	2884.648682
19446.111170	16904.393000	386.313477	2561.252197
19446.111170	16904.393000	385.035156	2333.572510
19446.111170	16904.393000	383.756836	2160.096924
19446.111170	16904.393000	382.478516	2313.923584
19446.111170	16904.393000	381.199219	2336.954102
19446.111170	16904.393000	379.919922	2180.325439
19446.111170	16904.393000	378.640625	2102.037109
19446.111170	16904.393000	377.360352	1938.101563
19446.111170	16904.393000	376.080078	1861.739258
19446.111170	16904.393000	374.799805	1908.566040
19446.111170	16904.393000	373.519531	1724.766724
19446.111170	16904.393000	372.238281	1900.881226
19446.111170	16904.393000	370.957031	1818.042358
19446.111170	16904.393000	369.675781	2094.855713
19446.111170	16904.393000	368.394531	1870.163086
19446.111170	16904.393000	367.112305	1846.898560
19446.111170	16904.393000	365.830078	1607.872559
19446.111170	16904.393000	364.546875	1802.927979
19446.111170	16904.393000	363.264648	1639.432373
19446.111170	16904.393000	361.981445	1845.774658
19446.111170	16904.393000	360.698242	1680.272339
19446.111170	16904.393000	359.414063	1370.038208
19446.111170	16904.393000	358.129883	1063.407227
19446.111170	16904.393000	356.845703	962.876648
19446.111170	16904.393000	355.561523	1161.980835
19446.111170	16904.393000	354.276367	1054.643677
19446.111170	16904.393000	352.991211	1068.504883
19446.111170	16904.393000	351.706055	1055.319092
19446.111170	16904.393000	350.420898	936.291748
19446.111170	16904.393000	349.134766	799.273743
19446.111170	16904.393000	347.848633	556.280396
19446.111170	16904.393000	346.561523	576.005737
19446.111170	16904.393000	345.275391	624.452759
19446.111170	16904.393000	343.988281	519.591309
19446.111170	16904.393000	342.700195	238.925537
19446.111170	16904.393000	341.413086	295.435486
19446.111170	16904.393000	340.125000	475.180817
19446.111170	16904.393000	338.836914	155.350647
19446.111170	16904.393000	337.548828	328.982269
19446.111170	16904.393000	336.259766	214.033096
19446.111170	16904.393000	334.970703	59.302639
19446.111170	16904.393000	333.681641	122.535057
19446.111170	16904.393000	332.391602	195.872452
19446.111170	16904.393000	331.101563	98.186188
19446.111170	16904.393000	329.811523	34.844910
19446.111170	16904.393000	328.521484	-41.000320
19446.111170	16904.393000	327.230469	-284.649414
19446.111170	16904.393000	325.939453	69.163925
19446.111170	16904.393000	324.648438	126.222542
19446.111170	16904.393000	323.356445	-106.228889
19446.111170	16904.393000	322.064453	-314.639893
19446.111170	16904.393000	320.772461	205.563873
19446.111170	16904.393000	319.480469	66.883301
19446.111170	16904.393000	318.187500	-110.114159
19446.111170	16904.393000	316.894531	-308.555237
19446.111170	16904.393000	315.601563	-213.800430
19446.111170	16904.393000	314.307617	69.188164
19446.111170	16904.393000	313.013672	-243.531937
19446.111170	16904.393000	311.719727	-323.362823
19446.111170	16904.393000	310.425781	41.520435
19446.111170	16904.393000	309.130859	-390.839325
19446.111170	16904.393000	307.835938	168.003082
19446.111170	16904.393000	306.541016	-559.427490
19446.111170	16904.393000	305.245117	-216.766434
19446.111170	16904.393000	303.949219	289.976868
19446.111170	16904.393000	302.653320	694.663513
19446.111170	16904.393000	301.356445	1061.817627
19446.111170	16904.393000	300.060547	1503.423218
19446.111170	16904.393000	298.763672	1273.592285
