#X		#Y		#Wave		#Intensity
19466.356064	16952.135500	2000.043945	24.081095
19466.356064	16952.135500	1999.080078	-1.869010
19466.356064	16952.135500	1998.116211	-101.294312
19466.356064	16952.135500	1997.151367	103.822899
19466.356064	16952.135500	1996.186523	-53.194557
19466.356064	16952.135500	1995.222656	-108.905518
19466.356064	16952.135500	1994.256836	-68.274323
19466.356064	16952.135500	1993.291992	289.007599
19466.356064	16952.135500	1992.327148	120.991745
19466.356064	16952.135500	1991.361328	-151.193512
19466.356064	16952.135500	1990.395508	51.644798
19466.356064	16952.135500	1989.429688	53.713341
19466.356064	16952.135500	1988.463867	-283.412231
19466.356064	16952.135500	1987.497070	158.521790
19466.356064	16952.135500	1986.531250	144.991959
19466.356064	16952.135500	1985.564453	-190.201157
19466.356064	16952.135500	1984.597656	-11.279786
19466.356064	16952.135500	1983.630859	145.108429
19466.356064	16952.135500	1982.664063	269.098907
19466.356064	16952.135500	1981.696289	19.751862
19466.356064	16952.135500	1980.728516	-46.898655
19466.356064	16952.135500	1979.761719	165.371597
19466.356064	16952.135500	1978.792969	-128.845337
19466.356064	16952.135500	1977.825195	87.934898
19466.356064	16952.135500	1976.857422	462.441406
19466.356064	16952.135500	1975.888672	138.181793
19466.356064	16952.135500	1974.919922	33.493343
19466.356064	16952.135500	1973.951172	-19.509117
19466.356064	16952.135500	1972.982422	35.886791
19466.356064	16952.135500	1972.013672	-2.604721
19466.356064	16952.135500	1971.043945	106.723755
19466.356064	16952.135500	1970.075195	132.042816
19466.356064	16952.135500	1969.105469	181.871201
19466.356064	16952.135500	1968.135742	182.261414
19466.356064	16952.135500	1967.165039	-21.976587
19466.356064	16952.135500	1966.195313	34.861702
19466.356064	16952.135500	1965.224609	27.525955
19466.356064	16952.135500	1964.253906	-19.319841
19466.356064	16952.135500	1963.283203	133.172363
19466.356064	16952.135500	1962.312500	-29.590876
19466.356064	16952.135500	1961.341797	68.492203
19466.356064	16952.135500	1960.370117	230.427383
19466.356064	16952.135500	1959.399414	333.154388
19466.356064	16952.135500	1958.427734	-4.547983
19466.356064	16952.135500	1957.455078	336.575653
19466.356064	16952.135500	1956.483398	387.336456
19466.356064	16952.135500	1955.511719	34.811790
19466.356064	16952.135500	1954.539063	314.051361
19466.356064	16952.135500	1953.566406	128.641083
19466.356064	16952.135500	1952.593750	142.252274
19466.356064	16952.135500	1951.621094	381.802216
19466.356064	16952.135500	1950.647461	230.673935
19466.356064	16952.135500	1949.674805	349.665344
19466.356064	16952.135500	1948.701172	-49.497997
19466.356064	16952.135500	1947.727539	133.219086
19466.356064	16952.135500	1946.753906	-47.424763
19466.356064	16952.135500	1945.780273	279.903320
19466.356064	16952.135500	1944.805664	337.191010
19466.356064	16952.135500	1943.831055	313.465576
19466.356064	16952.135500	1942.856445	-41.381805
19466.356064	16952.135500	1941.881836	354.192352
19466.356064	16952.135500	1940.907227	291.135712
19466.356064	16952.135500	1939.932617	232.970169
19466.356064	16952.135500	1938.957031	216.460098
19466.356064	16952.135500	1937.981445	8.810282
19466.356064	16952.135500	1937.005859	-117.949806
19466.356064	16952.135500	1936.030273	17.388908
19466.356064	16952.135500	1935.054688	196.734650
19466.356064	16952.135500	1934.078125	106.671677
19466.356064	16952.135500	1933.101563	185.529617
19466.356064	16952.135500	1932.125000	171.335648
19466.356064	16952.135500	1931.148438	-82.679993
19466.356064	16952.135500	1930.171875	111.109375
19466.356064	16952.135500	1929.194336	3.943878
19466.356064	16952.135500	1928.217773	85.119499
19466.356064	16952.135500	1927.240234	19.546402
19466.356064	16952.135500	1926.262695	34.665245
19466.356064	16952.135500	1925.284180	228.210037
19466.356064	16952.135500	1924.306641	-245.498001
19466.356064	16952.135500	1923.328125	111.722519
19466.356064	16952.135500	1922.350586	92.591164
19466.356064	16952.135500	1921.372070	17.291126
19466.356064	16952.135500	1920.392578	159.360641
19466.356064	16952.135500	1919.414063	-6.262095
19466.356064	16952.135500	1918.434570	91.820801
19466.356064	16952.135500	1917.456055	-210.401794
19466.356064	16952.135500	1916.476563	-26.907082
19466.356064	16952.135500	1915.497070	-92.329140
19466.356064	16952.135500	1914.516602	115.481514
19466.356064	16952.135500	1913.537109	172.007690
19466.356064	16952.135500	1912.556641	148.057190
19466.356064	16952.135500	1911.576172	285.025024
19466.356064	16952.135500	1910.595703	31.954878
19466.356064	16952.135500	1909.615234	-35.801105
19466.356064	16952.135500	1908.633789	-247.275299
19466.356064	16952.135500	1907.653320	213.698380
19466.356064	16952.135500	1906.671875	19.326008
19466.356064	16952.135500	1905.690430	287.721100
19466.356064	16952.135500	1904.708984	251.684814
19466.356064	16952.135500	1903.727539	-44.794117
19466.356064	16952.135500	1902.745117	-217.021713
19466.356064	16952.135500	1901.762695	177.800888
19466.356064	16952.135500	1900.780273	-77.099442
19466.356064	16952.135500	1899.797852	105.949402
19466.356064	16952.135500	1898.815430	-109.905876
19466.356064	16952.135500	1897.832031	-379.156921
19466.356064	16952.135500	1896.849609	-244.737885
19466.356064	16952.135500	1895.866211	-39.862747
19466.356064	16952.135500	1894.882813	-56.197803
19466.356064	16952.135500	1893.898438	-16.625393
19466.356064	16952.135500	1892.915039	44.802929
19466.356064	16952.135500	1891.930664	-134.226456
19466.356064	16952.135500	1890.947266	87.500420
19466.356064	16952.135500	1889.962891	221.755859
19466.356064	16952.135500	1888.977539	125.371857
19466.356064	16952.135500	1887.993164	-162.703400
19466.356064	16952.135500	1887.007813	-191.010086
19466.356064	16952.135500	1886.023438	115.501419
19466.356064	16952.135500	1885.038086	159.947189
19466.356064	16952.135500	1884.051758	-33.276451
19466.356064	16952.135500	1883.066406	-211.871948
19466.356064	16952.135500	1882.081055	-60.686695
19466.356064	16952.135500	1881.094727	68.644844
19466.356064	16952.135500	1880.108398	-112.253151
19466.356064	16952.135500	1879.122070	72.786972
19466.356064	16952.135500	1878.135742	80.930901
19466.356064	16952.135500	1877.148438	-167.647278
19466.356064	16952.135500	1876.162109	80.291115
19466.356064	16952.135500	1875.174805	78.778145
19466.356064	16952.135500	1874.187500	11.916329
19466.356064	16952.135500	1873.199219	-30.704266
19466.356064	16952.135500	1872.211914	96.076767
19466.356064	16952.135500	1871.223633	-113.456543
19466.356064	16952.135500	1870.236328	-192.294235
19466.356064	16952.135500	1869.248047	-14.740168
19466.356064	16952.135500	1868.258789	41.859474
19466.356064	16952.135500	1867.270508	-225.499100
19466.356064	16952.135500	1866.282227	167.092438
19466.356064	16952.135500	1865.292969	42.401833
19466.356064	16952.135500	1864.303711	72.392693
19466.356064	16952.135500	1863.314453	227.990250
19466.356064	16952.135500	1862.324219	52.655544
19466.356064	16952.135500	1861.334961	-4.293059
19466.356064	16952.135500	1860.344727	61.914749
19466.356064	16952.135500	1859.354492	70.168304
19466.356064	16952.135500	1858.364258	170.127151
19466.356064	16952.135500	1857.374023	93.905891
19466.356064	16952.135500	1856.383789	94.910149
19466.356064	16952.135500	1855.392578	103.155594
19466.356064	16952.135500	1854.401367	210.269806
19466.356064	16952.135500	1853.410156	136.507965
19466.356064	16952.135500	1852.418945	-202.404007
19466.356064	16952.135500	1851.426758	-20.581364
19466.356064	16952.135500	1850.435547	79.233650
19466.356064	16952.135500	1849.443359	-52.284485
19466.356064	16952.135500	1848.451172	47.493732
19466.356064	16952.135500	1847.458984	14.762918
19466.356064	16952.135500	1846.466797	186.715729
19466.356064	16952.135500	1845.473633	144.330627
19466.356064	16952.135500	1844.480469	241.563263
19466.356064	16952.135500	1843.487305	261.739136
19466.356064	16952.135500	1842.494141	-42.933540
19466.356064	16952.135500	1841.500977	49.437141
19466.356064	16952.135500	1840.506836	281.270935
19466.356064	16952.135500	1839.513672	24.829660
19466.356064	16952.135500	1838.519531	109.891045
19466.356064	16952.135500	1837.525391	161.250671
19466.356064	16952.135500	1836.530273	159.707153
19466.356064	16952.135500	1835.536133	83.653259
19466.356064	16952.135500	1834.541016	-86.084557
19466.356064	16952.135500	1833.545898	260.672150
19466.356064	16952.135500	1832.550781	184.596451
19466.356064	16952.135500	1831.555664	96.523582
19466.356064	16952.135500	1830.560547	262.943054
19466.356064	16952.135500	1829.564453	292.467804
19466.356064	16952.135500	1828.568359	-38.010765
19466.356064	16952.135500	1827.572266	205.061340
19466.356064	16952.135500	1826.576172	229.720490
19466.356064	16952.135500	1825.580078	105.641731
19466.356064	16952.135500	1824.583008	123.074654
19466.356064	16952.135500	1823.585938	-0.979851
19466.356064	16952.135500	1822.588867	196.200165
19466.356064	16952.135500	1821.591797	141.631561
19466.356064	16952.135500	1820.594727	233.223785
19466.356064	16952.135500	1819.596680	92.372780
19466.356064	16952.135500	1818.599609	159.934921
19466.356064	16952.135500	1817.601563	172.362946
19466.356064	16952.135500	1816.603516	84.195023
19466.356064	16952.135500	1815.604492	209.094604
19466.356064	16952.135500	1814.606445	197.482758
19466.356064	16952.135500	1813.607422	185.849091
19466.356064	16952.135500	1812.608398	195.720230
19466.356064	16952.135500	1811.609375	155.322052
19466.356064	16952.135500	1810.610352	122.079712
19466.356064	16952.135500	1809.610352	165.338089
19466.356064	16952.135500	1808.611328	433.274506
19466.356064	16952.135500	1807.611328	3.104830
19466.356064	16952.135500	1806.611328	82.103928
19466.356064	16952.135500	1805.610352	168.208374
19466.356064	16952.135500	1804.610352	118.068497
19466.356064	16952.135500	1803.609375	244.661560
19466.356064	16952.135500	1802.608398	36.840763
19466.356064	16952.135500	1801.607422	17.681671
19466.356064	16952.135500	1800.606445	201.396576
19466.356064	16952.135500	1799.605469	141.557159
19466.356064	16952.135500	1798.603516	-13.745946
19466.356064	16952.135500	1797.601563	40.916874
19466.356064	16952.135500	1796.599609	176.619263
19466.356064	16952.135500	1795.597656	6.960269
19466.356064	16952.135500	1794.595703	28.078020
19466.356064	16952.135500	1793.592773	-65.284668
19466.356064	16952.135500	1792.589844	3.425100
19466.356064	16952.135500	1791.587891	215.043594
19466.356064	16952.135500	1790.583984	64.382164
19466.356064	16952.135500	1789.581055	30.456566
19466.356064	16952.135500	1788.577148	48.897243
19466.356064	16952.135500	1787.574219	331.604095
19466.356064	16952.135500	1786.570313	54.660561
19466.356064	16952.135500	1785.566406	103.887451
19466.356064	16952.135500	1784.561523	186.369064
19466.356064	16952.135500	1783.557617	140.275238
19466.356064	16952.135500	1782.552734	244.030853
19466.356064	16952.135500	1781.547852	55.130795
19466.356064	16952.135500	1780.542969	46.988705
19466.356064	16952.135500	1779.538086	343.143250
19466.356064	16952.135500	1778.532227	-178.632111
19466.356064	16952.135500	1777.527344	131.608551
19466.356064	16952.135500	1776.521484	168.404800
19466.356064	16952.135500	1775.515625	255.025299
19466.356064	16952.135500	1774.508789	63.637939
19466.356064	16952.135500	1773.502930	112.140221
19466.356064	16952.135500	1772.496094	63.217831
19466.356064	16952.135500	1771.489258	-2.360303
19466.356064	16952.135500	1770.482422	131.415268
19466.356064	16952.135500	1769.475586	-48.172558
19466.356064	16952.135500	1768.467773	-14.202261
19466.356064	16952.135500	1767.460938	-120.265877
19466.356064	16952.135500	1766.453125	226.673279
19466.356064	16952.135500	1765.445313	-159.328384
19466.356064	16952.135500	1764.437500	168.404678
19466.356064	16952.135500	1763.428711	14.754706
19466.356064	16952.135500	1762.420898	53.075569
19466.356064	16952.135500	1761.412109	-76.912956
19466.356064	16952.135500	1760.403320	8.677923
19466.356064	16952.135500	1759.393555	46.806442
19466.356064	16952.135500	1758.384766	-31.180851
19466.356064	16952.135500	1757.375000	-97.357544
19466.356064	16952.135500	1756.366211	42.386833
19466.356064	16952.135500	1755.356445	16.339813
19466.356064	16952.135500	1754.345703	-73.647354
19466.356064	16952.135500	1753.335938	16.151405
19466.356064	16952.135500	1752.325195	4.140512
19466.356064	16952.135500	1751.315430	-327.209564
19466.356064	16952.135500	1750.304688	-121.727051
19466.356064	16952.135500	1749.292969	67.070229
19466.356064	16952.135500	1748.282227	12.272260
19466.356064	16952.135500	1747.270508	-37.836201
19466.356064	16952.135500	1746.259766	-7.653197
19466.356064	16952.135500	1745.248047	27.183950
19466.356064	16952.135500	1744.235352	54.862537
19466.356064	16952.135500	1743.223633	110.805214
19466.356064	16952.135500	1742.211914	-90.680786
19466.356064	16952.135500	1741.199219	73.733055
19466.356064	16952.135500	1740.186523	-309.518188
19466.356064	16952.135500	1739.173828	-116.928673
19466.356064	16952.135500	1738.160156	77.884712
19466.356064	16952.135500	1737.147461	-26.998407
19466.356064	16952.135500	1736.133789	52.045437
19466.356064	16952.135500	1735.120117	10.748534
19466.356064	16952.135500	1734.106445	129.708618
19466.356064	16952.135500	1733.091797	111.861252
19466.356064	16952.135500	1732.078125	-207.672272
19466.356064	16952.135500	1731.063477	-138.395950
19466.356064	16952.135500	1730.048828	-80.985359
19466.356064	16952.135500	1729.034180	-30.721615
19466.356064	16952.135500	1728.019531	52.426678
19466.356064	16952.135500	1727.003906	121.359657
19466.356064	16952.135500	1725.988281	-362.937836
19466.356064	16952.135500	1724.972656	-155.225372
19466.356064	16952.135500	1723.957031	-140.588715
19466.356064	16952.135500	1722.941406	-274.221008
19466.356064	16952.135500	1721.924805	109.574532
19466.356064	16952.135500	1720.909180	46.373680
19466.356064	16952.135500	1719.892578	-47.428295
19466.356064	16952.135500	1718.875977	-289.344116
19466.356064	16952.135500	1717.858398	-197.497513
19466.356064	16952.135500	1716.841797	-246.730148
19466.356064	16952.135500	1715.824219	32.899677
19466.356064	16952.135500	1714.806641	131.504532
19466.356064	16952.135500	1713.789063	93.805397
19466.356064	16952.135500	1712.770508	157.024048
19466.356064	16952.135500	1711.752930	1.844782
19466.356064	16952.135500	1710.734375	156.478378
19466.356064	16952.135500	1709.715820	-36.302162
19466.356064	16952.135500	1708.697266	-8.525774
19466.356064	16952.135500	1707.678711	84.864532
19466.356064	16952.135500	1706.659180	194.576614
19466.356064	16952.135500	1705.640625	318.264191
19466.356064	16952.135500	1704.621094	179.278091
19466.356064	16952.135500	1703.600586	82.481857
19466.356064	16952.135500	1702.581055	126.275635
19466.356064	16952.135500	1701.561523	118.453163
19466.356064	16952.135500	1700.541016	-55.742809
19466.356064	16952.135500	1699.520508	-176.056229
19466.356064	16952.135500	1698.500000	68.921555
19466.356064	16952.135500	1697.478516	147.524979
19466.356064	16952.135500	1696.458008	289.248566
19466.356064	16952.135500	1695.436523	194.495132
19466.356064	16952.135500	1694.415039	270.536621
19466.356064	16952.135500	1693.393555	164.023880
19466.356064	16952.135500	1692.372070	66.857841
19466.356064	16952.135500	1691.349609	-49.029636
19466.356064	16952.135500	1690.327148	-115.823410
19466.356064	16952.135500	1689.304688	-19.007334
19466.356064	16952.135500	1688.282227	19.294128
19466.356064	16952.135500	1687.259766	43.513153
19466.356064	16952.135500	1686.236328	-81.846291
19466.356064	16952.135500	1685.213867	131.488754
19466.356064	16952.135500	1684.190430	-59.321980
19466.356064	16952.135500	1683.166016	261.235596
19466.356064	16952.135500	1682.142578	28.362480
19466.356064	16952.135500	1681.119141	-204.464767
19466.356064	16952.135500	1680.094727	-5.541181
19466.356064	16952.135500	1679.070313	-42.383106
19466.356064	16952.135500	1678.045898	84.035461
19466.356064	16952.135500	1677.020508	-1.873591
19466.356064	16952.135500	1675.996094	-78.459557
19466.356064	16952.135500	1674.970703	3.469827
19466.356064	16952.135500	1673.945313	320.744171
19466.356064	16952.135500	1672.919922	-19.321426
19466.356064	16952.135500	1671.893555	102.036331
19466.356064	16952.135500	1670.868164	8.995899
19466.356064	16952.135500	1669.841797	230.374222
19466.356064	16952.135500	1668.815430	81.381966
19466.356064	16952.135500	1667.789063	51.144825
19466.356064	16952.135500	1666.761719	-69.900215
19466.356064	16952.135500	1665.735352	-69.912224
19466.356064	16952.135500	1664.708008	130.144196
19466.356064	16952.135500	1663.680664	88.147881
19466.356064	16952.135500	1662.653320	160.103455
19466.356064	16952.135500	1661.625000	90.143105
19466.356064	16952.135500	1660.597656	-116.995438
19466.356064	16952.135500	1659.569336	117.578438
19466.356064	16952.135500	1658.541016	382.247650
19466.356064	16952.135500	1657.512695	360.971924
19466.356064	16952.135500	1656.483398	467.449768
19466.356064	16952.135500	1655.455078	269.577393
19466.356064	16952.135500	1654.425781	169.288132
19466.356064	16952.135500	1653.396484	122.414307
19466.356064	16952.135500	1652.366211	135.886749
19466.356064	16952.135500	1651.336914	520.687805
19466.356064	16952.135500	1650.306641	281.090576
19466.356064	16952.135500	1649.276367	210.927414
19466.356064	16952.135500	1648.246094	470.156128
19466.356064	16952.135500	1647.215820	341.957184
19466.356064	16952.135500	1646.185547	612.610718
19466.356064	16952.135500	1645.154297	509.891144
19466.356064	16952.135500	1644.123047	402.554871
19466.356064	16952.135500	1643.091797	473.678833
19466.356064	16952.135500	1642.060547	588.781433
19466.356064	16952.135500	1641.028320	608.840271
19466.356064	16952.135500	1639.997070	770.156433
19466.356064	16952.135500	1638.964844	584.051514
19466.356064	16952.135500	1637.931641	752.217712
19466.356064	16952.135500	1636.899414	834.663208
19466.356064	16952.135500	1635.867188	708.781677
19466.356064	16952.135500	1634.833984	488.068176
19466.356064	16952.135500	1633.800781	704.648376
19466.356064	16952.135500	1632.767578	655.152039
19466.356064	16952.135500	1631.734375	936.343628
19466.356064	16952.135500	1630.700195	780.446777
19466.356064	16952.135500	1629.666016	784.096924
19466.356064	16952.135500	1628.631836	619.027344
19466.356064	16952.135500	1627.597656	980.844360
19466.356064	16952.135500	1626.563477	933.607422
19466.356064	16952.135500	1625.528320	817.087036
19466.356064	16952.135500	1624.493164	1003.127563
19466.356064	16952.135500	1623.458008	928.190918
19466.356064	16952.135500	1622.422852	952.543457
19466.356064	16952.135500	1621.387695	891.488892
19466.356064	16952.135500	1620.351563	858.143311
19466.356064	16952.135500	1619.315430	1069.357178
19466.356064	16952.135500	1618.279297	909.127258
19466.356064	16952.135500	1617.243164	827.370605
19466.356064	16952.135500	1616.207031	909.351685
19466.356064	16952.135500	1615.169922	1021.270691
19466.356064	16952.135500	1614.132813	893.448669
19466.356064	16952.135500	1613.095703	871.681396
19466.356064	16952.135500	1612.058594	1091.840820
19466.356064	16952.135500	1611.020508	1106.908447
19466.356064	16952.135500	1609.983398	1085.132813
19466.356064	16952.135500	1608.945313	902.190979
19466.356064	16952.135500	1607.907227	919.612854
19466.356064	16952.135500	1606.868164	1029.102661
19466.356064	16952.135500	1605.830078	827.897217
19466.356064	16952.135500	1604.791016	1006.407898
19466.356064	16952.135500	1603.751953	895.020142
19466.356064	16952.135500	1602.712891	1149.369629
19466.356064	16952.135500	1601.673828	1208.183594
19466.356064	16952.135500	1600.633789	1135.943970
19466.356064	16952.135500	1599.594727	985.599915
19466.356064	16952.135500	1598.554688	1154.764404
19466.356064	16952.135500	1597.513672	864.348389
19466.356064	16952.135500	1596.473633	1463.080688
19466.356064	16952.135500	1595.433594	1064.812012
19466.356064	16952.135500	1594.392578	965.235046
19466.356064	16952.135500	1593.351563	1090.711548
19466.356064	16952.135500	1592.310547	1246.000244
19466.356064	16952.135500	1591.268555	1050.119873
19466.356064	16952.135500	1590.227539	1120.508057
19466.356064	16952.135500	1589.185547	1255.121582
19466.356064	16952.135500	1588.143555	1231.449097
19466.356064	16952.135500	1587.100586	1411.900146
19466.356064	16952.135500	1586.058594	1248.404297
19466.356064	16952.135500	1585.015625	1135.428223
19466.356064	16952.135500	1583.972656	1331.919434
19466.356064	16952.135500	1582.929688	1315.265625
19466.356064	16952.135500	1581.886719	932.104187
19466.356064	16952.135500	1580.843750	1316.430176
19466.356064	16952.135500	1579.799805	1467.051758
19466.356064	16952.135500	1578.755859	1145.998413
19466.356064	16952.135500	1577.711914	1097.509155
19466.356064	16952.135500	1576.666992	1206.987915
19466.356064	16952.135500	1575.623047	1268.410522
19466.356064	16952.135500	1574.578125	1142.244385
19466.356064	16952.135500	1573.533203	1089.360352
19466.356064	16952.135500	1572.488281	1137.157837
19466.356064	16952.135500	1571.443359	819.145325
19466.356064	16952.135500	1570.397461	924.203674
19466.356064	16952.135500	1569.351563	789.277893
19466.356064	16952.135500	1568.305664	951.507385
19466.356064	16952.135500	1567.259766	901.246582
19466.356064	16952.135500	1566.213867	732.267578
19466.356064	16952.135500	1565.166992	725.543274
19466.356064	16952.135500	1564.120117	899.246948
19466.356064	16952.135500	1563.073242	741.914551
19466.356064	16952.135500	1562.026367	917.919861
19466.356064	16952.135500	1560.978516	701.405762
19466.356064	16952.135500	1559.930664	690.357910
19466.356064	16952.135500	1558.883789	880.099609
19466.356064	16952.135500	1557.834961	809.822021
19466.356064	16952.135500	1556.787109	716.821777
19466.356064	16952.135500	1555.739258	669.503540
19466.356064	16952.135500	1554.690430	702.028076
19466.356064	16952.135500	1553.641602	515.825989
19466.356064	16952.135500	1552.592773	539.358948
19466.356064	16952.135500	1551.542969	528.766357
19466.356064	16952.135500	1550.494141	597.945313
19466.356064	16952.135500	1549.444336	489.543213
19466.356064	16952.135500	1548.394531	463.195404
19466.356064	16952.135500	1547.344727	277.588135
19466.356064	16952.135500	1546.293945	453.939117
19466.356064	16952.135500	1545.244141	179.787613
19466.356064	16952.135500	1544.193359	422.173950
19466.356064	16952.135500	1543.142578	473.483276
19466.356064	16952.135500	1542.090820	586.222595
19466.356064	16952.135500	1541.040039	267.030243
19466.356064	16952.135500	1539.988281	102.587631
19466.356064	16952.135500	1538.936523	310.965210
19466.356064	16952.135500	1537.884766	571.583496
19466.356064	16952.135500	1536.833008	261.980225
19466.356064	16952.135500	1535.780273	513.545593
19466.356064	16952.135500	1534.727539	404.029358
19466.356064	16952.135500	1533.674805	387.705627
19466.356064	16952.135500	1532.622070	550.770325
19466.356064	16952.135500	1531.569336	455.126251
19466.356064	16952.135500	1530.515625	314.208923
19466.356064	16952.135500	1529.461914	241.468933
19466.356064	16952.135500	1528.408203	363.879517
19466.356064	16952.135500	1527.354492	279.958801
19466.356064	16952.135500	1526.299805	282.292786
19466.356064	16952.135500	1525.246094	146.427979
19466.356064	16952.135500	1524.191406	194.252686
19466.356064	16952.135500	1523.136719	-27.499666
19466.356064	16952.135500	1522.081055	324.044281
19466.356064	16952.135500	1521.026367	-92.282440
19466.356064	16952.135500	1519.970703	277.397278
19466.356064	16952.135500	1518.915039	373.058777
19466.356064	16952.135500	1517.859375	244.663437
19466.356064	16952.135500	1516.802734	446.809601
19466.356064	16952.135500	1515.747070	248.458405
19466.356064	16952.135500	1514.690430	213.141953
19466.356064	16952.135500	1513.633789	125.893784
19466.356064	16952.135500	1512.577148	199.313934
19466.356064	16952.135500	1511.519531	516.958069
19466.356064	16952.135500	1510.461914	402.810608
19466.356064	16952.135500	1509.405273	395.008087
19466.356064	16952.135500	1508.346680	122.920044
19466.356064	16952.135500	1507.289063	-29.248024
19466.356064	16952.135500	1506.231445	22.002993
19466.356064	16952.135500	1505.172852	-77.985710
19466.356064	16952.135500	1504.114258	-51.417675
19466.356064	16952.135500	1503.055664	20.365692
19466.356064	16952.135500	1501.996094	101.231178
19466.356064	16952.135500	1500.937500	-5.135635
19466.356064	16952.135500	1499.877930	14.957505
19466.356064	16952.135500	1498.818359	73.470703
19466.356064	16952.135500	1497.757813	-131.799286
19466.356064	16952.135500	1496.698242	-19.001505
19466.356064	16952.135500	1495.637695	-169.902115
19466.356064	16952.135500	1494.577148	-115.568680
19466.356064	16952.135500	1493.516602	58.251057
19466.356064	16952.135500	1492.456055	216.317154
19466.356064	16952.135500	1491.394531	-26.512638
19466.356064	16952.135500	1490.333008	-221.870728
19466.356064	16952.135500	1489.271484	-36.563454
19466.356064	16952.135500	1488.209961	162.262955
19466.356064	16952.135500	1487.148438	230.561874
19466.356064	16952.135500	1486.085938	287.675781
19466.356064	16952.135500	1485.023438	133.382019
19466.356064	16952.135500	1483.960938	134.436661
19466.356064	16952.135500	1482.898438	-37.578033
19466.356064	16952.135500	1481.834961	287.450226
19466.356064	16952.135500	1480.772461	81.934326
19466.356064	16952.135500	1479.708984	87.854523
19466.356064	16952.135500	1478.644531	89.381203
19466.356064	16952.135500	1477.581055	-34.792057
19466.356064	16952.135500	1476.517578	-86.947372
19466.356064	16952.135500	1475.453125	199.977219
19466.356064	16952.135500	1474.388672	147.914383
19466.356064	16952.135500	1473.323242	69.139130
19466.356064	16952.135500	1472.258789	284.203522
19466.356064	16952.135500	1471.193359	165.471970
19466.356064	16952.135500	1470.127930	331.402130
19466.356064	16952.135500	1469.062500	331.431641
19466.356064	16952.135500	1467.997070	250.552780
19466.356064	16952.135500	1466.930664	51.562496
19466.356064	16952.135500	1465.865234	40.859463
19466.356064	16952.135500	1464.798828	316.748474
19466.356064	16952.135500	1463.731445	382.407562
19466.356064	16952.135500	1462.665039	586.844238
19466.356064	16952.135500	1461.597656	307.789612
19466.356064	16952.135500	1460.530273	538.911438
19466.356064	16952.135500	1459.462891	277.977356
19466.356064	16952.135500	1458.395508	361.420929
19466.356064	16952.135500	1457.327148	202.389450
19466.356064	16952.135500	1456.259766	288.018250
19466.356064	16952.135500	1455.191406	162.058899
19466.356064	16952.135500	1454.123047	268.018433
19466.356064	16952.135500	1453.053711	364.851044
19466.356064	16952.135500	1451.985352	-48.146481
19466.356064	16952.135500	1450.916016	225.787781
19466.356064	16952.135500	1449.846680	281.248413
19466.356064	16952.135500	1448.776367	164.773911
19466.356064	16952.135500	1447.707031	480.527496
19466.356064	16952.135500	1446.636719	370.846008
19466.356064	16952.135500	1445.566406	308.489624
19466.356064	16952.135500	1444.496094	-5.012387
19466.356064	16952.135500	1443.425781	43.513695
19466.356064	16952.135500	1442.354492	46.470066
19466.356064	16952.135500	1441.283203	127.417381
19466.356064	16952.135500	1440.211914	38.404358
19466.356064	16952.135500	1439.140625	214.688675
19466.356064	16952.135500	1438.069336	215.389359
19466.356064	16952.135500	1436.997070	-4.905497
19466.356064	16952.135500	1435.924805	95.797913
19466.356064	16952.135500	1434.852539	-66.508385
19466.356064	16952.135500	1433.780273	65.943024
19466.356064	16952.135500	1432.707031	-54.030933
19466.356064	16952.135500	1431.633789	61.297550
19466.356064	16952.135500	1430.560547	-48.261177
19466.356064	16952.135500	1429.487305	-229.781525
19466.356064	16952.135500	1428.413086	-65.243149
19466.356064	16952.135500	1427.339844	-30.775192
19466.356064	16952.135500	1426.265625	-458.707764
19466.356064	16952.135500	1425.191406	-13.571408
19466.356064	16952.135500	1424.116211	-98.222443
19466.356064	16952.135500	1423.041992	100.232727
19466.356064	16952.135500	1421.966797	-70.269737
19466.356064	16952.135500	1420.891602	-17.811558
19466.356064	16952.135500	1419.816406	268.261292
19466.356064	16952.135500	1418.740234	411.592896
19466.356064	16952.135500	1417.665039	366.622864
19466.356064	16952.135500	1416.588867	351.752960
19466.356064	16952.135500	1415.512695	376.080719
19466.356064	16952.135500	1414.435547	485.744659
19466.356064	16952.135500	1413.359375	401.199310
19466.356064	16952.135500	1412.282227	520.723999
19466.356064	16952.135500	1411.205078	424.644501
19466.356064	16952.135500	1410.127930	591.282654
19466.356064	16952.135500	1409.049805	471.814453
19466.356064	16952.135500	1407.972656	522.832336
19466.356064	16952.135500	1406.894531	477.159332
19466.356064	16952.135500	1405.816406	672.481995
19466.356064	16952.135500	1404.737305	343.810638
19466.356064	16952.135500	1403.659180	581.838562
19466.356064	16952.135500	1402.580078	300.197937
19466.356064	16952.135500	1401.500977	629.207886
19466.356064	16952.135500	1400.421875	409.451996
19466.356064	16952.135500	1399.341797	274.472076
19466.356064	16952.135500	1398.262695	177.296585
19466.356064	16952.135500	1397.182617	504.437408
19466.356064	16952.135500	1396.102539	459.459259
19466.356064	16952.135500	1395.021484	302.779266
19466.356064	16952.135500	1393.941406	372.696716
19466.356064	16952.135500	1392.860352	314.733856
19466.356064	16952.135500	1391.779297	565.724609
19466.356064	16952.135500	1390.698242	467.830627
19466.356064	16952.135500	1389.616211	377.955658
19466.356064	16952.135500	1388.535156	258.081848
19466.356064	16952.135500	1387.453125	425.027039
19466.356064	16952.135500	1386.371094	590.568115
19466.356064	16952.135500	1385.288086	518.339600
19466.356064	16952.135500	1384.206055	313.106262
19466.356064	16952.135500	1383.123047	326.498871
19466.356064	16952.135500	1382.040039	462.921051
19466.356064	16952.135500	1380.957031	484.161346
19466.356064	16952.135500	1379.873047	433.282288
19466.356064	16952.135500	1378.789063	641.570007
19466.356064	16952.135500	1377.705078	202.973206
19466.356064	16952.135500	1376.621094	377.010864
19466.356064	16952.135500	1375.537109	461.414825
19466.356064	16952.135500	1374.452148	577.132751
19466.356064	16952.135500	1373.367188	430.186676
19466.356064	16952.135500	1372.282227	102.580009
19466.356064	16952.135500	1371.197266	488.027008
19466.356064	16952.135500	1370.112305	458.919647
19466.356064	16952.135500	1369.026367	22.752691
19466.356064	16952.135500	1367.940430	249.483490
19466.356064	16952.135500	1366.854492	322.808685
19466.356064	16952.135500	1365.767578	542.984924
19466.356064	16952.135500	1364.681641	434.391754
19466.356064	16952.135500	1363.594727	476.086029
19466.356064	16952.135500	1362.507813	380.858734
19466.356064	16952.135500	1361.419922	255.744095
19466.356064	16952.135500	1360.333008	167.675781
19466.356064	16952.135500	1359.245117	443.467010
19466.356064	16952.135500	1358.157227	355.328461
19466.356064	16952.135500	1357.069336	355.091461
19466.356064	16952.135500	1355.981445	391.917542
19466.356064	16952.135500	1354.892578	666.852905
19466.356064	16952.135500	1353.803711	506.189972
19466.356064	16952.135500	1352.714844	566.996460
19466.356064	16952.135500	1351.625000	687.521912
19466.356064	16952.135500	1350.536133	698.937195
19466.356064	16952.135500	1349.446289	368.744049
19466.356064	16952.135500	1348.356445	700.066589
19466.356064	16952.135500	1347.266602	556.072144
19466.356064	16952.135500	1346.175781	517.119751
19466.356064	16952.135500	1345.085938	580.495178
19466.356064	16952.135500	1343.995117	623.913391
19466.356064	16952.135500	1342.903320	766.451965
19466.356064	16952.135500	1341.812500	732.341614
19466.356064	16952.135500	1340.720703	498.203827
19466.356064	16952.135500	1339.629883	527.939026
19466.356064	16952.135500	1338.538086	614.083008
19466.356064	16952.135500	1337.445313	476.104065
19466.356064	16952.135500	1336.353516	393.657990
19466.356064	16952.135500	1335.260742	567.300476
19466.356064	16952.135500	1334.167969	434.135498
19466.356064	16952.135500	1333.075195	363.033386
19466.356064	16952.135500	1331.981445	426.783539
19466.356064	16952.135500	1330.888672	381.064819
19466.356064	16952.135500	1329.794922	564.982178
19466.356064	16952.135500	1328.701172	382.330658
19466.356064	16952.135500	1327.606445	314.720215
19466.356064	16952.135500	1326.512695	407.061707
19466.356064	16952.135500	1325.417969	540.581543
19466.356064	16952.135500	1324.323242	346.150757
19466.356064	16952.135500	1323.227539	412.266113
19466.356064	16952.135500	1322.132813	326.127258
19466.356064	16952.135500	1321.037109	235.603455
19466.356064	16952.135500	1319.941406	324.544128
19466.356064	16952.135500	1318.845703	213.675125
19466.356064	16952.135500	1317.750000	325.313995
19466.356064	16952.135500	1316.653320	283.772186
19466.356064	16952.135500	1315.556641	429.281769
19466.356064	16952.135500	1314.459961	572.111572
19466.356064	16952.135500	1313.363281	387.213867
19466.356064	16952.135500	1312.265625	238.669769
19466.356064	16952.135500	1311.167969	360.472961
19466.356064	16952.135500	1310.070313	344.136322
19466.356064	16952.135500	1308.972656	262.061493
19466.356064	16952.135500	1307.874023	219.618622
19466.356064	16952.135500	1306.776367	433.723267
19466.356064	16952.135500	1305.677734	50.218227
19466.356064	16952.135500	1304.579102	83.716110
19466.356064	16952.135500	1303.479492	191.536469
19466.356064	16952.135500	1302.380859	17.703960
19466.356064	16952.135500	1301.281250	361.692474
19466.356064	16952.135500	1300.181641	294.768768
19466.356064	16952.135500	1299.081055	388.740845
19466.356064	16952.135500	1297.981445	354.732727
19466.356064	16952.135500	1296.880859	217.556381
19466.356064	16952.135500	1295.780273	98.289063
19466.356064	16952.135500	1294.679688	204.053055
19466.356064	16952.135500	1293.578125	-37.425644
19466.356064	16952.135500	1292.476563	57.598145
19466.356064	16952.135500	1291.375000	97.342400
19466.356064	16952.135500	1290.273438	6.128627
19466.356064	16952.135500	1289.171875	-51.219715
19466.356064	16952.135500	1288.069336	-70.832016
19466.356064	16952.135500	1286.966797	-44.220997
19466.356064	16952.135500	1285.864258	25.231718
19466.356064	16952.135500	1284.761719	56.271458
19466.356064	16952.135500	1283.658203	88.350937
19466.356064	16952.135500	1282.554688	3.697602
19466.356064	16952.135500	1281.451172	51.525532
19466.356064	16952.135500	1280.347656	140.244125
19466.356064	16952.135500	1279.244141	40.397560
19466.356064	16952.135500	1278.139648	-80.543816
19466.356064	16952.135500	1277.035156	-74.583092
19466.356064	16952.135500	1275.930664	-104.142891
19466.356064	16952.135500	1274.825195	112.452248
19466.356064	16952.135500	1273.720703	162.888229
19466.356064	16952.135500	1272.615234	219.360489
19466.356064	16952.135500	1271.508789	-49.961781
19466.356064	16952.135500	1270.403320	59.745956
19466.356064	16952.135500	1269.297852	-46.360344
19466.356064	16952.135500	1268.191406	6.746396
19466.356064	16952.135500	1267.084961	263.398956
19466.356064	16952.135500	1265.977539	79.651779
19466.356064	16952.135500	1264.871094	-38.838623
19466.356064	16952.135500	1263.763672	33.832272
19466.356064	16952.135500	1262.656250	72.803886
19466.356064	16952.135500	1261.548828	35.848938
19466.356064	16952.135500	1260.440430	-95.939072
19466.356064	16952.135500	1259.333008	43.213573
19466.356064	16952.135500	1258.224609	-41.036636
19466.356064	16952.135500	1257.115234	-94.100571
19466.356064	16952.135500	1256.006836	-52.280693
19466.356064	16952.135500	1254.897461	92.983803
19466.356064	16952.135500	1253.788086	85.730782
19466.356064	16952.135500	1252.678711	45.080643
19466.356064	16952.135500	1251.569336	72.550262
19466.356064	16952.135500	1250.458984	-43.270756
19466.356064	16952.135500	1249.349609	-11.251210
19466.356064	16952.135500	1248.239258	98.825912
19466.356064	16952.135500	1247.127930	-144.971741
19466.356064	16952.135500	1246.017578	7.785916
19466.356064	16952.135500	1244.906250	66.306091
19466.356064	16952.135500	1243.794922	194.435333
19466.356064	16952.135500	1242.683594	41.616333
19466.356064	16952.135500	1241.571289	182.249191
19466.356064	16952.135500	1240.459961	36.773861
19466.356064	16952.135500	1239.347656	26.258818
19466.356064	16952.135500	1238.234375	25.095940
19466.356064	16952.135500	1237.122070	88.264320
19466.356064	16952.135500	1236.008789	215.832367
19466.356064	16952.135500	1234.896484	119.718689
19466.356064	16952.135500	1233.782227	80.363045
19466.356064	16952.135500	1232.668945	193.203293
19466.356064	16952.135500	1231.555664	-82.893684
19466.356064	16952.135500	1230.441406	73.540489
19466.356064	16952.135500	1229.327148	79.743172
19466.356064	16952.135500	1228.211914	-42.922737
19466.356064	16952.135500	1227.097656	64.295586
19466.356064	16952.135500	1225.982422	39.780769
19466.356064	16952.135500	1224.867188	23.918703
19466.356064	16952.135500	1223.751953	-149.970901
19466.356064	16952.135500	1222.635742	83.007973
19466.356064	16952.135500	1221.520508	25.063442
19466.356064	16952.135500	1220.404297	64.886559
19466.356064	16952.135500	1219.287109	-100.870972
19466.356064	16952.135500	1218.170898	-190.291916
19466.356064	16952.135500	1217.053711	-78.197037
19466.356064	16952.135500	1215.936523	-44.645576
19466.356064	16952.135500	1214.819336	40.645115
19466.356064	16952.135500	1213.702148	88.985023
19466.356064	16952.135500	1212.583984	-45.673347
19466.356064	16952.135500	1211.465820	-62.873489
19466.356064	16952.135500	1210.347656	-151.348358
19466.356064	16952.135500	1209.229492	61.469856
19466.356064	16952.135500	1208.110352	53.369526
19466.356064	16952.135500	1206.992188	112.547707
19466.356064	16952.135500	1205.873047	5.585545
19466.356064	16952.135500	1204.752930	-49.490219
19466.356064	16952.135500	1203.633789	-143.529221
19466.356064	16952.135500	1202.513672	151.567123
19466.356064	16952.135500	1201.393555	61.730198
19466.356064	16952.135500	1200.273438	24.074751
19466.356064	16952.135500	1199.152344	11.374311
19466.356064	16952.135500	1198.032227	-63.566139
19466.356064	16952.135500	1196.911133	-3.313334
19466.356064	16952.135500	1195.790039	-41.716953
19466.356064	16952.135500	1194.667969	-17.751610
19466.356064	16952.135500	1193.545898	29.900084
19466.356064	16952.135500	1192.424805	-82.785172
19466.356064	16952.135500	1191.301758	-177.679703
19466.356064	16952.135500	1190.179688	17.773478
19466.356064	16952.135500	1189.056641	-217.963455
19466.356064	16952.135500	1187.933594	-73.829781
19466.356064	16952.135500	1186.810547	62.432896
19466.356064	16952.135500	1185.687500	-32.837959
19466.356064	16952.135500	1184.563477	-2.228536
19466.356064	16952.135500	1183.440430	-74.901680
19466.356064	16952.135500	1182.316406	-294.294037
19466.356064	16952.135500	1181.191406	-40.622921
19466.356064	16952.135500	1180.067383	-172.855606
19466.356064	16952.135500	1178.942383	-399.518799
19466.356064	16952.135500	1177.817383	77.110748
19466.356064	16952.135500	1176.692383	-75.123611
19466.356064	16952.135500	1175.566406	148.619446
19466.356064	16952.135500	1174.440430	-31.483610
19466.356064	16952.135500	1173.314453	14.861794
19466.356064	16952.135500	1172.188477	-30.525335
19466.356064	16952.135500	1171.062500	140.220886
19466.356064	16952.135500	1169.935547	245.950378
19466.356064	16952.135500	1168.808594	96.917000
19466.356064	16952.135500	1167.681641	-254.128586
19466.356064	16952.135500	1166.553711	-79.173470
19466.356064	16952.135500	1165.426758	82.801483
19466.356064	16952.135500	1164.298828	1.312617
19466.356064	16952.135500	1163.170898	-144.692642
19466.356064	16952.135500	1162.041992	-78.271812
19466.356064	16952.135500	1160.914063	-118.275551
19466.356064	16952.135500	1159.785156	-10.594049
19466.356064	16952.135500	1158.656250	-52.276764
19466.356064	16952.135500	1157.526367	-40.527836
19466.356064	16952.135500	1156.397461	-76.775696
19466.356064	16952.135500	1155.267578	24.887016
19466.356064	16952.135500	1154.137695	67.993073
19466.356064	16952.135500	1153.006836	-138.456741
19466.356064	16952.135500	1151.876953	-118.415878
19466.356064	16952.135500	1150.746094	-90.464592
19466.356064	16952.135500	1149.615234	-188.442963
19466.356064	16952.135500	1148.484375	-77.047485
19466.356064	16952.135500	1147.352539	-49.243366
19466.356064	16952.135500	1146.220703	-11.702561
19466.356064	16952.135500	1145.088867	-151.988724
19466.356064	16952.135500	1143.957031	-25.573706
19466.356064	16952.135500	1142.825195	-16.193993
19466.356064	16952.135500	1141.692383	40.419392
19466.356064	16952.135500	1140.559570	-24.775381
19466.356064	16952.135500	1139.426758	-116.820442
19466.356064	16952.135500	1138.292969	24.266941
19466.356064	16952.135500	1137.159180	73.580833
19466.356064	16952.135500	1136.025391	146.684586
19466.356064	16952.135500	1134.891602	-67.634789
19466.356064	16952.135500	1133.757813	113.756378
19466.356064	16952.135500	1132.623047	94.943169
19466.356064	16952.135500	1131.488281	34.245495
19466.356064	16952.135500	1130.353516	237.735535
19466.356064	16952.135500	1129.217773	171.346878
19466.356064	16952.135500	1128.083008	278.713043
19466.356064	16952.135500	1126.947266	237.916107
19466.356064	16952.135500	1125.811523	307.070190
19466.356064	16952.135500	1124.674805	193.647781
19466.356064	16952.135500	1123.539063	322.335541
19466.356064	16952.135500	1122.402344	7.078454
19466.356064	16952.135500	1121.265625	278.594391
19466.356064	16952.135500	1120.127930	73.008034
19466.356064	16952.135500	1118.990234	131.704315
19466.356064	16952.135500	1117.853516	44.607437
19466.356064	16952.135500	1116.714844	127.907654
19466.356064	16952.135500	1115.577148	230.437164
19466.356064	16952.135500	1114.439453	269.921173
19466.356064	16952.135500	1113.300781	27.340563
19466.356064	16952.135500	1112.162109	-8.469193
19466.356064	16952.135500	1111.022461	205.231506
19466.356064	16952.135500	1109.883789	90.078697
19466.356064	16952.135500	1108.744141	251.758591
19466.356064	16952.135500	1107.604492	63.225967
19466.356064	16952.135500	1106.463867	65.721260
19466.356064	16952.135500	1105.324219	217.956100
19466.356064	16952.135500	1104.183594	81.526505
19466.356064	16952.135500	1103.042969	85.570084
19466.356064	16952.135500	1101.902344	111.261711
19466.356064	16952.135500	1100.760742	70.866043
19466.356064	16952.135500	1099.619141	158.047211
19466.356064	16952.135500	1098.477539	209.231110
19466.356064	16952.135500	1097.335938	-132.303879
19466.356064	16952.135500	1096.193359	270.135468
19466.356064	16952.135500	1095.051758	236.892502
19466.356064	16952.135500	1093.909180	260.366180
19466.356064	16952.135500	1092.765625	360.162964
19466.356064	16952.135500	1091.623047	111.504395
19466.356064	16952.135500	1090.479492	224.829239
19466.356064	16952.135500	1089.335938	12.424150
19466.356064	16952.135500	1088.192383	353.307831
19466.356064	16952.135500	1087.047852	304.117523
19466.356064	16952.135500	1085.903320	172.465210
19466.356064	16952.135500	1084.758789	238.057144
19466.356064	16952.135500	1083.614258	275.395386
19466.356064	16952.135500	1082.469727	186.918655
19466.356064	16952.135500	1081.324219	334.436768
19466.356064	16952.135500	1080.178711	156.723160
19466.356064	16952.135500	1079.033203	205.440109
19466.356064	16952.135500	1077.886719	134.471603
19466.356064	16952.135500	1076.740234	-27.732069
19466.356064	16952.135500	1075.593750	126.150604
19466.356064	16952.135500	1074.447266	62.685242
19466.356064	16952.135500	1073.300781	193.839828
19466.356064	16952.135500	1072.153320	-10.870964
19466.356064	16952.135500	1071.005859	292.786591
19466.356064	16952.135500	1069.858398	112.956268
19466.356064	16952.135500	1068.709961	122.432899
19466.356064	16952.135500	1067.561523	176.590973
19466.356064	16952.135500	1066.413086	21.672943
19466.356064	16952.135500	1065.264648	1.311841
19466.356064	16952.135500	1064.116211	-75.317276
19466.356064	16952.135500	1062.966797	175.182770
19466.356064	16952.135500	1061.817383	83.663277
19466.356064	16952.135500	1060.667969	173.608871
19466.356064	16952.135500	1059.517578	103.701782
19466.356064	16952.135500	1058.368164	109.026566
19466.356064	16952.135500	1057.217773	79.002045
19466.356064	16952.135500	1056.067383	-160.004623
19466.356064	16952.135500	1054.916016	-12.264482
19466.356064	16952.135500	1053.764648	119.715668
19466.356064	16952.135500	1052.613281	136.690033
19466.356064	16952.135500	1051.461914	135.933304
19466.356064	16952.135500	1050.310547	234.796356
19466.356064	16952.135500	1049.158203	217.348816
19466.356064	16952.135500	1048.005859	125.216896
19466.356064	16952.135500	1046.853516	404.464386
19466.356064	16952.135500	1045.700195	245.838501
19466.356064	16952.135500	1044.547852	172.693344
19466.356064	16952.135500	1043.394531	135.133392
19466.356064	16952.135500	1042.240234	278.812164
19466.356064	16952.135500	1041.086914	415.821259
19466.356064	16952.135500	1039.932617	378.429993
19466.356064	16952.135500	1038.778320	240.679016
19466.356064	16952.135500	1037.624023	184.076431
19466.356064	16952.135500	1036.469727	342.935089
19466.356064	16952.135500	1035.314453	393.740173
19466.356064	16952.135500	1034.159180	629.513977
19466.356064	16952.135500	1033.003906	681.893433
19466.356064	16952.135500	1031.847656	711.188049
19466.356064	16952.135500	1030.692383	838.329773
19466.356064	16952.135500	1029.536133	620.874512
19466.356064	16952.135500	1028.378906	649.532471
19466.356064	16952.135500	1027.222656	392.411682
19466.356064	16952.135500	1026.065430	382.908661
19466.356064	16952.135500	1024.908203	64.389618
19466.356064	16952.135500	1023.750977	251.244583
19466.356064	16952.135500	1022.593750	250.886978
19466.356064	16952.135500	1021.435547	238.430573
19466.356064	16952.135500	1020.277344	48.576710
19466.356064	16952.135500	1019.119141	59.853096
19466.356064	16952.135500	1017.959961	43.998386
19466.356064	16952.135500	1016.800781	52.725765
19466.356064	16952.135500	1015.641602	-37.615780
19466.356064	16952.135500	1014.482422	12.126464
19466.356064	16952.135500	1013.323242	-124.415298
19466.356064	16952.135500	1012.163086	230.635132
19466.356064	16952.135500	1011.002930	38.453018
19466.356064	16952.135500	1009.842773	107.418594
19466.356064	16952.135500	1008.681641	13.411906
19466.356064	16952.135500	1007.520508	130.955933
19466.356064	16952.135500	1006.359375	130.251251
19466.356064	16952.135500	1005.198242	-75.145126
19466.356064	16952.135500	1004.037109	146.030838
19466.356064	16952.135500	1002.875000	198.963715
19466.356064	16952.135500	1001.712891	71.820206
19466.356064	16952.135500	1000.550781	16.051855
19466.356064	16952.135500	999.387695	35.400784
19466.356064	16952.135500	998.224609	28.148991
19466.356064	16952.135500	997.061523	84.502899
19466.356064	16952.135500	995.898438	81.130852
19466.356064	16952.135500	994.734375	-126.360870
19466.356064	16952.135500	993.571289	-23.358555
19466.356064	16952.135500	992.407227	-133.620743
19466.356064	16952.135500	991.242188	21.091160
19466.356064	16952.135500	990.078125	-243.214478
19466.356064	16952.135500	988.913086	-48.201603
19466.356064	16952.135500	987.748047	-102.397568
19466.356064	16952.135500	986.583008	46.680412
19466.356064	16952.135500	985.416992	-184.319580
19466.356064	16952.135500	984.250977	41.282207
19466.356064	16952.135500	983.084961	11.518346
19466.356064	16952.135500	981.918945	-84.810020
19466.356064	16952.135500	980.751953	72.713661
19466.356064	16952.135500	979.584961	16.752607
19466.356064	16952.135500	978.417969	38.924362
19466.356064	16952.135500	977.250977	29.802513
19466.356064	16952.135500	976.083008	142.114075
19466.356064	16952.135500	974.915039	210.624878
19466.356064	16952.135500	973.747070	-191.494812
19466.356064	16952.135500	972.579102	-223.926285
19466.356064	16952.135500	971.410156	-123.531494
19466.356064	16952.135500	970.242188	-113.826752
19466.356064	16952.135500	969.072266	137.597458
19466.356064	16952.135500	967.903320	0.337157
19466.356064	16952.135500	966.733398	-37.996033
19466.356064	16952.135500	965.563477	138.619705
19466.356064	16952.135500	964.393555	85.306786
19466.356064	16952.135500	963.223633	92.575287
19466.356064	16952.135500	962.052734	-64.673233
19466.356064	16952.135500	960.881836	-76.664925
19466.356064	16952.135500	959.710938	141.085876
19466.356064	16952.135500	958.540039	76.164436
19466.356064	16952.135500	957.368164	88.655853
19466.356064	16952.135500	956.196289	6.297868
19466.356064	16952.135500	955.024414	-15.235377
19466.356064	16952.135500	953.851563	-135.514130
19466.356064	16952.135500	952.679688	59.606876
19466.356064	16952.135500	951.506836	92.742691
19466.356064	16952.135500	950.333984	140.453400
19466.356064	16952.135500	949.160156	35.768307
19466.356064	16952.135500	947.986328	189.838318
19466.356064	16952.135500	946.812500	107.851227
19466.356064	16952.135500	945.638672	25.227217
19466.356064	16952.135500	944.464844	-46.960205
19466.356064	16952.135500	943.290039	40.620903
19466.356064	16952.135500	942.115234	14.737729
19466.356064	16952.135500	940.940430	-1.659283
19466.356064	16952.135500	939.764648	-44.164993
19466.356064	16952.135500	938.588867	-146.798325
19466.356064	16952.135500	937.413086	-20.852999
19466.356064	16952.135500	936.237305	-147.401031
19466.356064	16952.135500	935.060547	106.886482
19466.356064	16952.135500	933.883789	291.162506
19466.356064	16952.135500	932.707031	-58.059063
19466.356064	16952.135500	931.530273	117.926094
19466.356064	16952.135500	930.352539	85.454636
19466.356064	16952.135500	929.175781	-21.130512
19466.356064	16952.135500	927.998047	10.502909
19466.356064	16952.135500	926.819336	-230.316818
19466.356064	16952.135500	925.641602	-24.336538
19466.356064	16952.135500	924.462891	-40.754364
19466.356064	16952.135500	923.284180	183.125702
19466.356064	16952.135500	922.104492	-43.566811
19466.356064	16952.135500	920.924805	-33.968922
19466.356064	16952.135500	919.746094	-27.571112
19466.356064	16952.135500	919.551758	-71.368759
19466.356064	16952.135500	918.386719	-33.851711
19466.356064	16952.135500	917.220703	47.661003
19466.356064	16952.135500	916.054688	-14.885576
19466.356064	16952.135500	914.887695	-47.412807
19466.356064	16952.135500	913.721680	66.016167
19466.356064	16952.135500	912.554688	-74.478630
19466.356064	16952.135500	911.387695	-220.920914
19466.356064	16952.135500	910.220703	-201.460938
19466.356064	16952.135500	909.052734	-267.916626
19466.356064	16952.135500	907.885742	53.134274
19466.356064	16952.135500	906.717773	-139.173676
19466.356064	16952.135500	905.548828	-193.641174
19466.356064	16952.135500	904.380859	-12.552007
19466.356064	16952.135500	903.211914	-128.908386
19466.356064	16952.135500	902.042969	-145.457626
19466.356064	16952.135500	900.874023	-86.198685
19466.356064	16952.135500	899.704102	-146.640015
19466.356064	16952.135500	898.535156	111.993256
19466.356064	16952.135500	897.365234	-38.196705
19466.356064	16952.135500	896.194336	-84.675697
19466.356064	16952.135500	895.024414	-107.232292
19466.356064	16952.135500	893.853516	27.626223
19466.356064	16952.135500	892.682617	-112.489044
19466.356064	16952.135500	891.511719	-57.367146
19466.356064	16952.135500	890.340820	-18.206306
19466.356064	16952.135500	889.168945	74.689964
19466.356064	16952.135500	887.997070	46.122238
19466.356064	16952.135500	886.825195	-12.293295
19466.356064	16952.135500	885.653320	166.078125
19466.356064	16952.135500	884.480469	157.384109
19466.356064	16952.135500	883.307617	-80.032791
19466.356064	16952.135500	882.134766	-102.608139
19466.356064	16952.135500	880.961914	93.503708
19466.356064	16952.135500	879.788086	5.299934
19466.356064	16952.135500	878.614258	-92.811478
19466.356064	16952.135500	877.440430	79.316887
19466.356064	16952.135500	876.266602	80.535530
19466.356064	16952.135500	875.091797	119.485130
19466.356064	16952.135500	873.916992	118.697708
19466.356064	16952.135500	872.742188	-82.601234
19466.356064	16952.135500	871.567383	49.617500
19466.356064	16952.135500	870.391602	130.185944
19466.356064	16952.135500	869.215820	-15.461558
19466.356064	16952.135500	868.040039	35.315529
19466.356064	16952.135500	866.864258	14.669429
19466.356064	16952.135500	865.687500	144.717255
19466.356064	16952.135500	864.510742	141.885559
19466.356064	16952.135500	863.333984	28.057045
19466.356064	16952.135500	862.157227	15.323346
19466.356064	16952.135500	860.979492	30.326912
19466.356064	16952.135500	859.802734	154.250168
19466.356064	16952.135500	858.625000	8.794154
19466.356064	16952.135500	857.446289	-1.973951
19466.356064	16952.135500	856.268555	-143.400009
19466.356064	16952.135500	855.089844	-71.030113
19466.356064	16952.135500	853.911133	-62.018749
19466.356064	16952.135500	852.731445	-9.495065
19466.356064	16952.135500	851.552734	-36.123222
19466.356064	16952.135500	850.373047	-78.567596
19466.356064	16952.135500	849.193359	112.289810
19466.356064	16952.135500	848.013672	192.363815
19466.356064	16952.135500	846.833008	143.940247
19466.356064	16952.135500	845.652344	-34.881435
19466.356064	16952.135500	844.471680	-144.501862
19466.356064	16952.135500	843.291016	-115.836311
19466.356064	16952.135500	842.110352	86.572983
19466.356064	16952.135500	840.928711	30.265650
19466.356064	16952.135500	839.747070	19.366571
19466.356064	16952.135500	838.564453	2.543266
19466.356064	16952.135500	837.382813	-180.025452
19466.356064	16952.135500	836.200195	28.048412
19466.356064	16952.135500	835.017578	-89.391464
19466.356064	16952.135500	833.834961	-192.994781
19466.356064	16952.135500	832.651367	-16.629284
19466.356064	16952.135500	831.467773	-214.837982
19466.356064	16952.135500	830.284180	-89.805779
19466.356064	16952.135500	829.100586	163.219986
19466.356064	16952.135500	827.916992	39.899139
19466.356064	16952.135500	826.732422	147.032806
19466.356064	16952.135500	825.547852	-58.958141
19466.356064	16952.135500	824.363281	-22.750780
19466.356064	16952.135500	823.177734	72.473518
19466.356064	16952.135500	821.992188	75.157150
19466.356064	16952.135500	820.806641	-101.206078
19466.356064	16952.135500	819.621094	-143.764969
19466.356064	16952.135500	818.434570	-141.089615
19466.356064	16952.135500	817.249023	205.629074
19466.356064	16952.135500	816.062500	-19.830851
19466.356064	16952.135500	814.875000	253.973557
19466.356064	16952.135500	813.688477	111.081947
19466.356064	16952.135500	812.500977	-23.909378
19466.356064	16952.135500	811.313477	151.458679
19466.356064	16952.135500	810.125977	110.727745
19466.356064	16952.135500	808.937500	197.608749
19466.356064	16952.135500	807.749023	48.888016
19466.356064	16952.135500	806.560547	49.352249
19466.356064	16952.135500	805.372070	-11.031168
19466.356064	16952.135500	804.182617	-0.788676
19466.356064	16952.135500	802.994141	-35.687923
19466.356064	16952.135500	801.803711	111.768646
19466.356064	16952.135500	800.614258	117.984032
19466.356064	16952.135500	799.424805	4.610486
19466.356064	16952.135500	798.234375	8.839201
19466.356064	16952.135500	797.043945	69.857018
19466.356064	16952.135500	795.852539	36.803337
19466.356064	16952.135500	794.662109	-31.517920
19466.356064	16952.135500	793.470703	45.056221
19466.356064	16952.135500	792.279297	17.819117
19466.356064	16952.135500	791.087891	39.493984
19466.356064	16952.135500	789.895508	14.172234
19466.356064	16952.135500	788.703125	121.865074
19466.356064	16952.135500	787.510742	114.081833
19466.356064	16952.135500	786.318359	-63.863449
19466.356064	16952.135500	785.125000	22.185951
19466.356064	16952.135500	783.931641	0.655400
19466.356064	16952.135500	782.738281	-58.029758
19466.356064	16952.135500	781.544922	-83.505692
19466.356064	16952.135500	780.350586	-81.649963
19466.356064	16952.135500	779.156250	72.516602
19466.356064	16952.135500	777.961914	117.231850
19466.356064	16952.135500	776.767578	144.324448
19466.356064	16952.135500	775.572266	69.874733
19466.356064	16952.135500	774.376953	-10.432931
19466.356064	16952.135500	773.181641	-112.204453
19466.356064	16952.135500	771.986328	125.451332
19466.356064	16952.135500	770.790039	125.040428
19466.356064	16952.135500	769.593750	101.194572
19466.356064	16952.135500	768.397461	-199.505600
19466.356064	16952.135500	767.201172	123.585945
19466.356064	16952.135500	766.003906	210.719238
19466.356064	16952.135500	764.806641	190.623795
19466.356064	16952.135500	763.609375	186.080460
19466.356064	16952.135500	762.412109	136.706940
19466.356064	16952.135500	761.213867	-115.175560
19466.356064	16952.135500	760.015625	74.896004
19466.356064	16952.135500	758.817383	179.212234
19466.356064	16952.135500	757.618164	-2.591331
19466.356064	16952.135500	756.419922	12.125049
19466.356064	16952.135500	755.220703	81.255890
19466.356064	16952.135500	754.021484	119.201927
19466.356064	16952.135500	752.821289	-31.496155
19466.356064	16952.135500	751.621094	173.540970
19466.356064	16952.135500	750.420898	-31.608957
19466.356064	16952.135500	749.220703	95.535088
19466.356064	16952.135500	748.020508	148.762756
19466.356064	16952.135500	746.819336	211.636047
19466.356064	16952.135500	745.618164	173.465164
19466.356064	16952.135500	744.416992	193.505569
19466.356064	16952.135500	743.214844	137.795731
19466.356064	16952.135500	742.012695	237.307083
19466.356064	16952.135500	740.810547	204.799057
19466.356064	16952.135500	739.608398	189.714600
19466.356064	16952.135500	738.406250	180.405930
19466.356064	16952.135500	737.203125	209.834167
19466.356064	16952.135500	736.000000	363.267883
19466.356064	16952.135500	734.795898	293.705200
19466.356064	16952.135500	733.592773	487.650696
19466.356064	16952.135500	732.388672	371.494598
19466.356064	16952.135500	731.184570	511.010498
19466.356064	16952.135500	729.979492	487.753052
19466.356064	16952.135500	728.775391	280.519196
19466.356064	16952.135500	727.570313	179.787674
19466.356064	16952.135500	726.365234	185.488541
19466.356064	16952.135500	725.160156	88.584404
19466.356064	16952.135500	723.954102	289.582886
19466.356064	16952.135500	722.748047	295.100708
19466.356064	16952.135500	721.541992	196.145432
19466.356064	16952.135500	720.334961	64.312447
19466.356064	16952.135500	719.128906	19.459911
19466.356064	16952.135500	717.921875	138.832596
19466.356064	16952.135500	716.714844	-80.009155
19466.356064	16952.135500	715.506836	-38.039425
19466.356064	16952.135500	714.298828	13.515133
19466.356064	16952.135500	713.090820	51.476563
19466.356064	16952.135500	711.882813	21.801691
19466.356064	16952.135500	710.674805	-17.567293
19466.356064	16952.135500	709.465820	6.703960
19466.356064	16952.135500	708.256836	-244.971298
19466.356064	16952.135500	707.047852	-72.255363
19466.356064	16952.135500	705.837891	214.110825
19466.356064	16952.135500	704.627930	31.790684
19466.356064	16952.135500	703.417969	-84.969841
19466.356064	16952.135500	702.208008	-124.651344
19466.356064	16952.135500	700.998047	-245.298859
19466.356064	16952.135500	699.787109	-44.242382
19466.356064	16952.135500	698.576172	-18.593622
19466.356064	16952.135500	697.364258	-52.706078
19466.356064	16952.135500	696.153320	-19.481424
19466.356064	16952.135500	694.941406	21.371433
19466.356064	16952.135500	693.729492	-32.144718
19466.356064	16952.135500	692.516602	-81.848366
19466.356064	16952.135500	691.304688	-181.602692
19466.356064	16952.135500	690.091797	-135.211624
19466.356064	16952.135500	688.878906	72.613953
19466.356064	16952.135500	687.665039	151.495865
19466.356064	16952.135500	686.451172	55.388416
19466.356064	16952.135500	685.237305	57.262337
19466.356064	16952.135500	684.023438	18.733894
19466.356064	16952.135500	682.809570	95.406654
19466.356064	16952.135500	681.594727	164.308502
19466.356064	16952.135500	680.379883	235.042480
19466.356064	16952.135500	679.165039	81.104790
19466.356064	16952.135500	677.949219	28.886473
19466.356064	16952.135500	676.733398	227.984909
19466.356064	16952.135500	675.517578	237.028152
19466.356064	16952.135500	674.301758	167.374756
19466.356064	16952.135500	673.084961	247.259415
19466.356064	16952.135500	671.869141	-10.358085
19466.356064	16952.135500	670.651367	123.083305
19466.356064	16952.135500	669.434570	177.841293
19466.356064	16952.135500	668.216797	35.183762
19466.356064	16952.135500	667.000000	325.428345
19466.356064	16952.135500	665.781250	163.534973
19466.356064	16952.135500	664.563477	206.523727
19466.356064	16952.135500	663.344727	123.094765
19466.356064	16952.135500	662.125977	64.526817
19466.356064	16952.135500	660.907227	237.455948
19466.356064	16952.135500	659.688477	331.821899
19466.356064	16952.135500	658.468750	26.345333
19466.356064	16952.135500	657.249023	95.745651
19466.356064	16952.135500	656.029297	92.411880
19466.356064	16952.135500	654.808594	20.212038
19466.356064	16952.135500	653.587891	-50.100117
19466.356064	16952.135500	652.367188	183.355698
19466.356064	16952.135500	651.146484	168.327942
19466.356064	16952.135500	649.924805	195.270477
19466.356064	16952.135500	648.704102	48.391113
19466.356064	16952.135500	647.482422	231.782669
19466.356064	16952.135500	646.259766	81.036301
19466.356064	16952.135500	645.037109	75.326088
19466.356064	16952.135500	643.815430	73.383873
19466.356064	16952.135500	642.591797	27.520035
19466.356064	16952.135500	641.369141	-22.186083
19466.356064	16952.135500	640.145508	-87.175270
19466.356064	16952.135500	638.921875	112.776611
19466.356064	16952.135500	637.698242	49.594936
19466.356064	16952.135500	636.474609	182.648453
19466.356064	16952.135500	635.250000	266.067474
19466.356064	16952.135500	634.025391	-14.370919
19466.356064	16952.135500	632.800781	63.248928
19466.356064	16952.135500	631.575195	165.539688
19466.356064	16952.135500	630.349609	-42.508530
19466.356064	16952.135500	629.124023	-107.789589
19466.356064	16952.135500	627.898438	-22.784258
19466.356064	16952.135500	626.671875	-122.368233
19466.356064	16952.135500	625.445313	29.080618
19466.356064	16952.135500	624.218750	28.313988
19466.356064	16952.135500	622.992188	-77.044357
19466.356064	16952.135500	621.764648	-60.765686
19466.356064	16952.135500	620.537109	-76.834145
19466.356064	16952.135500	619.309570	45.746143
19466.356064	16952.135500	618.081055	-249.621353
19466.356064	16952.135500	616.852539	-94.850319
19466.356064	16952.135500	615.624023	16.151815
19466.356064	16952.135500	614.395508	-140.566299
19466.356064	16952.135500	613.166992	4.487371
19466.356064	16952.135500	611.937500	-133.258408
19466.356064	16952.135500	610.708008	66.673470
19466.356064	16952.135500	609.477539	-2.819490
19466.356064	16952.135500	608.248047	31.973133
19466.356064	16952.135500	607.017578	-172.141815
19466.356064	16952.135500	605.787109	84.361740
19466.356064	16952.135500	604.555664	-45.836544
19466.356064	16952.135500	603.325195	-30.128574
19466.356064	16952.135500	602.093750	-167.879517
19466.356064	16952.135500	600.861328	20.116510
19466.356064	16952.135500	599.629883	64.117165
19466.356064	16952.135500	598.397461	30.465172
19466.356064	16952.135500	597.165039	157.664322
19466.356064	16952.135500	595.932617	-48.220997
19466.356064	16952.135500	594.699219	114.835442
19466.356064	16952.135500	593.465820	289.149994
19466.356064	16952.135500	592.232422	245.917908
19466.356064	16952.135500	590.999023	302.879333
19466.356064	16952.135500	589.764648	30.922770
19466.356064	16952.135500	588.530273	127.551163
19466.356064	16952.135500	587.295898	78.648224
19466.356064	16952.135500	586.061523	-108.138649
19466.356064	16952.135500	584.826172	-56.915165
19466.356064	16952.135500	583.590820	-75.587517
19466.356064	16952.135500	582.355469	-175.433136
19466.356064	16952.135500	581.119141	-63.878059
19466.356064	16952.135500	579.882813	-52.386089
19466.356064	16952.135500	578.646484	-1.293265
19466.356064	16952.135500	577.410156	53.538982
19466.356064	16952.135500	576.172852	-46.286148
19466.356064	16952.135500	574.935547	270.564423
19466.356064	16952.135500	573.698242	-6.456321
19466.356064	16952.135500	572.460938	231.089966
19466.356064	16952.135500	571.222656	118.093521
19466.356064	16952.135500	569.984375	93.672562
19466.356064	16952.135500	568.746094	-4.188719
19466.356064	16952.135500	567.506836	-17.285660
19466.356064	16952.135500	566.267578	-105.676849
19466.356064	16952.135500	565.028320	-43.469933
19466.356064	16952.135500	563.789063	18.709837
19466.356064	16952.135500	562.548828	-73.400719
19466.356064	16952.135500	561.309570	-109.043633
19466.356064	16952.135500	560.068359	-65.697395
19466.356064	16952.135500	558.828125	-93.807014
19466.356064	16952.135500	557.586914	35.985146
19466.356064	16952.135500	556.345703	-99.246872
19466.356064	16952.135500	555.104492	-10.837452
19466.356064	16952.135500	553.863281	-12.624924
19466.356064	16952.135500	552.621094	-93.286690
19466.356064	16952.135500	551.378906	-113.825981
19466.356064	16952.135500	550.136719	6.441251
19466.356064	16952.135500	548.893555	297.449829
19466.356064	16952.135500	547.650391	126.744247
19466.356064	16952.135500	546.407227	34.909824
19466.356064	16952.135500	545.164063	65.036713
19466.356064	16952.135500	543.919922	50.151402
19466.356064	16952.135500	542.675781	130.893921
19466.356064	16952.135500	541.431641	205.987122
19466.356064	16952.135500	540.186523	183.605804
19466.356064	16952.135500	538.941406	136.884995
19466.356064	16952.135500	537.696289	181.979004
19466.356064	16952.135500	536.451172	148.404449
19466.356064	16952.135500	535.205078	195.362335
19466.356064	16952.135500	533.959961	261.030487
19466.356064	16952.135500	532.712891	57.165333
19466.356064	16952.135500	531.466797	272.543243
19466.356064	16952.135500	530.219727	308.238007
19466.356064	16952.135500	528.972656	224.220093
19466.356064	16952.135500	527.725586	469.362091
19466.356064	16952.135500	526.478516	200.269012
19466.356064	16952.135500	525.230469	140.643417
19466.356064	16952.135500	523.982422	267.926117
19466.356064	16952.135500	522.734375	326.028564
19466.356064	16952.135500	521.485352	404.655060
19466.356064	16952.135500	520.236328	44.370186
19466.356064	16952.135500	518.987305	218.253113
19466.356064	16952.135500	517.737305	214.716919
19466.356064	16952.135500	516.488281	287.705811
19466.356064	16952.135500	515.238281	439.030182
19466.356064	16952.135500	513.988281	299.257080
19466.356064	16952.135500	512.737305	370.302185
19466.356064	16952.135500	511.486328	267.887634
19466.356064	16952.135500	510.235352	325.845917
19466.356064	16952.135500	508.984375	247.700729
19466.356064	16952.135500	507.732422	419.294098
19466.356064	16952.135500	506.480469	294.557739
19466.356064	16952.135500	505.228516	449.276825
19466.356064	16952.135500	503.976563	540.590820
19466.356064	16952.135500	502.723633	555.505371
19466.356064	16952.135500	501.470703	702.563110
19466.356064	16952.135500	500.217773	879.312378
19466.356064	16952.135500	498.963867	795.450623
19466.356064	16952.135500	497.709961	877.167786
19466.356064	16952.135500	496.456055	653.785156
19466.356064	16952.135500	495.202148	865.601563
19466.356064	16952.135500	493.947266	817.003418
19466.356064	16952.135500	492.692383	874.335205
19466.356064	16952.135500	491.437500	905.580994
19466.356064	16952.135500	490.181641	1003.649963
19466.356064	16952.135500	488.926758	925.158203
19466.356064	16952.135500	487.670898	1229.219482
19466.356064	16952.135500	486.414063	990.911499
19466.356064	16952.135500	485.158203	966.127625
19466.356064	16952.135500	483.901367	985.826416
19466.356064	16952.135500	482.644531	999.876892
19466.356064	16952.135500	481.386719	1152.979736
19466.356064	16952.135500	480.128906	1313.352539
19466.356064	16952.135500	478.871094	1173.162842
19466.356064	16952.135500	477.613281	1210.920288
19466.356064	16952.135500	476.355469	1324.560913
19466.356064	16952.135500	475.096680	1306.469604
19466.356064	16952.135500	473.837891	1443.910034
19466.356064	16952.135500	472.578125	1479.291992
19466.356064	16952.135500	471.319336	1399.717041
19466.356064	16952.135500	470.059570	1557.046509
19466.356064	16952.135500	468.799805	1508.692749
19466.356064	16952.135500	467.539063	1673.051758
19466.356064	16952.135500	466.278320	1742.821777
19466.356064	16952.135500	465.017578	1666.257446
19466.356064	16952.135500	463.756836	1696.837280
19466.356064	16952.135500	462.495117	1825.232056
19466.356064	16952.135500	461.233398	1744.479736
19466.356064	16952.135500	459.971680	1698.692993
19466.356064	16952.135500	458.709961	1907.747925
19466.356064	16952.135500	457.447266	1881.858765
19466.356064	16952.135500	456.184570	1929.651489
19466.356064	16952.135500	454.921875	1884.859985
19466.356064	16952.135500	453.658203	1764.145264
19466.356064	16952.135500	452.394531	1982.896606
19466.356064	16952.135500	451.130859	1972.445557
19466.356064	16952.135500	449.867188	1921.138184
19466.356064	16952.135500	448.602539	1983.945801
19466.356064	16952.135500	447.337891	1994.793701
19466.356064	16952.135500	446.073242	1905.760986
19466.356064	16952.135500	444.807617	2105.889893
19466.356064	16952.135500	443.542969	1995.958008
19466.356064	16952.135500	442.276367	2160.296875
19466.356064	16952.135500	441.010742	2007.329834
19466.356064	16952.135500	439.744141	2017.993896
19466.356064	16952.135500	438.478516	2199.550537
19466.356064	16952.135500	437.210938	2271.989258
19466.356064	16952.135500	435.944336	2108.376465
19466.356064	16952.135500	434.676758	2154.208740
19466.356064	16952.135500	433.409180	2361.502930
19466.356064	16952.135500	432.141602	2139.627930
19466.356064	16952.135500	430.873047	2253.942871
19466.356064	16952.135500	429.604492	2180.165283
19466.356064	16952.135500	428.335938	2148.198975
19466.356064	16952.135500	427.067383	2198.436523
19466.356064	16952.135500	425.797852	2183.787109
19466.356064	16952.135500	424.528320	2175.935059
19466.356064	16952.135500	423.258789	2334.661865
19466.356064	16952.135500	421.988281	2242.960205
19466.356064	16952.135500	420.717773	2236.975586
19466.356064	16952.135500	419.447266	2296.440674
19466.356064	16952.135500	418.175781	2052.400391
19466.356064	16952.135500	416.905273	2380.266846
19466.356064	16952.135500	415.633789	2250.507568
19466.356064	16952.135500	414.362305	2274.141846
19466.356064	16952.135500	413.089844	2133.813965
19466.356064	16952.135500	411.817383	2121.104980
19466.356064	16952.135500	410.544922	2091.115234
19466.356064	16952.135500	409.272461	2058.491455
19466.356064	16952.135500	407.999023	2043.343872
19466.356064	16952.135500	406.725586	2172.036377
19466.356064	16952.135500	405.452148	2208.218262
19466.356064	16952.135500	404.177734	2210.491211
19466.356064	16952.135500	402.903320	2233.781494
19466.356064	16952.135500	401.628906	2272.557129
19466.356064	16952.135500	400.354492	2023.059204
19466.356064	16952.135500	399.079102	2202.488770
19466.356064	16952.135500	397.803711	2230.811035
19466.356064	16952.135500	396.528320	2334.825439
19466.356064	16952.135500	395.251953	2218.275879
19466.356064	16952.135500	393.976563	2186.548828
19466.356064	16952.135500	392.700195	2177.375244
19466.356064	16952.135500	391.422852	2216.280273
19466.356064	16952.135500	390.145508	2356.192139
19466.356064	16952.135500	388.869141	2217.221436
19466.356064	16952.135500	387.590820	2217.497803
19466.356064	16952.135500	386.313477	2088.675537
19466.356064	16952.135500	385.035156	1936.577026
19466.356064	16952.135500	383.756836	1960.082520
19466.356064	16952.135500	382.478516	1929.201416
19466.356064	16952.135500	381.199219	1767.301025
19466.356064	16952.135500	379.919922	1981.335083
19466.356064	16952.135500	378.640625	1905.662109
19466.356064	16952.135500	377.360352	1872.080688
19466.356064	16952.135500	376.080078	1880.561157
19466.356064	16952.135500	374.799805	1714.248779
19466.356064	16952.135500	373.519531	1766.617798
19466.356064	16952.135500	372.238281	1731.518921
19466.356064	16952.135500	370.957031	1570.777466
19466.356064	16952.135500	369.675781	1655.732300
19466.356064	16952.135500	368.394531	1571.276367
19466.356064	16952.135500	367.112305	1384.736816
19466.356064	16952.135500	365.830078	1647.316284
19466.356064	16952.135500	364.546875	1591.190430
19466.356064	16952.135500	363.264648	1442.075195
19466.356064	16952.135500	361.981445	1307.112305
19466.356064	16952.135500	360.698242	1344.404907
19466.356064	16952.135500	359.414063	1448.338623
19466.356064	16952.135500	358.129883	1473.551147
19466.356064	16952.135500	356.845703	1120.363647
19466.356064	16952.135500	355.561523	1155.225586
19466.356064	16952.135500	354.276367	1243.721802
19466.356064	16952.135500	352.991211	1425.754639
19466.356064	16952.135500	351.706055	1191.301025
19466.356064	16952.135500	350.420898	1171.911621
19466.356064	16952.135500	349.134766	1087.974976
19466.356064	16952.135500	347.848633	1084.617432
19466.356064	16952.135500	346.561523	849.800903
19466.356064	16952.135500	345.275391	874.986572
19466.356064	16952.135500	343.988281	759.269653
19466.356064	16952.135500	342.700195	937.502869
19466.356064	16952.135500	341.413086	739.372070
19466.356064	16952.135500	340.125000	766.130615
19466.356064	16952.135500	338.836914	727.944702
19466.356064	16952.135500	337.548828	737.018555
19466.356064	16952.135500	336.259766	496.325562
19466.356064	16952.135500	334.970703	454.791473
19466.356064	16952.135500	333.681641	404.165131
19466.356064	16952.135500	332.391602	259.255341
19466.356064	16952.135500	331.101563	97.901604
19466.356064	16952.135500	329.811523	438.887787
19466.356064	16952.135500	328.521484	148.513855
19466.356064	16952.135500	327.230469	182.928329
19466.356064	16952.135500	325.939453	428.126862
19466.356064	16952.135500	324.648438	320.317139
19466.356064	16952.135500	323.356445	307.369751
19466.356064	16952.135500	322.064453	33.572166
19466.356064	16952.135500	320.772461	83.852020
19466.356064	16952.135500	319.480469	-56.440788
19466.356064	16952.135500	318.187500	135.827454
19466.356064	16952.135500	316.894531	151.771454
19466.356064	16952.135500	315.601563	-129.431763
19466.356064	16952.135500	314.307617	-121.830643
19466.356064	16952.135500	313.013672	17.593632
19466.356064	16952.135500	311.719727	-266.475311
19466.356064	16952.135500	310.425781	-119.744232
19466.356064	16952.135500	309.130859	-243.583282
19466.356064	16952.135500	307.835938	-236.103958
19466.356064	16952.135500	306.541016	-47.084793
19466.356064	16952.135500	305.245117	-62.228802
19466.356064	16952.135500	303.949219	-50.943375
19466.356064	16952.135500	302.653320	60.415035
19466.356064	16952.135500	301.356445	86.143570
19466.356064	16952.135500	300.060547	334.164154
19466.356064	16952.135500	298.763672	505.264404
