#X		#Y		#Wave		#Intensity
19410.200585	16899.251500	2000.043945	-170.251266
19410.200585	16899.251500	1999.080078	-187.422653
19410.200585	16899.251500	1998.116211	155.064041
19410.200585	16899.251500	1997.151367	16.524214
19410.200585	16899.251500	1996.186523	14.167246
19410.200585	16899.251500	1995.222656	133.046738
19410.200585	16899.251500	1994.256836	93.250542
19410.200585	16899.251500	1993.291992	-100.198784
19410.200585	16899.251500	1992.327148	-60.974915
19410.200585	16899.251500	1991.361328	-284.267761
19410.200585	16899.251500	1990.395508	22.038568
19410.200585	16899.251500	1989.429688	46.030083
19410.200585	16899.251500	1988.463867	64.952866
19410.200585	16899.251500	1987.497070	-99.274445
19410.200585	16899.251500	1986.531250	109.889244
19410.200585	16899.251500	1985.564453	91.398247
19410.200585	16899.251500	1984.597656	13.485778
19410.200585	16899.251500	1983.630859	447.159180
19410.200585	16899.251500	1982.664063	336.902283
19410.200585	16899.251500	1981.696289	416.863098
19410.200585	16899.251500	1980.728516	338.606964
19410.200585	16899.251500	1979.761719	79.988441
19410.200585	16899.251500	1978.792969	298.006836
19410.200585	16899.251500	1977.825195	-205.077240
19410.200585	16899.251500	1976.857422	-76.108528
19410.200585	16899.251500	1975.888672	-85.455597
19410.200585	16899.251500	1974.919922	164.232040
19410.200585	16899.251500	1973.951172	253.398438
19410.200585	16899.251500	1972.982422	354.803955
19410.200585	16899.251500	1972.013672	-128.380936
19410.200585	16899.251500	1971.043945	128.294846
19410.200585	16899.251500	1970.075195	7.619833
19410.200585	16899.251500	1969.105469	254.212357
19410.200585	16899.251500	1968.135742	251.758759
19410.200585	16899.251500	1967.165039	71.861984
19410.200585	16899.251500	1966.195313	47.177925
19410.200585	16899.251500	1965.224609	185.031250
19410.200585	16899.251500	1964.253906	86.381683
19410.200585	16899.251500	1963.283203	411.211578
19410.200585	16899.251500	1962.312500	132.780579
19410.200585	16899.251500	1961.341797	181.758392
19410.200585	16899.251500	1960.370117	208.540222
19410.200585	16899.251500	1959.399414	-77.182770
19410.200585	16899.251500	1958.427734	269.354523
19410.200585	16899.251500	1957.455078	-99.940231
19410.200585	16899.251500	1956.483398	610.331177
19410.200585	16899.251500	1955.511719	245.969879
19410.200585	16899.251500	1954.539063	343.823639
19410.200585	16899.251500	1953.566406	296.625397
19410.200585	16899.251500	1952.593750	453.360748
19410.200585	16899.251500	1951.621094	157.995773
19410.200585	16899.251500	1950.647461	692.909180
19410.200585	16899.251500	1949.674805	311.624207
19410.200585	16899.251500	1948.701172	134.248642
19410.200585	16899.251500	1947.727539	160.671494
19410.200585	16899.251500	1946.753906	-252.254745
19410.200585	16899.251500	1945.780273	488.275543
19410.200585	16899.251500	1944.805664	573.461060
19410.200585	16899.251500	1943.831055	320.089050
19410.200585	16899.251500	1942.856445	302.242401
19410.200585	16899.251500	1941.881836	-88.324303
19410.200585	16899.251500	1940.907227	215.041977
19410.200585	16899.251500	1939.932617	-221.954987
19410.200585	16899.251500	1938.957031	0.433918
19410.200585	16899.251500	1937.981445	-29.636948
19410.200585	16899.251500	1937.005859	457.192322
19410.200585	16899.251500	1936.030273	125.758102
19410.200585	16899.251500	1935.054688	303.803070
19410.200585	16899.251500	1934.078125	68.001892
19410.200585	16899.251500	1933.101563	64.832985
19410.200585	16899.251500	1932.125000	191.374832
19410.200585	16899.251500	1931.148438	-208.247299
19410.200585	16899.251500	1930.171875	-245.638565
19410.200585	16899.251500	1929.194336	193.980927
19410.200585	16899.251500	1928.217773	-198.104248
19410.200585	16899.251500	1927.240234	-66.768135
19410.200585	16899.251500	1926.262695	86.514397
19410.200585	16899.251500	1925.284180	577.054382
19410.200585	16899.251500	1924.306641	89.862877
19410.200585	16899.251500	1923.328125	167.272690
19410.200585	16899.251500	1922.350586	435.193298
19410.200585	16899.251500	1921.372070	307.332397
19410.200585	16899.251500	1920.392578	240.568878
19410.200585	16899.251500	1919.414063	132.312164
19410.200585	16899.251500	1918.434570	307.262054
19410.200585	16899.251500	1917.456055	-10.875216
19410.200585	16899.251500	1916.476563	-6.790493
19410.200585	16899.251500	1915.497070	251.021591
19410.200585	16899.251500	1914.516602	145.281845
19410.200585	16899.251500	1913.537109	378.563721
19410.200585	16899.251500	1912.556641	433.758148
19410.200585	16899.251500	1911.576172	554.749451
19410.200585	16899.251500	1910.595703	300.314606
19410.200585	16899.251500	1909.615234	89.836205
19410.200585	16899.251500	1908.633789	-52.344013
19410.200585	16899.251500	1907.653320	214.780930
19410.200585	16899.251500	1906.671875	-110.058342
19410.200585	16899.251500	1905.690430	83.905151
19410.200585	16899.251500	1904.708984	-11.942257
19410.200585	16899.251500	1903.727539	269.547485
19410.200585	16899.251500	1902.745117	156.645676
19410.200585	16899.251500	1901.762695	124.080162
19410.200585	16899.251500	1900.780273	-212.602600
19410.200585	16899.251500	1899.797852	-69.977272
19410.200585	16899.251500	1898.815430	488.459595
19410.200585	16899.251500	1897.832031	-8.614643
19410.200585	16899.251500	1896.849609	12.299287
19410.200585	16899.251500	1895.866211	268.970642
19410.200585	16899.251500	1894.882813	360.279663
19410.200585	16899.251500	1893.898438	208.571594
19410.200585	16899.251500	1892.915039	-169.021454
19410.200585	16899.251500	1891.930664	-31.574125
19410.200585	16899.251500	1890.947266	416.627777
19410.200585	16899.251500	1889.962891	-244.904495
19410.200585	16899.251500	1888.977539	-119.702843
19410.200585	16899.251500	1887.993164	-414.447540
19410.200585	16899.251500	1887.007813	14.020966
19410.200585	16899.251500	1886.023438	187.561508
19410.200585	16899.251500	1885.038086	285.825745
19410.200585	16899.251500	1884.051758	352.512177
19410.200585	16899.251500	1883.066406	-196.735062
19410.200585	16899.251500	1882.081055	-139.731125
19410.200585	16899.251500	1881.094727	-182.138947
19410.200585	16899.251500	1880.108398	298.890594
19410.200585	16899.251500	1879.122070	229.716263
19410.200585	16899.251500	1878.135742	-45.369663
19410.200585	16899.251500	1877.148438	275.446381
19410.200585	16899.251500	1876.162109	-40.761532
19410.200585	16899.251500	1875.174805	265.349121
19410.200585	16899.251500	1874.187500	159.811203
19410.200585	16899.251500	1873.199219	68.809166
19410.200585	16899.251500	1872.211914	122.991562
19410.200585	16899.251500	1871.223633	-255.920425
19410.200585	16899.251500	1870.236328	-801.629761
19410.200585	16899.251500	1869.248047	362.639435
19410.200585	16899.251500	1868.258789	136.132355
19410.200585	16899.251500	1867.270508	-235.373184
19410.200585	16899.251500	1866.282227	-75.024879
19410.200585	16899.251500	1865.292969	41.732624
19410.200585	16899.251500	1864.303711	-109.774590
19410.200585	16899.251500	1863.314453	146.984055
19410.200585	16899.251500	1862.324219	12.356767
19410.200585	16899.251500	1861.334961	143.359970
19410.200585	16899.251500	1860.344727	312.909424
19410.200585	16899.251500	1859.354492	120.276749
19410.200585	16899.251500	1858.364258	55.594067
19410.200585	16899.251500	1857.374023	292.509186
19410.200585	16899.251500	1856.383789	283.224548
19410.200585	16899.251500	1855.392578	348.681885
19410.200585	16899.251500	1854.401367	228.379562
19410.200585	16899.251500	1853.410156	79.148918
19410.200585	16899.251500	1852.418945	195.102631
19410.200585	16899.251500	1851.426758	-127.684944
19410.200585	16899.251500	1850.435547	383.381653
19410.200585	16899.251500	1849.443359	248.522018
19410.200585	16899.251500	1848.451172	284.691833
19410.200585	16899.251500	1847.458984	246.144379
19410.200585	16899.251500	1846.466797	41.418102
19410.200585	16899.251500	1845.473633	486.747314
19410.200585	16899.251500	1844.480469	337.322205
19410.200585	16899.251500	1843.487305	159.025024
19410.200585	16899.251500	1842.494141	620.780945
19410.200585	16899.251500	1841.500977	-36.332451
19410.200585	16899.251500	1840.506836	470.891541
19410.200585	16899.251500	1839.513672	239.600250
19410.200585	16899.251500	1838.519531	344.953735
19410.200585	16899.251500	1837.525391	346.849609
19410.200585	16899.251500	1836.530273	89.127289
19410.200585	16899.251500	1835.536133	364.903198
19410.200585	16899.251500	1834.541016	342.614441
19410.200585	16899.251500	1833.545898	543.670593
19410.200585	16899.251500	1832.550781	120.176567
19410.200585	16899.251500	1831.555664	383.522522
19410.200585	16899.251500	1830.560547	339.418915
19410.200585	16899.251500	1829.564453	110.458702
19410.200585	16899.251500	1828.568359	-171.268555
19410.200585	16899.251500	1827.572266	406.025757
19410.200585	16899.251500	1826.576172	426.497437
19410.200585	16899.251500	1825.580078	605.200684
19410.200585	16899.251500	1824.583008	61.982216
19410.200585	16899.251500	1823.585938	211.802948
19410.200585	16899.251500	1822.588867	121.795311
19410.200585	16899.251500	1821.591797	614.150269
19410.200585	16899.251500	1820.594727	128.609680
19410.200585	16899.251500	1819.596680	26.512068
19410.200585	16899.251500	1818.599609	127.987671
19410.200585	16899.251500	1817.601563	670.014771
19410.200585	16899.251500	1816.603516	419.234589
19410.200585	16899.251500	1815.604492	-44.569286
19410.200585	16899.251500	1814.606445	350.995667
19410.200585	16899.251500	1813.607422	183.985428
19410.200585	16899.251500	1812.608398	483.529694
19410.200585	16899.251500	1811.609375	96.358612
19410.200585	16899.251500	1810.610352	441.116455
19410.200585	16899.251500	1809.610352	6.149115
19410.200585	16899.251500	1808.611328	68.552963
19410.200585	16899.251500	1807.611328	532.445801
19410.200585	16899.251500	1806.611328	173.985153
19410.200585	16899.251500	1805.610352	415.337006
19410.200585	16899.251500	1804.610352	1.953717
19410.200585	16899.251500	1803.609375	326.710480
19410.200585	16899.251500	1802.608398	254.862762
19410.200585	16899.251500	1801.607422	261.765808
19410.200585	16899.251500	1800.606445	478.665558
19410.200585	16899.251500	1799.605469	113.061821
19410.200585	16899.251500	1798.603516	487.272583
19410.200585	16899.251500	1797.601563	849.338806
19410.200585	16899.251500	1796.599609	543.303406
19410.200585	16899.251500	1795.597656	456.728668
19410.200585	16899.251500	1794.595703	439.262970
19410.200585	16899.251500	1793.592773	428.891968
19410.200585	16899.251500	1792.589844	468.512512
19410.200585	16899.251500	1791.587891	150.580292
19410.200585	16899.251500	1790.583984	206.774826
19410.200585	16899.251500	1789.581055	305.760223
19410.200585	16899.251500	1788.577148	292.698975
19410.200585	16899.251500	1787.574219	293.858368
19410.200585	16899.251500	1786.570313	-45.509525
19410.200585	16899.251500	1785.566406	310.254364
19410.200585	16899.251500	1784.561523	408.783691
19410.200585	16899.251500	1783.557617	93.170555
19410.200585	16899.251500	1782.552734	-124.845192
19410.200585	16899.251500	1781.547852	-50.287731
19410.200585	16899.251500	1780.542969	-56.680447
19410.200585	16899.251500	1779.538086	77.140808
19410.200585	16899.251500	1778.532227	146.656998
19410.200585	16899.251500	1777.527344	185.179840
19410.200585	16899.251500	1776.521484	499.272705
19410.200585	16899.251500	1775.515625	406.900116
19410.200585	16899.251500	1774.508789	385.761627
19410.200585	16899.251500	1773.502930	-43.935974
19410.200585	16899.251500	1772.496094	359.917084
19410.200585	16899.251500	1771.489258	-15.147910
19410.200585	16899.251500	1770.482422	134.431702
19410.200585	16899.251500	1769.475586	84.542862
19410.200585	16899.251500	1768.467773	195.947250
19410.200585	16899.251500	1767.460938	380.778290
19410.200585	16899.251500	1766.453125	375.727112
19410.200585	16899.251500	1765.445313	387.212158
19410.200585	16899.251500	1764.437500	377.284424
19410.200585	16899.251500	1763.428711	291.439789
19410.200585	16899.251500	1762.420898	155.788910
19410.200585	16899.251500	1761.412109	193.104340
19410.200585	16899.251500	1760.403320	2.898673
19410.200585	16899.251500	1759.393555	456.976105
19410.200585	16899.251500	1758.384766	271.401001
19410.200585	16899.251500	1757.375000	-4.148284
19410.200585	16899.251500	1756.366211	54.135075
19410.200585	16899.251500	1755.356445	121.796410
19410.200585	16899.251500	1754.345703	-35.445332
19410.200585	16899.251500	1753.335938	150.377213
19410.200585	16899.251500	1752.325195	-4.569860
19410.200585	16899.251500	1751.315430	306.392029
19410.200585	16899.251500	1750.304688	260.120148
19410.200585	16899.251500	1749.292969	320.185089
19410.200585	16899.251500	1748.282227	269.070496
19410.200585	16899.251500	1747.270508	-124.757301
19410.200585	16899.251500	1746.259766	-83.740189
19410.200585	16899.251500	1745.248047	-47.525295
19410.200585	16899.251500	1744.235352	-138.932617
19410.200585	16899.251500	1743.223633	218.315063
19410.200585	16899.251500	1742.211914	-33.775562
19410.200585	16899.251500	1741.199219	-89.905022
19410.200585	16899.251500	1740.186523	21.495327
19410.200585	16899.251500	1739.173828	-240.027100
19410.200585	16899.251500	1738.160156	-95.731560
19410.200585	16899.251500	1737.147461	43.737999
19410.200585	16899.251500	1736.133789	13.296061
19410.200585	16899.251500	1735.120117	249.245987
19410.200585	16899.251500	1734.106445	138.514130
19410.200585	16899.251500	1733.091797	150.325409
19410.200585	16899.251500	1732.078125	-21.725288
19410.200585	16899.251500	1731.063477	13.561235
19410.200585	16899.251500	1730.048828	442.168335
19410.200585	16899.251500	1729.034180	-184.547928
19410.200585	16899.251500	1728.019531	-208.274368
19410.200585	16899.251500	1727.003906	69.295700
19410.200585	16899.251500	1725.988281	28.946634
19410.200585	16899.251500	1724.972656	160.358795
19410.200585	16899.251500	1723.957031	-322.439789
19410.200585	16899.251500	1722.941406	-252.276566
19410.200585	16899.251500	1721.924805	-351.536407
19410.200585	16899.251500	1720.909180	-384.959229
19410.200585	16899.251500	1719.892578	-35.190483
19410.200585	16899.251500	1718.875977	100.488129
19410.200585	16899.251500	1717.858398	-405.534973
19410.200585	16899.251500	1716.841797	0.289781
19410.200585	16899.251500	1715.824219	380.074371
19410.200585	16899.251500	1714.806641	22.127230
19410.200585	16899.251500	1713.789063	108.120949
19410.200585	16899.251500	1712.770508	-73.626488
19410.200585	16899.251500	1711.752930	-112.147171
19410.200585	16899.251500	1710.734375	243.608109
19410.200585	16899.251500	1709.715820	174.447952
19410.200585	16899.251500	1708.697266	-14.372946
19410.200585	16899.251500	1707.678711	-268.845947
19410.200585	16899.251500	1706.659180	-26.063419
19410.200585	16899.251500	1705.640625	-163.271820
19410.200585	16899.251500	1704.621094	51.190975
19410.200585	16899.251500	1703.600586	70.985847
19410.200585	16899.251500	1702.581055	226.663437
19410.200585	16899.251500	1701.561523	-32.466312
19410.200585	16899.251500	1700.541016	-174.402130
19410.200585	16899.251500	1699.520508	316.047791
19410.200585	16899.251500	1698.500000	14.802280
19410.200585	16899.251500	1697.478516	123.350830
19410.200585	16899.251500	1696.458008	-44.380562
19410.200585	16899.251500	1695.436523	199.812729
19410.200585	16899.251500	1694.415039	-77.900764
19410.200585	16899.251500	1693.393555	205.921280
19410.200585	16899.251500	1692.372070	155.139130
19410.200585	16899.251500	1691.349609	-108.457047
19410.200585	16899.251500	1690.327148	128.367813
19410.200585	16899.251500	1689.304688	276.247437
19410.200585	16899.251500	1688.282227	57.112446
19410.200585	16899.251500	1687.259766	-239.067490
19410.200585	16899.251500	1686.236328	-28.189760
19410.200585	16899.251500	1685.213867	138.207291
19410.200585	16899.251500	1684.190430	-120.515839
19410.200585	16899.251500	1683.166016	-45.268383
19410.200585	16899.251500	1682.142578	-54.104214
19410.200585	16899.251500	1681.119141	95.758949
19410.200585	16899.251500	1680.094727	70.529121
19410.200585	16899.251500	1679.070313	182.949417
19410.200585	16899.251500	1678.045898	174.012985
19410.200585	16899.251500	1677.020508	293.334106
19410.200585	16899.251500	1675.996094	251.714478
19410.200585	16899.251500	1674.970703	331.323090
19410.200585	16899.251500	1673.945313	-17.987514
19410.200585	16899.251500	1672.919922	383.221130
19410.200585	16899.251500	1671.893555	-70.831230
19410.200585	16899.251500	1670.868164	467.661102
19410.200585	16899.251500	1669.841797	286.253784
19410.200585	16899.251500	1668.815430	447.221252
19410.200585	16899.251500	1667.789063	556.900452
19410.200585	16899.251500	1666.761719	180.042404
19410.200585	16899.251500	1665.735352	259.472321
19410.200585	16899.251500	1664.708008	113.167786
19410.200585	16899.251500	1663.680664	397.297760
19410.200585	16899.251500	1662.653320	378.953125
19410.200585	16899.251500	1661.625000	390.841949
19410.200585	16899.251500	1660.597656	446.910492
19410.200585	16899.251500	1659.569336	614.538757
19410.200585	16899.251500	1658.541016	175.512878
19410.200585	16899.251500	1657.512695	570.861267
19410.200585	16899.251500	1656.483398	422.424774
19410.200585	16899.251500	1655.455078	650.348938
19410.200585	16899.251500	1654.425781	525.197327
19410.200585	16899.251500	1653.396484	397.779572
19410.200585	16899.251500	1652.366211	511.854584
19410.200585	16899.251500	1651.336914	639.821655
19410.200585	16899.251500	1650.306641	301.326508
19410.200585	16899.251500	1649.276367	420.034210
19410.200585	16899.251500	1648.246094	459.840271
19410.200585	16899.251500	1647.215820	474.140259
19410.200585	16899.251500	1646.185547	569.611023
19410.200585	16899.251500	1645.154297	820.378784
19410.200585	16899.251500	1644.123047	535.655273
19410.200585	16899.251500	1643.091797	902.246338
19410.200585	16899.251500	1642.060547	860.937988
19410.200585	16899.251500	1641.028320	951.704407
19410.200585	16899.251500	1639.997070	970.666992
19410.200585	16899.251500	1638.964844	1047.530518
19410.200585	16899.251500	1637.931641	492.358795
19410.200585	16899.251500	1636.899414	715.167480
19410.200585	16899.251500	1635.867188	516.727539
19410.200585	16899.251500	1634.833984	649.259277
19410.200585	16899.251500	1633.800781	497.232086
19410.200585	16899.251500	1632.767578	382.303131
19410.200585	16899.251500	1631.734375	785.438293
19410.200585	16899.251500	1630.700195	587.326843
19410.200585	16899.251500	1629.666016	574.250305
19410.200585	16899.251500	1628.631836	290.819153
19410.200585	16899.251500	1627.597656	975.694519
19410.200585	16899.251500	1626.563477	1075.865723
19410.200585	16899.251500	1625.528320	1252.252563
19410.200585	16899.251500	1624.493164	878.995911
19410.200585	16899.251500	1623.458008	577.499084
19410.200585	16899.251500	1622.422852	1051.786499
19410.200585	16899.251500	1621.387695	1152.042847
19410.200585	16899.251500	1620.351563	848.488831
19410.200585	16899.251500	1619.315430	891.159668
19410.200585	16899.251500	1618.279297	1146.064087
19410.200585	16899.251500	1617.243164	1045.769531
19410.200585	16899.251500	1616.207031	1074.683228
19410.200585	16899.251500	1615.169922	1128.987183
19410.200585	16899.251500	1614.132813	1176.407715
19410.200585	16899.251500	1613.095703	1027.988647
19410.200585	16899.251500	1612.058594	1105.461426
19410.200585	16899.251500	1611.020508	683.106079
19410.200585	16899.251500	1609.983398	1007.146912
19410.200585	16899.251500	1608.945313	981.127075
19410.200585	16899.251500	1607.907227	962.077332
19410.200585	16899.251500	1606.868164	1141.035522
19410.200585	16899.251500	1605.830078	1269.358398
19410.200585	16899.251500	1604.791016	1317.159912
19410.200585	16899.251500	1603.751953	886.533081
19410.200585	16899.251500	1602.712891	840.216980
19410.200585	16899.251500	1601.673828	1090.607056
19410.200585	16899.251500	1600.633789	1426.022827
19410.200585	16899.251500	1599.594727	1708.503906
19410.200585	16899.251500	1598.554688	1198.102417
19410.200585	16899.251500	1597.513672	1055.585205
19410.200585	16899.251500	1596.473633	1616.131958
19410.200585	16899.251500	1595.433594	1103.949219
19410.200585	16899.251500	1594.392578	1237.293945
19410.200585	16899.251500	1593.351563	1299.485229
19410.200585	16899.251500	1592.310547	1104.633301
19410.200585	16899.251500	1591.268555	1134.839233
19410.200585	16899.251500	1590.227539	1291.301758
19410.200585	16899.251500	1589.185547	1218.367065
19410.200585	16899.251500	1588.143555	1276.275513
19410.200585	16899.251500	1587.100586	1334.230103
19410.200585	16899.251500	1586.058594	1440.389771
19410.200585	16899.251500	1585.015625	1315.066284
19410.200585	16899.251500	1583.972656	1643.643921
19410.200585	16899.251500	1582.929688	1392.463623
19410.200585	16899.251500	1581.886719	962.764282
19410.200585	16899.251500	1580.843750	1316.656250
19410.200585	16899.251500	1579.799805	1187.292114
19410.200585	16899.251500	1578.755859	1515.978027
19410.200585	16899.251500	1577.711914	1643.175537
19410.200585	16899.251500	1576.666992	1523.229248
19410.200585	16899.251500	1575.623047	1508.675415
19410.200585	16899.251500	1574.578125	1777.893311
19410.200585	16899.251500	1573.533203	1811.501221
19410.200585	16899.251500	1572.488281	1758.277222
19410.200585	16899.251500	1571.443359	1615.995361
19410.200585	16899.251500	1570.397461	1691.024048
19410.200585	16899.251500	1569.351563	1996.953613
19410.200585	16899.251500	1568.305664	1649.316162
19410.200585	16899.251500	1567.259766	1557.787842
19410.200585	16899.251500	1566.213867	1665.111938
19410.200585	16899.251500	1565.166992	1635.461548
19410.200585	16899.251500	1564.120117	1845.665039
19410.200585	16899.251500	1563.073242	1631.265991
19410.200585	16899.251500	1562.026367	1907.765137
19410.200585	16899.251500	1560.978516	1620.609497
19410.200585	16899.251500	1559.930664	1639.384766
19410.200585	16899.251500	1558.883789	1646.844116
19410.200585	16899.251500	1557.834961	1186.879028
19410.200585	16899.251500	1556.787109	1224.263306
19410.200585	16899.251500	1555.739258	1512.499146
19410.200585	16899.251500	1554.690430	1442.877686
19410.200585	16899.251500	1553.641602	1236.659912
19410.200585	16899.251500	1552.592773	1135.428345
19410.200585	16899.251500	1551.542969	1473.974731
19410.200585	16899.251500	1550.494141	1001.713562
19410.200585	16899.251500	1549.444336	1595.388062
19410.200585	16899.251500	1548.394531	861.695740
19410.200585	16899.251500	1547.344727	856.750610
19410.200585	16899.251500	1546.293945	1297.950195
19410.200585	16899.251500	1545.244141	1381.868286
19410.200585	16899.251500	1544.193359	1101.897217
19410.200585	16899.251500	1543.142578	1022.284912
19410.200585	16899.251500	1542.090820	835.941284
19410.200585	16899.251500	1541.040039	954.419434
19410.200585	16899.251500	1539.988281	1177.515015
19410.200585	16899.251500	1538.936523	1150.659302
19410.200585	16899.251500	1537.884766	821.735291
19410.200585	16899.251500	1536.833008	926.931091
19410.200585	16899.251500	1535.780273	1179.828979
19410.200585	16899.251500	1534.727539	1060.339844
19410.200585	16899.251500	1533.674805	832.030823
19410.200585	16899.251500	1532.622070	919.437256
19410.200585	16899.251500	1531.569336	716.438660
19410.200585	16899.251500	1530.515625	926.586304
19410.200585	16899.251500	1529.461914	558.298645
19410.200585	16899.251500	1528.408203	373.982300
19410.200585	16899.251500	1527.354492	647.911133
19410.200585	16899.251500	1526.299805	656.593872
19410.200585	16899.251500	1525.246094	431.912628
19410.200585	16899.251500	1524.191406	336.623016
19410.200585	16899.251500	1523.136719	252.814575
19410.200585	16899.251500	1522.081055	218.996552
19410.200585	16899.251500	1521.026367	101.507072
19410.200585	16899.251500	1519.970703	341.969818
19410.200585	16899.251500	1518.915039	190.786331
19410.200585	16899.251500	1517.859375	318.195251
19410.200585	16899.251500	1516.802734	79.057823
19410.200585	16899.251500	1515.747070	195.363403
19410.200585	16899.251500	1514.690430	117.201553
19410.200585	16899.251500	1513.633789	439.527924
19410.200585	16899.251500	1512.577148	126.409218
19410.200585	16899.251500	1511.519531	439.808746
19410.200585	16899.251500	1510.461914	9.521708
19410.200585	16899.251500	1509.405273	-144.758804
19410.200585	16899.251500	1508.346680	-95.486282
19410.200585	16899.251500	1507.289063	252.086166
19410.200585	16899.251500	1506.231445	-12.452924
19410.200585	16899.251500	1505.172852	-358.049713
19410.200585	16899.251500	1504.114258	240.351898
19410.200585	16899.251500	1503.055664	50.841949
19410.200585	16899.251500	1501.996094	-73.013702
19410.200585	16899.251500	1500.937500	119.196747
19410.200585	16899.251500	1499.877930	-175.828629
19410.200585	16899.251500	1498.818359	-227.014771
19410.200585	16899.251500	1497.757813	-14.205586
19410.200585	16899.251500	1496.698242	101.689499
19410.200585	16899.251500	1495.637695	-433.786835
19410.200585	16899.251500	1494.577148	-110.255341
19410.200585	16899.251500	1493.516602	-372.575317
19410.200585	16899.251500	1492.456055	115.522820
19410.200585	16899.251500	1491.394531	15.688023
19410.200585	16899.251500	1490.333008	-351.954865
19410.200585	16899.251500	1489.271484	-140.698822
19410.200585	16899.251500	1488.209961	183.155457
19410.200585	16899.251500	1487.148438	194.174362
19410.200585	16899.251500	1486.085938	-111.945747
19410.200585	16899.251500	1485.023438	-181.600204
19410.200585	16899.251500	1483.960938	-71.160110
19410.200585	16899.251500	1482.898438	318.210449
19410.200585	16899.251500	1481.834961	469.239502
19410.200585	16899.251500	1480.772461	53.853802
19410.200585	16899.251500	1479.708984	-21.849817
19410.200585	16899.251500	1478.644531	250.847672
19410.200585	16899.251500	1477.581055	-55.967529
19410.200585	16899.251500	1476.517578	25.936710
19410.200585	16899.251500	1475.453125	375.124969
19410.200585	16899.251500	1474.388672	149.759277
19410.200585	16899.251500	1473.323242	166.939590
19410.200585	16899.251500	1472.258789	316.551697
19410.200585	16899.251500	1471.193359	306.975433
19410.200585	16899.251500	1470.127930	219.356644
19410.200585	16899.251500	1469.062500	340.085876
19410.200585	16899.251500	1467.997070	169.678528
19410.200585	16899.251500	1466.930664	17.086815
19410.200585	16899.251500	1465.865234	243.273193
19410.200585	16899.251500	1464.798828	172.103195
19410.200585	16899.251500	1463.731445	400.600372
19410.200585	16899.251500	1462.665039	459.265625
19410.200585	16899.251500	1461.597656	345.781464
19410.200585	16899.251500	1460.530273	431.956757
19410.200585	16899.251500	1459.462891	774.275635
19410.200585	16899.251500	1458.395508	362.882416
19410.200585	16899.251500	1457.327148	584.452820
19410.200585	16899.251500	1456.259766	330.736328
19410.200585	16899.251500	1455.191406	794.803467
19410.200585	16899.251500	1454.123047	598.677246
19410.200585	16899.251500	1453.053711	495.709564
19410.200585	16899.251500	1451.985352	375.551239
19410.200585	16899.251500	1450.916016	679.933960
19410.200585	16899.251500	1449.846680	685.938721
19410.200585	16899.251500	1448.776367	724.902283
19410.200585	16899.251500	1447.707031	141.501862
19410.200585	16899.251500	1446.636719	105.305893
19410.200585	16899.251500	1445.566406	386.590271
19410.200585	16899.251500	1444.496094	162.792114
19410.200585	16899.251500	1443.425781	361.801727
19410.200585	16899.251500	1442.354492	375.893921
19410.200585	16899.251500	1441.283203	208.012070
19410.200585	16899.251500	1440.211914	239.710510
19410.200585	16899.251500	1439.140625	299.176331
19410.200585	16899.251500	1438.069336	165.202072
19410.200585	16899.251500	1436.997070	-32.768906
19410.200585	16899.251500	1435.924805	-194.336807
19410.200585	16899.251500	1434.852539	482.974518
19410.200585	16899.251500	1433.780273	383.191956
19410.200585	16899.251500	1432.707031	261.720184
19410.200585	16899.251500	1431.633789	-9.830506
19410.200585	16899.251500	1430.560547	74.320663
19410.200585	16899.251500	1429.487305	214.606827
19410.200585	16899.251500	1428.413086	1.581451
19410.200585	16899.251500	1427.339844	330.929260
19410.200585	16899.251500	1426.265625	112.843658
19410.200585	16899.251500	1425.191406	-85.628204
19410.200585	16899.251500	1424.116211	131.930801
19410.200585	16899.251500	1423.041992	-3.908755
19410.200585	16899.251500	1421.966797	364.945801
19410.200585	16899.251500	1420.891602	20.396587
19410.200585	16899.251500	1419.816406	73.771233
19410.200585	16899.251500	1418.740234	232.202164
19410.200585	16899.251500	1417.665039	37.891720
19410.200585	16899.251500	1416.588867	255.429642
19410.200585	16899.251500	1415.512695	-174.579361
19410.200585	16899.251500	1414.435547	339.360840
19410.200585	16899.251500	1413.359375	166.150940
19410.200585	16899.251500	1412.282227	42.123653
19410.200585	16899.251500	1411.205078	94.371552
19410.200585	16899.251500	1410.127930	58.394051
19410.200585	16899.251500	1409.049805	-80.534966
19410.200585	16899.251500	1407.972656	538.843628
19410.200585	16899.251500	1406.894531	317.300873
19410.200585	16899.251500	1405.816406	384.323456
19410.200585	16899.251500	1404.737305	542.724670
19410.200585	16899.251500	1403.659180	68.688568
19410.200585	16899.251500	1402.580078	170.912811
19410.200585	16899.251500	1401.500977	237.258606
19410.200585	16899.251500	1400.421875	404.424500
19410.200585	16899.251500	1399.341797	406.853149
19410.200585	16899.251500	1398.262695	653.930847
19410.200585	16899.251500	1397.182617	244.094315
19410.200585	16899.251500	1396.102539	519.552002
19410.200585	16899.251500	1395.021484	184.410889
19410.200585	16899.251500	1393.941406	73.376839
19410.200585	16899.251500	1392.860352	-133.823578
19410.200585	16899.251500	1391.779297	247.927765
19410.200585	16899.251500	1390.698242	455.591095
19410.200585	16899.251500	1389.616211	365.480896
19410.200585	16899.251500	1388.535156	286.001343
19410.200585	16899.251500	1387.453125	505.786072
19410.200585	16899.251500	1386.371094	171.702744
19410.200585	16899.251500	1385.288086	342.952911
19410.200585	16899.251500	1384.206055	475.518127
19410.200585	16899.251500	1383.123047	540.478027
19410.200585	16899.251500	1382.040039	518.485046
19410.200585	16899.251500	1380.957031	467.245544
19410.200585	16899.251500	1379.873047	615.867615
19410.200585	16899.251500	1378.789063	634.858948
19410.200585	16899.251500	1377.705078	635.945374
19410.200585	16899.251500	1376.621094	529.809692
19410.200585	16899.251500	1375.537109	246.396469
19410.200585	16899.251500	1374.452148	574.392334
19410.200585	16899.251500	1373.367188	458.558502
19410.200585	16899.251500	1372.282227	614.648071
19410.200585	16899.251500	1371.197266	355.804749
19410.200585	16899.251500	1370.112305	471.555176
19410.200585	16899.251500	1369.026367	732.695618
19410.200585	16899.251500	1367.940430	740.662781
19410.200585	16899.251500	1366.854492	439.877594
19410.200585	16899.251500	1365.767578	498.949188
19410.200585	16899.251500	1364.681641	941.313354
19410.200585	16899.251500	1363.594727	965.638306
19410.200585	16899.251500	1362.507813	1250.246948
19410.200585	16899.251500	1361.419922	770.279846
19410.200585	16899.251500	1360.333008	835.101929
19410.200585	16899.251500	1359.245117	863.221802
19410.200585	16899.251500	1358.157227	1078.602661
19410.200585	16899.251500	1357.069336	1005.739807
19410.200585	16899.251500	1355.981445	727.007385
19410.200585	16899.251500	1354.892578	818.792480
19410.200585	16899.251500	1353.803711	846.749451
19410.200585	16899.251500	1352.714844	660.947754
19410.200585	16899.251500	1351.625000	552.571594
19410.200585	16899.251500	1350.536133	574.480652
19410.200585	16899.251500	1349.446289	803.958130
19410.200585	16899.251500	1348.356445	815.013611
19410.200585	16899.251500	1347.266602	836.946960
19410.200585	16899.251500	1346.175781	615.333191
19410.200585	16899.251500	1345.085938	791.617493
19410.200585	16899.251500	1343.995117	732.685120
19410.200585	16899.251500	1342.903320	781.676025
19410.200585	16899.251500	1341.812500	855.109253
19410.200585	16899.251500	1340.720703	664.757141
19410.200585	16899.251500	1339.629883	331.208771
19410.200585	16899.251500	1338.538086	628.439819
19410.200585	16899.251500	1337.445313	596.195740
19410.200585	16899.251500	1336.353516	801.827026
19410.200585	16899.251500	1335.260742	538.528381
19410.200585	16899.251500	1334.167969	623.730469
19410.200585	16899.251500	1333.075195	397.326935
19410.200585	16899.251500	1331.981445	653.924805
19410.200585	16899.251500	1330.888672	737.530212
19410.200585	16899.251500	1329.794922	418.990814
19410.200585	16899.251500	1328.701172	706.971313
19410.200585	16899.251500	1327.606445	661.879700
19410.200585	16899.251500	1326.512695	404.870239
19410.200585	16899.251500	1325.417969	450.490082
19410.200585	16899.251500	1324.323242	486.728058
19410.200585	16899.251500	1323.227539	343.269562
19410.200585	16899.251500	1322.132813	680.588867
19410.200585	16899.251500	1321.037109	807.463989
19410.200585	16899.251500	1319.941406	373.668701
19410.200585	16899.251500	1318.845703	468.432556
19410.200585	16899.251500	1317.750000	264.618042
19410.200585	16899.251500	1316.653320	433.582611
19410.200585	16899.251500	1315.556641	26.396835
19410.200585	16899.251500	1314.459961	279.259033
19410.200585	16899.251500	1313.363281	475.062897
19410.200585	16899.251500	1312.265625	89.447289
19410.200585	16899.251500	1311.167969	137.884964
19410.200585	16899.251500	1310.070313	44.179752
19410.200585	16899.251500	1308.972656	285.147186
19410.200585	16899.251500	1307.874023	265.117706
19410.200585	16899.251500	1306.776367	418.474762
19410.200585	16899.251500	1305.677734	247.274643
19410.200585	16899.251500	1304.579102	125.380539
19410.200585	16899.251500	1303.479492	265.830017
19410.200585	16899.251500	1302.380859	324.377411
19410.200585	16899.251500	1301.281250	572.387817
19410.200585	16899.251500	1300.181641	435.837646
19410.200585	16899.251500	1299.081055	351.764526
19410.200585	16899.251500	1297.981445	548.293640
19410.200585	16899.251500	1296.880859	431.532593
19410.200585	16899.251500	1295.780273	130.902908
19410.200585	16899.251500	1294.679688	395.407623
19410.200585	16899.251500	1293.578125	501.858032
19410.200585	16899.251500	1292.476563	421.413879
19410.200585	16899.251500	1291.375000	-87.214714
19410.200585	16899.251500	1290.273438	89.483131
19410.200585	16899.251500	1289.171875	143.858154
19410.200585	16899.251500	1288.069336	306.448273
19410.200585	16899.251500	1286.966797	281.198334
19410.200585	16899.251500	1285.864258	-83.232315
19410.200585	16899.251500	1284.761719	-101.739044
19410.200585	16899.251500	1283.658203	-120.346336
19410.200585	16899.251500	1282.554688	215.331985
19410.200585	16899.251500	1281.451172	-16.486130
19410.200585	16899.251500	1280.347656	42.780533
19410.200585	16899.251500	1279.244141	-91.888351
19410.200585	16899.251500	1278.139648	-390.267212
19410.200585	16899.251500	1277.035156	112.116051
19410.200585	16899.251500	1275.930664	43.764519
19410.200585	16899.251500	1274.825195	16.634293
19410.200585	16899.251500	1273.720703	-222.282913
19410.200585	16899.251500	1272.615234	102.843857
19410.200585	16899.251500	1271.508789	181.424011
19410.200585	16899.251500	1270.403320	-246.007813
19410.200585	16899.251500	1269.297852	-77.534546
19410.200585	16899.251500	1268.191406	-46.797695
19410.200585	16899.251500	1267.084961	301.752899
19410.200585	16899.251500	1265.977539	-34.270386
19410.200585	16899.251500	1264.871094	-48.047745
19410.200585	16899.251500	1263.763672	-1.017641
19410.200585	16899.251500	1262.656250	-160.778381
19410.200585	16899.251500	1261.548828	83.962280
19410.200585	16899.251500	1260.440430	-80.542603
19410.200585	16899.251500	1259.333008	-130.176376
19410.200585	16899.251500	1258.224609	-114.586449
19410.200585	16899.251500	1257.115234	-161.775497
19410.200585	16899.251500	1256.006836	-199.023331
19410.200585	16899.251500	1254.897461	-316.278168
19410.200585	16899.251500	1253.788086	-221.355026
19410.200585	16899.251500	1252.678711	-113.756607
19410.200585	16899.251500	1251.569336	-136.594910
19410.200585	16899.251500	1250.458984	-114.017258
19410.200585	16899.251500	1249.349609	0.688798
19410.200585	16899.251500	1248.239258	-97.006973
19410.200585	16899.251500	1247.127930	-50.888485
19410.200585	16899.251500	1246.017578	-181.251053
19410.200585	16899.251500	1244.906250	-40.736271
19410.200585	16899.251500	1243.794922	43.663155
19410.200585	16899.251500	1242.683594	-55.697975
19410.200585	16899.251500	1241.571289	-67.054871
19410.200585	16899.251500	1240.459961	107.873421
19410.200585	16899.251500	1239.347656	311.912048
19410.200585	16899.251500	1238.234375	117.999786
19410.200585	16899.251500	1237.122070	115.195030
19410.200585	16899.251500	1236.008789	8.109967
19410.200585	16899.251500	1234.896484	112.533516
19410.200585	16899.251500	1233.782227	82.329529
19410.200585	16899.251500	1232.668945	8.078229
19410.200585	16899.251500	1231.555664	-22.127491
19410.200585	16899.251500	1230.441406	-1.026830
19410.200585	16899.251500	1229.327148	154.959976
19410.200585	16899.251500	1228.211914	36.433556
19410.200585	16899.251500	1227.097656	-57.449749
19410.200585	16899.251500	1225.982422	187.650574
19410.200585	16899.251500	1224.867188	-113.568459
19410.200585	16899.251500	1223.751953	-124.414032
19410.200585	16899.251500	1222.635742	-8.008250
19410.200585	16899.251500	1221.520508	266.158966
19410.200585	16899.251500	1220.404297	241.396698
19410.200585	16899.251500	1219.287109	84.466072
19410.200585	16899.251500	1218.170898	115.961281
19410.200585	16899.251500	1217.053711	-36.310635
19410.200585	16899.251500	1215.936523	54.992088
19410.200585	16899.251500	1214.819336	105.208778
19410.200585	16899.251500	1213.702148	219.672913
19410.200585	16899.251500	1212.583984	111.814980
19410.200585	16899.251500	1211.465820	-29.497740
19410.200585	16899.251500	1210.347656	126.734253
19410.200585	16899.251500	1209.229492	94.106186
19410.200585	16899.251500	1208.110352	-61.195671
19410.200585	16899.251500	1206.992188	37.579655
19410.200585	16899.251500	1205.873047	-112.392067
19410.200585	16899.251500	1204.752930	-51.886765
19410.200585	16899.251500	1203.633789	87.235374
19410.200585	16899.251500	1202.513672	-78.217216
19410.200585	16899.251500	1201.393555	-31.128923
19410.200585	16899.251500	1200.273438	-80.074409
19410.200585	16899.251500	1199.152344	45.118774
19410.200585	16899.251500	1198.032227	71.686447
19410.200585	16899.251500	1196.911133	52.548141
19410.200585	16899.251500	1195.790039	11.311809
19410.200585	16899.251500	1194.667969	-6.881442
19410.200585	16899.251500	1193.545898	318.728760
19410.200585	16899.251500	1192.424805	-141.497467
19410.200585	16899.251500	1191.301758	130.902893
19410.200585	16899.251500	1190.179688	323.940643
19410.200585	16899.251500	1189.056641	215.023254
19410.200585	16899.251500	1187.933594	39.838978
19410.200585	16899.251500	1186.810547	-68.407448
19410.200585	16899.251500	1185.687500	109.172287
19410.200585	16899.251500	1184.563477	-75.153976
19410.200585	16899.251500	1183.440430	-54.028458
19410.200585	16899.251500	1182.316406	-22.592882
19410.200585	16899.251500	1181.191406	204.435516
19410.200585	16899.251500	1180.067383	-106.966110
19410.200585	16899.251500	1178.942383	181.759537
19410.200585	16899.251500	1177.817383	-132.333664
19410.200585	16899.251500	1176.692383	-26.904217
19410.200585	16899.251500	1175.566406	56.536186
19410.200585	16899.251500	1174.440430	-226.155716
19410.200585	16899.251500	1173.314453	-262.546631
19410.200585	16899.251500	1172.188477	-111.568466
19410.200585	16899.251500	1171.062500	-37.825001
19410.200585	16899.251500	1169.935547	-168.816360
19410.200585	16899.251500	1168.808594	-106.162148
19410.200585	16899.251500	1167.681641	73.518219
19410.200585	16899.251500	1166.553711	25.824167
19410.200585	16899.251500	1165.426758	-11.035694
19410.200585	16899.251500	1164.298828	-228.887711
19410.200585	16899.251500	1163.170898	-88.269279
19410.200585	16899.251500	1162.041992	60.569298
19410.200585	16899.251500	1160.914063	42.038120
19410.200585	16899.251500	1159.785156	20.841814
19410.200585	16899.251500	1158.656250	26.992002
19410.200585	16899.251500	1157.526367	103.669868
19410.200585	16899.251500	1156.397461	-174.376251
19410.200585	16899.251500	1155.267578	-182.818954
19410.200585	16899.251500	1154.137695	-158.339828
19410.200585	16899.251500	1153.006836	37.656273
19410.200585	16899.251500	1151.876953	-102.523407
19410.200585	16899.251500	1150.746094	-80.965820
19410.200585	16899.251500	1149.615234	160.940613
19410.200585	16899.251500	1148.484375	44.709435
19410.200585	16899.251500	1147.352539	54.203156
19410.200585	16899.251500	1146.220703	51.281559
19410.200585	16899.251500	1145.088867	58.741386
19410.200585	16899.251500	1143.957031	172.695801
19410.200585	16899.251500	1142.825195	303.638824
19410.200585	16899.251500	1141.692383	295.534363
19410.200585	16899.251500	1140.559570	74.674065
19410.200585	16899.251500	1139.426758	145.479721
19410.200585	16899.251500	1138.292969	93.432709
19410.200585	16899.251500	1137.159180	-72.306046
19410.200585	16899.251500	1136.025391	75.773132
19410.200585	16899.251500	1134.891602	61.248306
19410.200585	16899.251500	1133.757813	-14.431391
19410.200585	16899.251500	1132.623047	-56.591377
19410.200585	16899.251500	1131.488281	185.511520
19410.200585	16899.251500	1130.353516	79.469063
19410.200585	16899.251500	1129.217773	127.344368
19410.200585	16899.251500	1128.083008	180.589111
19410.200585	16899.251500	1126.947266	202.845200
19410.200585	16899.251500	1125.811523	412.856079
19410.200585	16899.251500	1124.674805	17.284304
19410.200585	16899.251500	1123.539063	-102.875107
19410.200585	16899.251500	1122.402344	130.697189
19410.200585	16899.251500	1121.265625	223.190094
19410.200585	16899.251500	1120.127930	-159.089401
19410.200585	16899.251500	1118.990234	168.270386
19410.200585	16899.251500	1117.853516	386.776947
19410.200585	16899.251500	1116.714844	350.634308
19410.200585	16899.251500	1115.577148	81.232208
19410.200585	16899.251500	1114.439453	101.744804
19410.200585	16899.251500	1113.300781	173.750336
19410.200585	16899.251500	1112.162109	-39.208385
19410.200585	16899.251500	1111.022461	165.392120
19410.200585	16899.251500	1109.883789	212.997101
19410.200585	16899.251500	1108.744141	436.997253
19410.200585	16899.251500	1107.604492	254.675751
19410.200585	16899.251500	1106.463867	280.999329
19410.200585	16899.251500	1105.324219	365.688995
19410.200585	16899.251500	1104.183594	144.957321
19410.200585	16899.251500	1103.042969	214.599457
19410.200585	16899.251500	1101.902344	73.394768
19410.200585	16899.251500	1100.760742	53.206242
19410.200585	16899.251500	1099.619141	182.524445
19410.200585	16899.251500	1098.477539	217.740082
19410.200585	16899.251500	1097.335938	316.337585
19410.200585	16899.251500	1096.193359	550.293152
19410.200585	16899.251500	1095.051758	654.037415
19410.200585	16899.251500	1093.909180	227.397629
19410.200585	16899.251500	1092.765625	276.824921
19410.200585	16899.251500	1091.623047	336.480713
19410.200585	16899.251500	1090.479492	243.475159
19410.200585	16899.251500	1089.335938	183.572662
19410.200585	16899.251500	1088.192383	224.865128
19410.200585	16899.251500	1087.047852	376.594025
19410.200585	16899.251500	1085.903320	297.434021
19410.200585	16899.251500	1084.758789	210.059052
19410.200585	16899.251500	1083.614258	-2.058079
19410.200585	16899.251500	1082.469727	-242.628220
19410.200585	16899.251500	1081.324219	115.308685
19410.200585	16899.251500	1080.178711	175.851349
19410.200585	16899.251500	1079.033203	419.363159
19410.200585	16899.251500	1077.886719	377.401733
19410.200585	16899.251500	1076.740234	376.921387
19410.200585	16899.251500	1075.593750	146.207367
19410.200585	16899.251500	1074.447266	370.375092
19410.200585	16899.251500	1073.300781	281.619995
19410.200585	16899.251500	1072.153320	252.196732
19410.200585	16899.251500	1071.005859	-194.965546
19410.200585	16899.251500	1069.858398	197.822739
19410.200585	16899.251500	1068.709961	283.956787
19410.200585	16899.251500	1067.561523	181.928314
19410.200585	16899.251500	1066.413086	352.141815
19410.200585	16899.251500	1065.264648	260.040771
19410.200585	16899.251500	1064.116211	326.389038
19410.200585	16899.251500	1062.966797	389.560059
19410.200585	16899.251500	1061.817383	437.702118
19410.200585	16899.251500	1060.667969	-25.409275
19410.200585	16899.251500	1059.517578	93.902016
19410.200585	16899.251500	1058.368164	331.329071
19410.200585	16899.251500	1057.217773	276.649780
19410.200585	16899.251500	1056.067383	9.375806
19410.200585	16899.251500	1054.916016	-35.133278
19410.200585	16899.251500	1053.764648	253.421417
19410.200585	16899.251500	1052.613281	-35.999023
19410.200585	16899.251500	1051.461914	36.410263
19410.200585	16899.251500	1050.310547	320.045929
19410.200585	16899.251500	1049.158203	401.962677
19410.200585	16899.251500	1048.005859	43.254471
19410.200585	16899.251500	1046.853516	58.142216
19410.200585	16899.251500	1045.700195	163.467606
19410.200585	16899.251500	1044.547852	253.000809
19410.200585	16899.251500	1043.394531	134.667221
19410.200585	16899.251500	1042.240234	186.652466
19410.200585	16899.251500	1041.086914	233.717148
19410.200585	16899.251500	1039.932617	131.466156
19410.200585	16899.251500	1038.778320	198.214447
19410.200585	16899.251500	1037.624023	339.220001
19410.200585	16899.251500	1036.469727	267.889252
19410.200585	16899.251500	1035.314453	249.278427
19410.200585	16899.251500	1034.159180	261.587402
19410.200585	16899.251500	1033.003906	412.628845
19410.200585	16899.251500	1031.847656	256.326050
19410.200585	16899.251500	1030.692383	445.678558
19410.200585	16899.251500	1029.536133	685.454712
19410.200585	16899.251500	1028.378906	343.736511
19410.200585	16899.251500	1027.222656	418.929993
19410.200585	16899.251500	1026.065430	452.061066
19410.200585	16899.251500	1024.908203	119.433365
19410.200585	16899.251500	1023.750977	96.961143
19410.200585	16899.251500	1022.593750	281.369141
19410.200585	16899.251500	1021.435547	277.875275
19410.200585	16899.251500	1020.277344	433.031403
19410.200585	16899.251500	1019.119141	-3.498265
19410.200585	16899.251500	1017.959961	364.420074
19410.200585	16899.251500	1016.800781	133.943878
19410.200585	16899.251500	1015.641602	-0.725593
19410.200585	16899.251500	1014.482422	-19.357708
19410.200585	16899.251500	1013.323242	-124.737488
19410.200585	16899.251500	1012.163086	-252.692215
19410.200585	16899.251500	1011.002930	-9.710806
19410.200585	16899.251500	1009.842773	50.265453
19410.200585	16899.251500	1008.681641	143.196304
19410.200585	16899.251500	1007.520508	120.672966
19410.200585	16899.251500	1006.359375	164.107681
19410.200585	16899.251500	1005.198242	56.051365
19410.200585	16899.251500	1004.037109	129.175995
19410.200585	16899.251500	1002.875000	264.841522
19410.200585	16899.251500	1001.712891	222.852203
19410.200585	16899.251500	1000.550781	221.167160
19410.200585	16899.251500	999.387695	-103.062752
19410.200585	16899.251500	998.224609	-31.876925
19410.200585	16899.251500	997.061523	-169.884644
19410.200585	16899.251500	995.898438	93.218895
19410.200585	16899.251500	994.734375	208.975021
19410.200585	16899.251500	993.571289	186.766129
19410.200585	16899.251500	992.407227	56.360340
19410.200585	16899.251500	991.242188	285.589661
19410.200585	16899.251500	990.078125	-18.555906
19410.200585	16899.251500	988.913086	-83.859238
19410.200585	16899.251500	987.748047	1.781162
19410.200585	16899.251500	986.583008	133.605591
19410.200585	16899.251500	985.416992	281.346527
19410.200585	16899.251500	984.250977	-126.953064
19410.200585	16899.251500	983.084961	-252.613419
19410.200585	16899.251500	981.918945	74.418221
19410.200585	16899.251500	980.751953	-236.678513
19410.200585	16899.251500	979.584961	264.010559
19410.200585	16899.251500	978.417969	-192.823166
19410.200585	16899.251500	977.250977	6.644617
19410.200585	16899.251500	976.083008	-146.519928
19410.200585	16899.251500	974.915039	-276.871277
19410.200585	16899.251500	973.747070	-118.999222
19410.200585	16899.251500	972.579102	-553.147949
19410.200585	16899.251500	971.410156	-38.530613
19410.200585	16899.251500	970.242188	374.679596
19410.200585	16899.251500	969.072266	132.665100
19410.200585	16899.251500	967.903320	351.528687
19410.200585	16899.251500	966.733398	249.865097
19410.200585	16899.251500	965.563477	-94.440414
19410.200585	16899.251500	964.393555	-291.145721
19410.200585	16899.251500	963.223633	-272.817200
19410.200585	16899.251500	962.052734	-109.920395
19410.200585	16899.251500	960.881836	-219.650055
19410.200585	16899.251500	959.710938	119.329704
19410.200585	16899.251500	958.540039	-201.582703
19410.200585	16899.251500	957.368164	66.498650
19410.200585	16899.251500	956.196289	62.683762
19410.200585	16899.251500	955.024414	131.019455
19410.200585	16899.251500	953.851563	-121.319374
19410.200585	16899.251500	952.679688	-339.569427
19410.200585	16899.251500	951.506836	175.130768
19410.200585	16899.251500	950.333984	-143.985580
19410.200585	16899.251500	949.160156	33.047283
19410.200585	16899.251500	947.986328	-267.183899
19410.200585	16899.251500	946.812500	36.598148
19410.200585	16899.251500	945.638672	104.322983
19410.200585	16899.251500	944.464844	-117.290726
19410.200585	16899.251500	943.290039	-144.162186
19410.200585	16899.251500	942.115234	-189.731842
19410.200585	16899.251500	940.940430	-52.993973
19410.200585	16899.251500	939.764648	-56.641308
19410.200585	16899.251500	938.588867	-5.657206
19410.200585	16899.251500	937.413086	-109.645317
19410.200585	16899.251500	936.237305	-119.291336
19410.200585	16899.251500	935.060547	98.536079
19410.200585	16899.251500	933.883789	-241.636566
19410.200585	16899.251500	932.707031	46.897610
19410.200585	16899.251500	931.530273	41.550552
19410.200585	16899.251500	930.352539	-88.349297
19410.200585	16899.251500	929.175781	244.954697
19410.200585	16899.251500	927.998047	138.648849
19410.200585	16899.251500	926.819336	208.139130
19410.200585	16899.251500	925.641602	234.692108
19410.200585	16899.251500	924.462891	316.917725
19410.200585	16899.251500	923.284180	-14.417052
19410.200585	16899.251500	922.104492	127.746437
19410.200585	16899.251500	920.924805	263.403748
19410.200585	16899.251500	919.746094	280.142395
19410.200585	16899.251500	919.551758	-99.347649
19410.200585	16899.251500	918.386719	160.186142
19410.200585	16899.251500	917.220703	87.825531
19410.200585	16899.251500	916.054688	92.499817
19410.200585	16899.251500	914.887695	50.075993
19410.200585	16899.251500	913.721680	-191.317368
19410.200585	16899.251500	912.554688	-11.315246
19410.200585	16899.251500	911.387695	18.896545
19410.200585	16899.251500	910.220703	96.091194
19410.200585	16899.251500	909.052734	55.674557
19410.200585	16899.251500	907.885742	6.673966
19410.200585	16899.251500	906.717773	-189.750992
19410.200585	16899.251500	905.548828	-82.799934
19410.200585	16899.251500	904.380859	233.345718
19410.200585	16899.251500	903.211914	-20.760176
19410.200585	16899.251500	902.042969	271.696808
19410.200585	16899.251500	900.874023	179.814072
19410.200585	16899.251500	899.704102	-16.618141
19410.200585	16899.251500	898.535156	96.326523
19410.200585	16899.251500	897.365234	153.738647
19410.200585	16899.251500	896.194336	8.502584
19410.200585	16899.251500	895.024414	-89.822319
19410.200585	16899.251500	893.853516	189.178513
19410.200585	16899.251500	892.682617	77.995529
19410.200585	16899.251500	891.511719	133.022964
19410.200585	16899.251500	890.340820	113.420662
19410.200585	16899.251500	889.168945	193.904282
19410.200585	16899.251500	887.997070	-130.303131
19410.200585	16899.251500	886.825195	-71.184326
19410.200585	16899.251500	885.653320	456.176392
19410.200585	16899.251500	884.480469	325.662445
19410.200585	16899.251500	883.307617	31.313478
19410.200585	16899.251500	882.134766	22.107637
19410.200585	16899.251500	880.961914	2.224263
19410.200585	16899.251500	879.788086	282.152130
19410.200585	16899.251500	878.614258	283.403595
19410.200585	16899.251500	877.440430	101.800621
19410.200585	16899.251500	876.266602	39.237343
19410.200585	16899.251500	875.091797	10.659382
19410.200585	16899.251500	873.916992	-60.444145
19410.200585	16899.251500	872.742188	125.424438
19410.200585	16899.251500	871.567383	-62.559456
19410.200585	16899.251500	870.391602	-218.661346
19410.200585	16899.251500	869.215820	-75.464203
19410.200585	16899.251500	868.040039	-112.759438
19410.200585	16899.251500	866.864258	83.298286
19410.200585	16899.251500	865.687500	128.624893
19410.200585	16899.251500	864.510742	-176.059677
19410.200585	16899.251500	863.333984	350.531281
19410.200585	16899.251500	862.157227	109.420845
19410.200585	16899.251500	860.979492	97.278633
19410.200585	16899.251500	859.802734	244.008301
19410.200585	16899.251500	858.625000	58.002190
19410.200585	16899.251500	857.446289	26.662121
19410.200585	16899.251500	856.268555	298.114685
19410.200585	16899.251500	855.089844	164.994110
19410.200585	16899.251500	853.911133	-63.391361
19410.200585	16899.251500	852.731445	2.465467
19410.200585	16899.251500	851.552734	-126.451012
19410.200585	16899.251500	850.373047	47.176643
19410.200585	16899.251500	849.193359	-318.702515
19410.200585	16899.251500	848.013672	199.483414
19410.200585	16899.251500	846.833008	-96.608284
19410.200585	16899.251500	845.652344	-69.211983
19410.200585	16899.251500	844.471680	-160.240173
19410.200585	16899.251500	843.291016	325.564545
19410.200585	16899.251500	842.110352	244.936172
19410.200585	16899.251500	840.928711	443.094238
19410.200585	16899.251500	839.747070	-66.318367
19410.200585	16899.251500	838.564453	-16.080282
19410.200585	16899.251500	837.382813	-193.907013
19410.200585	16899.251500	836.200195	103.130936
19410.200585	16899.251500	835.017578	30.735197
19410.200585	16899.251500	833.834961	91.210083
19410.200585	16899.251500	832.651367	-86.725220
19410.200585	16899.251500	831.467773	-140.239975
19410.200585	16899.251500	830.284180	90.817772
19410.200585	16899.251500	829.100586	32.943756
19410.200585	16899.251500	827.916992	230.020416
19410.200585	16899.251500	826.732422	-11.284101
19410.200585	16899.251500	825.547852	360.439331
19410.200585	16899.251500	824.363281	439.196259
19410.200585	16899.251500	823.177734	233.603836
19410.200585	16899.251500	821.992188	289.073364
19410.200585	16899.251500	820.806641	176.069305
19410.200585	16899.251500	819.621094	-84.260185
19410.200585	16899.251500	818.434570	-148.878250
19410.200585	16899.251500	817.249023	-64.201538
19410.200585	16899.251500	816.062500	-17.474316
19410.200585	16899.251500	814.875000	-42.314281
19410.200585	16899.251500	813.688477	189.239243
19410.200585	16899.251500	812.500977	300.836151
19410.200585	16899.251500	811.313477	128.642227
19410.200585	16899.251500	810.125977	-100.276436
19410.200585	16899.251500	808.937500	288.364685
19410.200585	16899.251500	807.749023	25.772532
19410.200585	16899.251500	806.560547	189.427338
19410.200585	16899.251500	805.372070	132.533890
19410.200585	16899.251500	804.182617	239.298340
19410.200585	16899.251500	802.994141	282.987213
19410.200585	16899.251500	801.803711	60.178333
19410.200585	16899.251500	800.614258	61.801193
19410.200585	16899.251500	799.424805	-173.609955
19410.200585	16899.251500	798.234375	29.185928
19410.200585	16899.251500	797.043945	168.939423
19410.200585	16899.251500	795.852539	226.838699
19410.200585	16899.251500	794.662109	228.057510
19410.200585	16899.251500	793.470703	63.720409
19410.200585	16899.251500	792.279297	171.642746
19410.200585	16899.251500	791.087891	-114.214729
19410.200585	16899.251500	789.895508	238.494095
19410.200585	16899.251500	788.703125	279.114075
19410.200585	16899.251500	787.510742	-0.532656
19410.200585	16899.251500	786.318359	88.084991
19410.200585	16899.251500	785.125000	99.203560
19410.200585	16899.251500	783.931641	369.562714
19410.200585	16899.251500	782.738281	273.826416
19410.200585	16899.251500	781.544922	224.043411
19410.200585	16899.251500	780.350586	-43.153515
19410.200585	16899.251500	779.156250	266.411163
19410.200585	16899.251500	777.961914	49.299919
19410.200585	16899.251500	776.767578	36.895493
19410.200585	16899.251500	775.572266	-0.632416
19410.200585	16899.251500	774.376953	174.735779
19410.200585	16899.251500	773.181641	370.828217
19410.200585	16899.251500	771.986328	197.363632
19410.200585	16899.251500	770.790039	276.372833
19410.200585	16899.251500	769.593750	273.910919
19410.200585	16899.251500	768.397461	94.089226
19410.200585	16899.251500	767.201172	97.765259
19410.200585	16899.251500	766.003906	343.207916
19410.200585	16899.251500	764.806641	219.533081
19410.200585	16899.251500	763.609375	47.899113
19410.200585	16899.251500	762.412109	32.522911
19410.200585	16899.251500	761.213867	100.405586
19410.200585	16899.251500	760.015625	182.759094
19410.200585	16899.251500	758.817383	227.521088
19410.200585	16899.251500	757.618164	51.522625
19410.200585	16899.251500	756.419922	69.078705
19410.200585	16899.251500	755.220703	138.579697
19410.200585	16899.251500	754.021484	87.306313
19410.200585	16899.251500	752.821289	77.583534
19410.200585	16899.251500	751.621094	-71.546028
19410.200585	16899.251500	750.420898	297.023376
19410.200585	16899.251500	749.220703	176.858475
19410.200585	16899.251500	748.020508	424.527924
19410.200585	16899.251500	746.819336	295.928772
19410.200585	16899.251500	745.618164	152.764175
19410.200585	16899.251500	744.416992	38.663406
19410.200585	16899.251500	743.214844	65.746025
19410.200585	16899.251500	742.012695	-35.977928
19410.200585	16899.251500	740.810547	117.579880
19410.200585	16899.251500	739.608398	115.351555
19410.200585	16899.251500	738.406250	229.243805
19410.200585	16899.251500	737.203125	162.545883
19410.200585	16899.251500	736.000000	597.705750
19410.200585	16899.251500	734.795898	541.186462
19410.200585	16899.251500	733.592773	391.323242
19410.200585	16899.251500	732.388672	237.311127
19410.200585	16899.251500	731.184570	305.022247
19410.200585	16899.251500	729.979492	378.856934
19410.200585	16899.251500	728.775391	589.295593
19410.200585	16899.251500	727.570313	370.896088
19410.200585	16899.251500	726.365234	65.558197
19410.200585	16899.251500	725.160156	213.628357
19410.200585	16899.251500	723.954102	-97.887817
19410.200585	16899.251500	722.748047	97.618675
19410.200585	16899.251500	721.541992	377.795074
19410.200585	16899.251500	720.334961	51.770000
19410.200585	16899.251500	719.128906	-280.393097
19410.200585	16899.251500	717.921875	49.118881
19410.200585	16899.251500	716.714844	-121.793724
19410.200585	16899.251500	715.506836	-228.629364
19410.200585	16899.251500	714.298828	-93.737518
19410.200585	16899.251500	713.090820	-10.605533
19410.200585	16899.251500	711.882813	-51.488327
19410.200585	16899.251500	710.674805	-55.242359
19410.200585	16899.251500	709.465820	-67.305679
19410.200585	16899.251500	708.256836	-172.302780
19410.200585	16899.251500	707.047852	15.718549
19410.200585	16899.251500	705.837891	1.421750
19410.200585	16899.251500	704.627930	-246.008865
19410.200585	16899.251500	703.417969	-82.994072
19410.200585	16899.251500	702.208008	-14.944846
19410.200585	16899.251500	700.998047	15.921212
19410.200585	16899.251500	699.787109	-182.041138
19410.200585	16899.251500	698.576172	-180.094513
19410.200585	16899.251500	697.364258	5.160748
19410.200585	16899.251500	696.153320	-322.574951
19410.200585	16899.251500	694.941406	-267.190979
19410.200585	16899.251500	693.729492	-281.873535
19410.200585	16899.251500	692.516602	-22.820698
19410.200585	16899.251500	691.304688	-93.196877
19410.200585	16899.251500	690.091797	-36.010780
19410.200585	16899.251500	688.878906	-285.393707
19410.200585	16899.251500	687.665039	61.727764
19410.200585	16899.251500	686.451172	-123.894737
19410.200585	16899.251500	685.237305	-173.789047
19410.200585	16899.251500	684.023438	105.161545
19410.200585	16899.251500	682.809570	85.999557
19410.200585	16899.251500	681.594727	-89.320747
19410.200585	16899.251500	680.379883	-32.486942
19410.200585	16899.251500	679.165039	-41.417377
19410.200585	16899.251500	677.949219	9.176207
19410.200585	16899.251500	676.733398	20.723560
19410.200585	16899.251500	675.517578	-294.076416
19410.200585	16899.251500	674.301758	51.949821
19410.200585	16899.251500	673.084961	-221.729767
19410.200585	16899.251500	671.869141	-19.471861
19410.200585	16899.251500	670.651367	147.833084
19410.200585	16899.251500	669.434570	3.424704
19410.200585	16899.251500	668.216797	-19.997097
19410.200585	16899.251500	667.000000	239.385010
19410.200585	16899.251500	665.781250	197.471558
19410.200585	16899.251500	664.563477	184.244553
19410.200585	16899.251500	663.344727	130.062134
19410.200585	16899.251500	662.125977	176.233368
19410.200585	16899.251500	660.907227	265.373413
19410.200585	16899.251500	659.688477	12.677564
19410.200585	16899.251500	658.468750	386.258453
19410.200585	16899.251500	657.249023	133.655746
19410.200585	16899.251500	656.029297	91.844025
19410.200585	16899.251500	654.808594	125.730980
19410.200585	16899.251500	653.587891	141.211731
19410.200585	16899.251500	652.367188	197.583221
19410.200585	16899.251500	651.146484	123.150185
19410.200585	16899.251500	649.924805	-2.312374
19410.200585	16899.251500	648.704102	109.263031
19410.200585	16899.251500	647.482422	141.162674
19410.200585	16899.251500	646.259766	242.503891
19410.200585	16899.251500	645.037109	472.445557
19410.200585	16899.251500	643.815430	-48.812634
19410.200585	16899.251500	642.591797	297.472504
19410.200585	16899.251500	641.369141	-9.236759
19410.200585	16899.251500	640.145508	237.012192
19410.200585	16899.251500	638.921875	277.216003
19410.200585	16899.251500	637.698242	62.572144
19410.200585	16899.251500	636.474609	186.453888
19410.200585	16899.251500	635.250000	194.162064
19410.200585	16899.251500	634.025391	385.298676
19410.200585	16899.251500	632.800781	79.323006
19410.200585	16899.251500	631.575195	123.856285
19410.200585	16899.251500	630.349609	82.896965
19410.200585	16899.251500	629.124023	-129.007828
19410.200585	16899.251500	627.898438	-17.121523
19410.200585	16899.251500	626.671875	448.880493
19410.200585	16899.251500	625.445313	-216.507416
19410.200585	16899.251500	624.218750	-49.564297
19410.200585	16899.251500	622.992188	-90.067215
19410.200585	16899.251500	621.764648	-144.714813
19410.200585	16899.251500	620.537109	73.139420
19410.200585	16899.251500	619.309570	-50.480816
19410.200585	16899.251500	618.081055	-76.430244
19410.200585	16899.251500	616.852539	-110.419952
19410.200585	16899.251500	615.624023	-34.629383
19410.200585	16899.251500	614.395508	-31.898161
19410.200585	16899.251500	613.166992	56.189945
19410.200585	16899.251500	611.937500	-54.596455
19410.200585	16899.251500	610.708008	-35.361370
19410.200585	16899.251500	609.477539	-14.011855
19410.200585	16899.251500	608.248047	-205.584778
19410.200585	16899.251500	607.017578	55.304848
19410.200585	16899.251500	605.787109	-99.505920
19410.200585	16899.251500	604.555664	-203.462967
19410.200585	16899.251500	603.325195	-102.564766
19410.200585	16899.251500	602.093750	-27.945316
19410.200585	16899.251500	600.861328	-174.080887
19410.200585	16899.251500	599.629883	-38.495918
19410.200585	16899.251500	598.397461	166.000244
19410.200585	16899.251500	597.165039	145.779099
19410.200585	16899.251500	595.932617	-50.432873
19410.200585	16899.251500	594.699219	-66.315414
19410.200585	16899.251500	593.465820	-33.513012
19410.200585	16899.251500	592.232422	66.155815
19410.200585	16899.251500	590.999023	-38.375534
19410.200585	16899.251500	589.764648	53.412643
19410.200585	16899.251500	588.530273	-155.944977
19410.200585	16899.251500	587.295898	190.762238
19410.200585	16899.251500	586.061523	-48.593037
19410.200585	16899.251500	584.826172	55.759144
19410.200585	16899.251500	583.590820	-33.717438
19410.200585	16899.251500	582.355469	52.677895
19410.200585	16899.251500	581.119141	-101.097267
19410.200585	16899.251500	579.882813	76.395020
19410.200585	16899.251500	578.646484	96.523224
19410.200585	16899.251500	577.410156	90.552261
19410.200585	16899.251500	576.172852	151.305145
19410.200585	16899.251500	574.935547	504.635162
19410.200585	16899.251500	573.698242	396.170319
19410.200585	16899.251500	572.460938	261.685028
19410.200585	16899.251500	571.222656	288.664581
19410.200585	16899.251500	569.984375	233.154922
19410.200585	16899.251500	568.746094	268.481018
19410.200585	16899.251500	567.506836	152.868500
19410.200585	16899.251500	566.267578	520.802246
19410.200585	16899.251500	565.028320	564.552185
19410.200585	16899.251500	563.789063	475.568085
19410.200585	16899.251500	562.548828	481.376404
19410.200585	16899.251500	561.309570	342.442627
19410.200585	16899.251500	560.068359	773.074463
19410.200585	16899.251500	558.828125	399.118713
19410.200585	16899.251500	557.586914	658.927124
19410.200585	16899.251500	556.345703	299.537567
19410.200585	16899.251500	555.104492	766.596252
19410.200585	16899.251500	553.863281	632.719910
19410.200585	16899.251500	552.621094	627.650085
19410.200585	16899.251500	551.378906	648.847534
19410.200585	16899.251500	550.136719	766.584900
19410.200585	16899.251500	548.893555	759.937683
19410.200585	16899.251500	547.650391	879.912720
19410.200585	16899.251500	546.407227	642.725708
19410.200585	16899.251500	545.164063	1112.123413
19410.200585	16899.251500	543.919922	1055.845337
19410.200585	16899.251500	542.675781	949.588623
19410.200585	16899.251500	541.431641	985.898560
19410.200585	16899.251500	540.186523	1196.772217
19410.200585	16899.251500	538.941406	1153.120972
19410.200585	16899.251500	537.696289	1007.417236
19410.200585	16899.251500	536.451172	1028.209473
19410.200585	16899.251500	535.205078	983.029663
19410.200585	16899.251500	533.959961	1046.134399
19410.200585	16899.251500	532.712891	1159.419556
19410.200585	16899.251500	531.466797	1206.704102
19410.200585	16899.251500	530.219727	1109.989746
19410.200585	16899.251500	528.972656	1441.662354
19410.200585	16899.251500	527.725586	1261.142090
19410.200585	16899.251500	526.478516	1238.823486
19410.200585	16899.251500	525.230469	1424.609009
19410.200585	16899.251500	523.982422	1546.433960
19410.200585	16899.251500	522.734375	1448.424805
19410.200585	16899.251500	521.485352	1294.602417
19410.200585	16899.251500	520.236328	1512.571289
19410.200585	16899.251500	518.987305	1576.711060
19410.200585	16899.251500	517.737305	1614.950439
19410.200585	16899.251500	516.488281	1609.300537
19410.200585	16899.251500	515.238281	1815.344360
19410.200585	16899.251500	513.988281	1777.858765
19410.200585	16899.251500	512.737305	1477.048706
19410.200585	16899.251500	511.486328	1956.481445
19410.200585	16899.251500	510.235352	2172.458740
19410.200585	16899.251500	508.984375	2161.035889
19410.200585	16899.251500	507.732422	2117.754883
19410.200585	16899.251500	506.480469	2323.677734
19410.200585	16899.251500	505.228516	2278.413818
19410.200585	16899.251500	503.976563	2312.870605
19410.200585	16899.251500	502.723633	2693.936768
19410.200585	16899.251500	501.470703	2782.052002
19410.200585	16899.251500	500.217773	2844.218750
19410.200585	16899.251500	498.963867	2717.211182
19410.200585	16899.251500	497.709961	2699.682617
19410.200585	16899.251500	496.456055	3066.160400
19410.200585	16899.251500	495.202148	3012.633545
19410.200585	16899.251500	493.947266	3259.410156
19410.200585	16899.251500	492.692383	3287.243896
19410.200585	16899.251500	491.437500	3283.156250
19410.200585	16899.251500	490.181641	3459.854248
19410.200585	16899.251500	488.926758	3672.114014
19410.200585	16899.251500	487.670898	3713.280518
19410.200585	16899.251500	486.414063	3931.088135
19410.200585	16899.251500	485.158203	3809.008057
19410.200585	16899.251500	483.901367	4022.386719
19410.200585	16899.251500	482.644531	4100.483398
19410.200585	16899.251500	481.386719	4162.472656
19410.200585	16899.251500	480.128906	4402.801270
19410.200585	16899.251500	478.871094	3998.012939
19410.200585	16899.251500	477.613281	4440.093262
19410.200585	16899.251500	476.355469	4790.489746
19410.200585	16899.251500	475.096680	4735.995117
19410.200585	16899.251500	473.837891	4829.881348
19410.200585	16899.251500	472.578125	4762.886230
19410.200585	16899.251500	471.319336	4818.407227
19410.200585	16899.251500	470.059570	5267.754395
19410.200585	16899.251500	468.799805	4902.535645
19410.200585	16899.251500	467.539063	5257.823242
19410.200585	16899.251500	466.278320	5194.825195
19410.200585	16899.251500	465.017578	5436.206055
19410.200585	16899.251500	463.756836	5506.834473
19410.200585	16899.251500	462.495117	5663.994141
19410.200585	16899.251500	461.233398	5604.974609
19410.200585	16899.251500	459.971680	5304.184082
19410.200585	16899.251500	458.709961	5631.668457
19410.200585	16899.251500	457.447266	6011.796875
19410.200585	16899.251500	456.184570	5839.776367
19410.200585	16899.251500	454.921875	5890.451660
19410.200585	16899.251500	453.658203	6060.936523
19410.200585	16899.251500	452.394531	5962.055176
19410.200585	16899.251500	451.130859	6008.604492
19410.200585	16899.251500	449.867188	6113.602051
19410.200585	16899.251500	448.602539	6233.558105
19410.200585	16899.251500	447.337891	6188.866211
19410.200585	16899.251500	446.073242	6178.854980
19410.200585	16899.251500	444.807617	6205.442871
19410.200585	16899.251500	443.542969	6367.171875
19410.200585	16899.251500	442.276367	6184.833496
19410.200585	16899.251500	441.010742	6364.278320
19410.200585	16899.251500	439.744141	6676.629883
19410.200585	16899.251500	438.478516	6690.290527
19410.200585	16899.251500	437.210938	6379.792480
19410.200585	16899.251500	435.944336	6509.452637
19410.200585	16899.251500	434.676758	6559.124512
19410.200585	16899.251500	433.409180	6566.226563
19410.200585	16899.251500	432.141602	6398.887207
19410.200585	16899.251500	430.873047	6413.315430
19410.200585	16899.251500	429.604492	6595.592285
19410.200585	16899.251500	428.335938	6701.677734
19410.200585	16899.251500	427.067383	6963.611816
19410.200585	16899.251500	425.797852	6934.956055
19410.200585	16899.251500	424.528320	6659.107422
19410.200585	16899.251500	423.258789	6674.627930
19410.200585	16899.251500	421.988281	7046.098145
19410.200585	16899.251500	420.717773	7083.787598
19410.200585	16899.251500	419.447266	6795.719727
19410.200585	16899.251500	418.175781	6743.578125
19410.200585	16899.251500	416.905273	6958.603027
19410.200585	16899.251500	415.633789	7026.421875
19410.200585	16899.251500	414.362305	7060.902344
19410.200585	16899.251500	413.089844	6779.491211
19410.200585	16899.251500	411.817383	6953.158691
19410.200585	16899.251500	410.544922	7138.391113
19410.200585	16899.251500	409.272461	6964.596680
19410.200585	16899.251500	407.999023	7027.762207
19410.200585	16899.251500	406.725586	6929.903809
19410.200585	16899.251500	405.452148	6931.638184
19410.200585	16899.251500	404.177734	7173.822754
19410.200585	16899.251500	402.903320	7201.941895
19410.200585	16899.251500	401.628906	7121.796875
19410.200585	16899.251500	400.354492	7070.412598
19410.200585	16899.251500	399.079102	6922.401855
19410.200585	16899.251500	397.803711	6951.731445
19410.200585	16899.251500	396.528320	6856.958984
19410.200585	16899.251500	395.251953	7080.040527
19410.200585	16899.251500	393.976563	6750.671387
19410.200585	16899.251500	392.700195	6885.589844
19410.200585	16899.251500	391.422852	6944.961426
19410.200585	16899.251500	390.145508	7219.974121
19410.200585	16899.251500	388.869141	6958.316895
19410.200585	16899.251500	387.590820	7181.595703
19410.200585	16899.251500	386.313477	6700.354492
19410.200585	16899.251500	385.035156	6735.061523
19410.200585	16899.251500	383.756836	6666.598145
19410.200585	16899.251500	382.478516	6816.941895
19410.200585	16899.251500	381.199219	6473.626953
19410.200585	16899.251500	379.919922	6489.405762
19410.200585	16899.251500	378.640625	6261.324707
19410.200585	16899.251500	377.360352	6364.555664
19410.200585	16899.251500	376.080078	6050.300781
19410.200585	16899.251500	374.799805	6244.497559
19410.200585	16899.251500	373.519531	6013.358398
19410.200585	16899.251500	372.238281	5894.636230
19410.200585	16899.251500	370.957031	5999.275879
19410.200585	16899.251500	369.675781	5561.739258
19410.200585	16899.251500	368.394531	5765.966797
19410.200585	16899.251500	367.112305	5597.216309
19410.200585	16899.251500	365.830078	5452.717773
19410.200585	16899.251500	364.546875	5269.959473
19410.200585	16899.251500	363.264648	5319.476074
19410.200585	16899.251500	361.981445	5126.227539
19410.200585	16899.251500	360.698242	5024.800293
19410.200585	16899.251500	359.414063	5158.717285
19410.200585	16899.251500	358.129883	4968.117676
19410.200585	16899.251500	356.845703	4822.268066
19410.200585	16899.251500	355.561523	4812.313965
19410.200585	16899.251500	354.276367	4638.777344
19410.200585	16899.251500	352.991211	4313.433594
19410.200585	16899.251500	351.706055	4542.904297
19410.200585	16899.251500	350.420898	4166.008789
19410.200585	16899.251500	349.134766	4275.335938
19410.200585	16899.251500	347.848633	4360.346680
19410.200585	16899.251500	346.561523	4087.105957
19410.200585	16899.251500	345.275391	3896.286621
19410.200585	16899.251500	343.988281	3814.442627
19410.200585	16899.251500	342.700195	3599.032715
19410.200585	16899.251500	341.413086	3271.716064
19410.200585	16899.251500	340.125000	3267.944092
19410.200585	16899.251500	338.836914	3000.598633
19410.200585	16899.251500	337.548828	2692.418457
19410.200585	16899.251500	336.259766	2755.448730
19410.200585	16899.251500	334.970703	2496.472168
19410.200585	16899.251500	333.681641	2463.261963
19410.200585	16899.251500	332.391602	2395.942627
19410.200585	16899.251500	331.101563	2519.021484
19410.200585	16899.251500	329.811523	2178.447510
19410.200585	16899.251500	328.521484	2379.894043
19410.200585	16899.251500	327.230469	1819.469849
19410.200585	16899.251500	325.939453	1854.662842
19410.200585	16899.251500	324.648438	1518.645508
19410.200585	16899.251500	323.356445	1415.905884
19410.200585	16899.251500	322.064453	1258.565918
19410.200585	16899.251500	320.772461	1114.062134
19410.200585	16899.251500	319.480469	1117.332642
19410.200585	16899.251500	318.187500	765.841614
19410.200585	16899.251500	316.894531	924.557251
19410.200585	16899.251500	315.601563	552.915771
19410.200585	16899.251500	314.307617	424.260986
19410.200585	16899.251500	313.013672	320.614685
19410.200585	16899.251500	311.719727	153.040222
19410.200585	16899.251500	310.425781	-126.839729
19410.200585	16899.251500	309.130859	49.011768
19410.200585	16899.251500	307.835938	-134.678391
19410.200585	16899.251500	306.541016	-142.321152
19410.200585	16899.251500	305.245117	0.260983
19410.200585	16899.251500	303.949219	94.780937
19410.200585	16899.251500	302.653320	69.793716
19410.200585	16899.251500	301.356445	-65.712730
19410.200585	16899.251500	300.060547	-80.073532
19410.200585	16899.251500	298.763672	169.750549
