#X		#Y		#Wave		#Intensity
19351.075957	16857.128500	2000.043945	-625.106262
19351.075957	16857.128500	1999.080078	-61.571720
19351.075957	16857.128500	1998.116211	-279.444092
19351.075957	16857.128500	1997.151367	178.725342
19351.075957	16857.128500	1996.186523	88.565071
19351.075957	16857.128500	1995.222656	186.096359
19351.075957	16857.128500	1994.256836	203.840134
19351.075957	16857.128500	1993.291992	275.469482
19351.075957	16857.128500	1992.327148	-420.975677
19351.075957	16857.128500	1991.361328	-82.942268
19351.075957	16857.128500	1990.395508	103.497002
19351.075957	16857.128500	1989.429688	-180.784714
19351.075957	16857.128500	1988.463867	175.335480
19351.075957	16857.128500	1987.497070	553.142029
19351.075957	16857.128500	1986.531250	-234.504349
19351.075957	16857.128500	1985.564453	340.154236
19351.075957	16857.128500	1984.597656	135.429352
19351.075957	16857.128500	1983.630859	422.231750
19351.075957	16857.128500	1982.664063	538.010925
19351.075957	16857.128500	1981.696289	164.148880
19351.075957	16857.128500	1980.728516	237.184601
19351.075957	16857.128500	1979.761719	611.111572
19351.075957	16857.128500	1978.792969	510.463196
19351.075957	16857.128500	1977.825195	525.517151
19351.075957	16857.128500	1976.857422	355.083130
19351.075957	16857.128500	1975.888672	-170.995590
19351.075957	16857.128500	1974.919922	-6.268854
19351.075957	16857.128500	1973.951172	239.495987
19351.075957	16857.128500	1972.982422	450.336090
19351.075957	16857.128500	1972.013672	623.815674
19351.075957	16857.128500	1971.043945	801.896606
19351.075957	16857.128500	1970.075195	198.120346
19351.075957	16857.128500	1969.105469	-173.990158
19351.075957	16857.128500	1968.135742	582.480835
19351.075957	16857.128500	1967.165039	412.001038
19351.075957	16857.128500	1966.195313	751.261841
19351.075957	16857.128500	1965.224609	141.916122
19351.075957	16857.128500	1964.253906	150.684586
19351.075957	16857.128500	1963.283203	479.301636
19351.075957	16857.128500	1962.312500	721.431152
19351.075957	16857.128500	1961.341797	458.729034
19351.075957	16857.128500	1960.370117	311.597717
19351.075957	16857.128500	1959.399414	1030.331909
19351.075957	16857.128500	1958.427734	481.830353
19351.075957	16857.128500	1957.455078	752.341309
19351.075957	16857.128500	1956.483398	678.324219
19351.075957	16857.128500	1955.511719	712.344421
19351.075957	16857.128500	1954.539063	102.216301
19351.075957	16857.128500	1953.566406	735.676575
19351.075957	16857.128500	1952.593750	430.160919
19351.075957	16857.128500	1951.621094	849.315735
19351.075957	16857.128500	1950.647461	263.637817
19351.075957	16857.128500	1949.674805	250.204895
19351.075957	16857.128500	1948.701172	592.684265
19351.075957	16857.128500	1947.727539	191.121140
19351.075957	16857.128500	1946.753906	-171.135605
19351.075957	16857.128500	1945.780273	38.387653
19351.075957	16857.128500	1944.805664	-7.407556
19351.075957	16857.128500	1943.831055	582.035706
19351.075957	16857.128500	1942.856445	165.635925
19351.075957	16857.128500	1941.881836	345.151459
19351.075957	16857.128500	1940.907227	311.227173
19351.075957	16857.128500	1939.932617	735.593689
19351.075957	16857.128500	1938.957031	-90.102654
19351.075957	16857.128500	1937.981445	30.222145
19351.075957	16857.128500	1937.005859	214.126541
19351.075957	16857.128500	1936.030273	-187.487442
19351.075957	16857.128500	1935.054688	-481.268616
19351.075957	16857.128500	1934.078125	165.205673
19351.075957	16857.128500	1933.101563	-211.859650
19351.075957	16857.128500	1932.125000	402.397949
19351.075957	16857.128500	1931.148438	407.063538
19351.075957	16857.128500	1930.171875	521.776794
19351.075957	16857.128500	1929.194336	122.736870
19351.075957	16857.128500	1928.217773	31.936499
19351.075957	16857.128500	1927.240234	124.540550
19351.075957	16857.128500	1926.262695	92.390297
19351.075957	16857.128500	1925.284180	-130.417175
19351.075957	16857.128500	1924.306641	113.579498
19351.075957	16857.128500	1923.328125	-355.994568
19351.075957	16857.128500	1922.350586	-53.471024
19351.075957	16857.128500	1921.372070	156.114761
19351.075957	16857.128500	1920.392578	123.854500
19351.075957	16857.128500	1919.414063	228.295319
19351.075957	16857.128500	1918.434570	-16.383711
19351.075957	16857.128500	1917.456055	-341.549591
19351.075957	16857.128500	1916.476563	399.773376
19351.075957	16857.128500	1915.497070	-71.746117
19351.075957	16857.128500	1914.516602	59.413574
19351.075957	16857.128500	1913.537109	61.236832
19351.075957	16857.128500	1912.556641	-17.398796
19351.075957	16857.128500	1911.576172	245.288483
19351.075957	16857.128500	1910.595703	217.815384
19351.075957	16857.128500	1909.615234	-367.735016
19351.075957	16857.128500	1908.633789	479.638855
19351.075957	16857.128500	1907.653320	208.503067
19351.075957	16857.128500	1906.671875	178.605728
19351.075957	16857.128500	1905.690430	126.802475
19351.075957	16857.128500	1904.708984	-187.941162
19351.075957	16857.128500	1903.727539	86.527794
19351.075957	16857.128500	1902.745117	-84.484871
19351.075957	16857.128500	1901.762695	-394.135468
19351.075957	16857.128500	1900.780273	359.510040
19351.075957	16857.128500	1899.797852	212.862213
19351.075957	16857.128500	1898.815430	234.077591
19351.075957	16857.128500	1897.832031	-243.171158
19351.075957	16857.128500	1896.849609	-326.420013
19351.075957	16857.128500	1895.866211	-266.214661
19351.075957	16857.128500	1894.882813	153.639801
19351.075957	16857.128500	1893.898438	-252.762314
19351.075957	16857.128500	1892.915039	174.214676
19351.075957	16857.128500	1891.930664	-185.889160
19351.075957	16857.128500	1890.947266	202.061768
19351.075957	16857.128500	1889.962891	-252.603546
19351.075957	16857.128500	1888.977539	-304.127472
19351.075957	16857.128500	1887.993164	183.148926
19351.075957	16857.128500	1887.007813	-140.211136
19351.075957	16857.128500	1886.023438	-99.556610
19351.075957	16857.128500	1885.038086	-299.039215
19351.075957	16857.128500	1884.051758	59.360191
19351.075957	16857.128500	1883.066406	-21.273844
19351.075957	16857.128500	1882.081055	9.636824
19351.075957	16857.128500	1881.094727	200.521835
19351.075957	16857.128500	1880.108398	-49.725285
19351.075957	16857.128500	1879.122070	75.672256
19351.075957	16857.128500	1878.135742	-33.965832
19351.075957	16857.128500	1877.148438	193.110245
19351.075957	16857.128500	1876.162109	180.340363
19351.075957	16857.128500	1875.174805	351.587982
19351.075957	16857.128500	1874.187500	-58.191036
19351.075957	16857.128500	1873.199219	-344.379852
19351.075957	16857.128500	1872.211914	-156.218292
19351.075957	16857.128500	1871.223633	-118.120468
19351.075957	16857.128500	1870.236328	79.580063
19351.075957	16857.128500	1869.248047	-482.159851
19351.075957	16857.128500	1868.258789	-303.805908
19351.075957	16857.128500	1867.270508	-352.785461
19351.075957	16857.128500	1866.282227	-184.231888
19351.075957	16857.128500	1865.292969	646.397095
19351.075957	16857.128500	1864.303711	36.690174
19351.075957	16857.128500	1863.314453	45.607243
19351.075957	16857.128500	1862.324219	-225.649338
19351.075957	16857.128500	1861.334961	179.294037
19351.075957	16857.128500	1860.344727	91.561714
19351.075957	16857.128500	1859.354492	172.808731
19351.075957	16857.128500	1858.364258	-182.821411
19351.075957	16857.128500	1857.374023	-94.361023
19351.075957	16857.128500	1856.383789	522.376343
19351.075957	16857.128500	1855.392578	65.514610
19351.075957	16857.128500	1854.401367	578.251892
19351.075957	16857.128500	1853.410156	208.294037
19351.075957	16857.128500	1852.418945	814.768921
19351.075957	16857.128500	1851.426758	-278.203583
19351.075957	16857.128500	1850.435547	614.836548
19351.075957	16857.128500	1849.443359	367.915222
19351.075957	16857.128500	1848.451172	311.351746
19351.075957	16857.128500	1847.458984	423.363770
19351.075957	16857.128500	1846.466797	523.258728
19351.075957	16857.128500	1845.473633	411.230499
19351.075957	16857.128500	1844.480469	503.805450
19351.075957	16857.128500	1843.487305	824.931702
19351.075957	16857.128500	1842.494141	496.237061
19351.075957	16857.128500	1841.500977	47.337467
19351.075957	16857.128500	1840.506836	385.094543
19351.075957	16857.128500	1839.513672	484.586365
19351.075957	16857.128500	1838.519531	348.388672
19351.075957	16857.128500	1837.525391	592.004822
19351.075957	16857.128500	1836.530273	78.417320
19351.075957	16857.128500	1835.536133	348.329559
19351.075957	16857.128500	1834.541016	584.465393
19351.075957	16857.128500	1833.545898	537.019775
19351.075957	16857.128500	1832.550781	129.292328
19351.075957	16857.128500	1831.555664	641.313232
19351.075957	16857.128500	1830.560547	783.374207
19351.075957	16857.128500	1829.564453	193.258286
19351.075957	16857.128500	1828.568359	395.246582
19351.075957	16857.128500	1827.572266	613.892639
19351.075957	16857.128500	1826.576172	206.285248
19351.075957	16857.128500	1825.580078	-50.131393
19351.075957	16857.128500	1824.583008	628.722229
19351.075957	16857.128500	1823.585938	365.018219
19351.075957	16857.128500	1822.588867	29.439127
19351.075957	16857.128500	1821.591797	741.253418
19351.075957	16857.128500	1820.594727	616.460022
19351.075957	16857.128500	1819.596680	745.606934
19351.075957	16857.128500	1818.599609	237.477875
19351.075957	16857.128500	1817.601563	471.880676
19351.075957	16857.128500	1816.603516	76.402061
19351.075957	16857.128500	1815.604492	461.433502
19351.075957	16857.128500	1814.606445	94.685112
19351.075957	16857.128500	1813.607422	895.807983
19351.075957	16857.128500	1812.608398	373.459442
19351.075957	16857.128500	1811.609375	518.634644
19351.075957	16857.128500	1810.610352	180.555389
19351.075957	16857.128500	1809.610352	131.882233
19351.075957	16857.128500	1808.611328	37.709099
19351.075957	16857.128500	1807.611328	397.662811
19351.075957	16857.128500	1806.611328	66.729370
19351.075957	16857.128500	1805.610352	667.721497
19351.075957	16857.128500	1804.610352	334.308044
19351.075957	16857.128500	1803.609375	528.806580
19351.075957	16857.128500	1802.608398	159.570801
19351.075957	16857.128500	1801.607422	236.865448
19351.075957	16857.128500	1800.606445	328.369476
19351.075957	16857.128500	1799.605469	-57.585838
19351.075957	16857.128500	1798.603516	188.882034
19351.075957	16857.128500	1797.601563	222.834229
19351.075957	16857.128500	1796.599609	573.930176
19351.075957	16857.128500	1795.597656	345.278656
19351.075957	16857.128500	1794.595703	340.757813
19351.075957	16857.128500	1793.592773	379.070160
19351.075957	16857.128500	1792.589844	174.152374
19351.075957	16857.128500	1791.587891	238.500107
19351.075957	16857.128500	1790.583984	319.428680
19351.075957	16857.128500	1789.581055	83.387215
19351.075957	16857.128500	1788.577148	1062.042480
19351.075957	16857.128500	1787.574219	799.566772
19351.075957	16857.128500	1786.570313	-136.670517
19351.075957	16857.128500	1785.566406	205.615814
19351.075957	16857.128500	1784.561523	43.139294
19351.075957	16857.128500	1783.557617	799.096313
19351.075957	16857.128500	1782.552734	374.680054
19351.075957	16857.128500	1781.547852	38.332298
19351.075957	16857.128500	1780.542969	-233.779388
19351.075957	16857.128500	1779.538086	100.418831
19351.075957	16857.128500	1778.532227	96.839279
19351.075957	16857.128500	1777.527344	454.414001
19351.075957	16857.128500	1776.521484	740.475769
19351.075957	16857.128500	1775.515625	513.138855
19351.075957	16857.128500	1774.508789	-146.532257
19351.075957	16857.128500	1773.502930	139.172607
19351.075957	16857.128500	1772.496094	747.612854
19351.075957	16857.128500	1771.489258	702.848633
19351.075957	16857.128500	1770.482422	123.934479
19351.075957	16857.128500	1769.475586	454.061615
19351.075957	16857.128500	1768.467773	731.766541
19351.075957	16857.128500	1767.460938	271.479706
19351.075957	16857.128500	1766.453125	216.852234
19351.075957	16857.128500	1765.445313	57.800587
19351.075957	16857.128500	1764.437500	197.441864
19351.075957	16857.128500	1763.428711	244.484085
19351.075957	16857.128500	1762.420898	518.917297
19351.075957	16857.128500	1761.412109	499.325470
19351.075957	16857.128500	1760.403320	351.703705
19351.075957	16857.128500	1759.393555	348.529236
19351.075957	16857.128500	1758.384766	428.132813
19351.075957	16857.128500	1757.375000	692.293030
19351.075957	16857.128500	1756.366211	87.434891
19351.075957	16857.128500	1755.356445	166.734970
19351.075957	16857.128500	1754.345703	-9.662315
19351.075957	16857.128500	1753.335938	62.321037
19351.075957	16857.128500	1752.325195	-90.545143
19351.075957	16857.128500	1751.315430	250.833237
19351.075957	16857.128500	1750.304688	341.334991
19351.075957	16857.128500	1749.292969	540.456238
19351.075957	16857.128500	1748.282227	455.748718
19351.075957	16857.128500	1747.270508	366.250885
19351.075957	16857.128500	1746.259766	-32.852203
19351.075957	16857.128500	1745.248047	-524.030273
19351.075957	16857.128500	1744.235352	-16.029263
19351.075957	16857.128500	1743.223633	-25.491695
19351.075957	16857.128500	1742.211914	-313.652313
19351.075957	16857.128500	1741.199219	104.011620
19351.075957	16857.128500	1740.186523	552.091370
19351.075957	16857.128500	1739.173828	-177.564957
19351.075957	16857.128500	1738.160156	-446.989532
19351.075957	16857.128500	1737.147461	19.508492
19351.075957	16857.128500	1736.133789	-169.870255
19351.075957	16857.128500	1735.120117	315.071594
19351.075957	16857.128500	1734.106445	-15.934933
19351.075957	16857.128500	1733.091797	-221.984909
19351.075957	16857.128500	1732.078125	-18.030952
19351.075957	16857.128500	1731.063477	-144.092026
19351.075957	16857.128500	1730.048828	222.119659
19351.075957	16857.128500	1729.034180	58.186783
19351.075957	16857.128500	1728.019531	-89.296181
19351.075957	16857.128500	1727.003906	-177.955994
19351.075957	16857.128500	1725.988281	-160.754440
19351.075957	16857.128500	1724.972656	70.504539
19351.075957	16857.128500	1723.957031	-11.354041
19351.075957	16857.128500	1722.941406	83.158890
19351.075957	16857.128500	1721.924805	-45.888435
19351.075957	16857.128500	1720.909180	-135.005081
19351.075957	16857.128500	1719.892578	-33.731224
19351.075957	16857.128500	1718.875977	-254.625610
19351.075957	16857.128500	1717.858398	-64.233521
19351.075957	16857.128500	1716.841797	-358.051575
19351.075957	16857.128500	1715.824219	-125.597107
19351.075957	16857.128500	1714.806641	78.493446
19351.075957	16857.128500	1713.789063	143.869492
19351.075957	16857.128500	1712.770508	178.618210
19351.075957	16857.128500	1711.752930	102.935310
19351.075957	16857.128500	1710.734375	116.392593
19351.075957	16857.128500	1709.715820	-409.954498
19351.075957	16857.128500	1708.697266	-119.718163
19351.075957	16857.128500	1707.678711	109.340912
19351.075957	16857.128500	1706.659180	-449.768524
19351.075957	16857.128500	1705.640625	-204.474777
19351.075957	16857.128500	1704.621094	-13.265435
19351.075957	16857.128500	1703.600586	-117.534096
19351.075957	16857.128500	1702.581055	-146.849228
19351.075957	16857.128500	1701.561523	283.004883
19351.075957	16857.128500	1700.541016	307.364746
19351.075957	16857.128500	1699.520508	385.513275
19351.075957	16857.128500	1698.500000	-79.696739
19351.075957	16857.128500	1697.478516	14.750780
19351.075957	16857.128500	1696.458008	387.647614
19351.075957	16857.128500	1695.436523	435.032471
19351.075957	16857.128500	1694.415039	63.505070
19351.075957	16857.128500	1693.393555	166.953415
19351.075957	16857.128500	1692.372070	-279.351685
19351.075957	16857.128500	1691.349609	520.879089
19351.075957	16857.128500	1690.327148	-16.621527
19351.075957	16857.128500	1689.304688	287.565826
19351.075957	16857.128500	1688.282227	568.208069
19351.075957	16857.128500	1687.259766	738.861328
19351.075957	16857.128500	1686.236328	439.810760
19351.075957	16857.128500	1685.213867	115.126785
19351.075957	16857.128500	1684.190430	526.155762
19351.075957	16857.128500	1683.166016	845.922363
19351.075957	16857.128500	1682.142578	960.079407
19351.075957	16857.128500	1681.119141	698.373047
19351.075957	16857.128500	1680.094727	203.365509
19351.075957	16857.128500	1679.070313	634.751221
19351.075957	16857.128500	1678.045898	613.395020
19351.075957	16857.128500	1677.020508	857.878662
19351.075957	16857.128500	1675.996094	687.171814
19351.075957	16857.128500	1674.970703	1120.303833
19351.075957	16857.128500	1673.945313	1110.371704
19351.075957	16857.128500	1672.919922	851.052673
19351.075957	16857.128500	1671.893555	696.651184
19351.075957	16857.128500	1670.868164	730.965393
19351.075957	16857.128500	1669.841797	245.860291
19351.075957	16857.128500	1668.815430	547.979980
19351.075957	16857.128500	1667.789063	805.724365
19351.075957	16857.128500	1666.761719	839.886108
19351.075957	16857.128500	1665.735352	899.603455
19351.075957	16857.128500	1664.708008	859.229614
19351.075957	16857.128500	1663.680664	1407.416504
19351.075957	16857.128500	1662.653320	1327.376709
19351.075957	16857.128500	1661.625000	1384.555176
19351.075957	16857.128500	1660.597656	1160.363770
19351.075957	16857.128500	1659.569336	996.686707
19351.075957	16857.128500	1658.541016	740.094116
19351.075957	16857.128500	1657.512695	1654.724487
19351.075957	16857.128500	1656.483398	1509.600586
19351.075957	16857.128500	1655.455078	1401.685425
19351.075957	16857.128500	1654.425781	1463.339722
19351.075957	16857.128500	1653.396484	1285.813354
19351.075957	16857.128500	1652.366211	1389.242676
19351.075957	16857.128500	1651.336914	1764.188110
19351.075957	16857.128500	1650.306641	1370.893311
19351.075957	16857.128500	1649.276367	1323.443970
19351.075957	16857.128500	1648.246094	1728.345947
19351.075957	16857.128500	1647.215820	1942.921143
19351.075957	16857.128500	1646.185547	1429.342896
19351.075957	16857.128500	1645.154297	1912.833862
19351.075957	16857.128500	1644.123047	2036.881958
19351.075957	16857.128500	1643.091797	2515.453857
19351.075957	16857.128500	1642.060547	2247.805176
19351.075957	16857.128500	1641.028320	2587.193359
19351.075957	16857.128500	1639.997070	2403.042236
19351.075957	16857.128500	1638.964844	2640.423584
19351.075957	16857.128500	1637.931641	2018.811890
19351.075957	16857.128500	1636.899414	1946.048828
19351.075957	16857.128500	1635.867188	2407.927002
19351.075957	16857.128500	1634.833984	2050.571533
19351.075957	16857.128500	1633.800781	2348.059814
19351.075957	16857.128500	1632.767578	2323.968262
19351.075957	16857.128500	1631.734375	2651.411621
19351.075957	16857.128500	1630.700195	2627.335205
19351.075957	16857.128500	1629.666016	2404.511963
19351.075957	16857.128500	1628.631836	2209.545654
19351.075957	16857.128500	1627.597656	2550.765625
19351.075957	16857.128500	1626.563477	2774.068115
19351.075957	16857.128500	1625.528320	2572.336670
19351.075957	16857.128500	1624.493164	2534.687500
19351.075957	16857.128500	1623.458008	2649.485596
19351.075957	16857.128500	1622.422852	3396.783447
19351.075957	16857.128500	1621.387695	3227.586914
19351.075957	16857.128500	1620.351563	2673.150146
19351.075957	16857.128500	1619.315430	3062.569824
19351.075957	16857.128500	1618.279297	2932.906738
19351.075957	16857.128500	1617.243164	3149.271484
19351.075957	16857.128500	1616.207031	2696.955078
19351.075957	16857.128500	1615.169922	3132.403564
19351.075957	16857.128500	1614.132813	2631.986816
19351.075957	16857.128500	1613.095703	3198.749756
19351.075957	16857.128500	1612.058594	2866.830322
19351.075957	16857.128500	1611.020508	2885.233643
19351.075957	16857.128500	1609.983398	3219.208984
19351.075957	16857.128500	1608.945313	3320.569336
19351.075957	16857.128500	1607.907227	3435.773682
19351.075957	16857.128500	1606.868164	2846.698730
19351.075957	16857.128500	1605.830078	2968.999268
19351.075957	16857.128500	1604.791016	3217.878906
19351.075957	16857.128500	1603.751953	2622.520020
19351.075957	16857.128500	1602.712891	3421.197266
19351.075957	16857.128500	1601.673828	3058.432129
19351.075957	16857.128500	1600.633789	2808.550293
19351.075957	16857.128500	1599.594727	2758.814941
19351.075957	16857.128500	1598.554688	2787.325928
19351.075957	16857.128500	1597.513672	1938.221558
19351.075957	16857.128500	1596.473633	2759.588867
19351.075957	16857.128500	1595.433594	2836.585938
19351.075957	16857.128500	1594.392578	2750.613525
19351.075957	16857.128500	1593.351563	2501.766602
19351.075957	16857.128500	1592.310547	3276.854980
19351.075957	16857.128500	1591.268555	2674.779785
19351.075957	16857.128500	1590.227539	2483.751709
19351.075957	16857.128500	1589.185547	2565.891602
19351.075957	16857.128500	1588.143555	3003.614014
19351.075957	16857.128500	1587.100586	2384.132813
19351.075957	16857.128500	1586.058594	2755.442871
19351.075957	16857.128500	1585.015625	2494.056396
19351.075957	16857.128500	1583.972656	2755.415039
19351.075957	16857.128500	1582.929688	2702.868164
19351.075957	16857.128500	1581.886719	3046.783936
19351.075957	16857.128500	1580.843750	2346.222656
19351.075957	16857.128500	1579.799805	2626.187988
19351.075957	16857.128500	1578.755859	2320.031006
19351.075957	16857.128500	1577.711914	3023.616455
19351.075957	16857.128500	1576.666992	2935.170654
19351.075957	16857.128500	1575.623047	2991.034180
19351.075957	16857.128500	1574.578125	2914.315186
19351.075957	16857.128500	1573.533203	2410.020264
19351.075957	16857.128500	1572.488281	2653.861816
19351.075957	16857.128500	1571.443359	2561.626221
19351.075957	16857.128500	1570.397461	2652.447021
19351.075957	16857.128500	1569.351563	2357.104004
19351.075957	16857.128500	1568.305664	1931.762329
19351.075957	16857.128500	1567.259766	2100.724365
19351.075957	16857.128500	1566.213867	1819.772583
19351.075957	16857.128500	1565.166992	2274.439453
19351.075957	16857.128500	1564.120117	1900.230347
19351.075957	16857.128500	1563.073242	2325.303223
19351.075957	16857.128500	1562.026367	1917.276123
19351.075957	16857.128500	1560.978516	1751.447754
19351.075957	16857.128500	1559.930664	2564.588867
19351.075957	16857.128500	1558.883789	2417.227295
19351.075957	16857.128500	1557.834961	1813.963623
19351.075957	16857.128500	1556.787109	1582.742798
19351.075957	16857.128500	1555.739258	1992.359497
19351.075957	16857.128500	1554.690430	2205.956787
19351.075957	16857.128500	1553.641602	1840.808105
19351.075957	16857.128500	1552.592773	2220.977295
19351.075957	16857.128500	1551.542969	2327.810791
19351.075957	16857.128500	1550.494141	1853.994385
19351.075957	16857.128500	1549.444336	1938.399292
19351.075957	16857.128500	1548.394531	1588.107300
19351.075957	16857.128500	1547.344727	1820.795288
19351.075957	16857.128500	1546.293945	1511.954834
19351.075957	16857.128500	1545.244141	2168.082520
19351.075957	16857.128500	1544.193359	1604.844360
19351.075957	16857.128500	1543.142578	1412.703735
19351.075957	16857.128500	1542.090820	1962.102295
19351.075957	16857.128500	1541.040039	2068.121094
19351.075957	16857.128500	1539.988281	1708.314209
19351.075957	16857.128500	1538.936523	1146.562256
19351.075957	16857.128500	1537.884766	1241.831055
19351.075957	16857.128500	1536.833008	1752.945923
19351.075957	16857.128500	1535.780273	1964.243408
19351.075957	16857.128500	1534.727539	1557.986572
19351.075957	16857.128500	1533.674805	1474.449829
19351.075957	16857.128500	1532.622070	1554.544189
19351.075957	16857.128500	1531.569336	1464.582886
19351.075957	16857.128500	1530.515625	1392.993286
19351.075957	16857.128500	1529.461914	1267.166504
19351.075957	16857.128500	1528.408203	1257.239990
19351.075957	16857.128500	1527.354492	1716.886353
19351.075957	16857.128500	1526.299805	1575.752319
19351.075957	16857.128500	1525.246094	1704.578247
19351.075957	16857.128500	1524.191406	1078.883423
19351.075957	16857.128500	1523.136719	1296.503052
19351.075957	16857.128500	1522.081055	1380.572876
19351.075957	16857.128500	1521.026367	1310.768921
19351.075957	16857.128500	1519.970703	616.198120
19351.075957	16857.128500	1518.915039	635.257263
19351.075957	16857.128500	1517.859375	1313.193115
19351.075957	16857.128500	1516.802734	852.708496
19351.075957	16857.128500	1515.747070	953.727844
19351.075957	16857.128500	1514.690430	754.031372
19351.075957	16857.128500	1513.633789	1000.175171
19351.075957	16857.128500	1512.577148	798.667664
19351.075957	16857.128500	1511.519531	1289.278809
19351.075957	16857.128500	1510.461914	1226.079834
19351.075957	16857.128500	1509.405273	686.223267
19351.075957	16857.128500	1508.346680	243.968277
19351.075957	16857.128500	1507.289063	1180.111328
19351.075957	16857.128500	1506.231445	817.356262
19351.075957	16857.128500	1505.172852	791.427063
19351.075957	16857.128500	1504.114258	618.952515
19351.075957	16857.128500	1503.055664	248.097015
19351.075957	16857.128500	1501.996094	685.557739
19351.075957	16857.128500	1500.937500	403.230621
19351.075957	16857.128500	1499.877930	409.990265
19351.075957	16857.128500	1498.818359	471.081604
19351.075957	16857.128500	1497.757813	1037.495483
19351.075957	16857.128500	1496.698242	228.551910
19351.075957	16857.128500	1495.637695	475.095825
19351.075957	16857.128500	1494.577148	41.117348
19351.075957	16857.128500	1493.516602	-131.105957
19351.075957	16857.128500	1492.456055	327.726868
19351.075957	16857.128500	1491.394531	966.787354
19351.075957	16857.128500	1490.333008	191.584320
19351.075957	16857.128500	1489.271484	605.672668
19351.075957	16857.128500	1488.209961	439.033020
19351.075957	16857.128500	1487.148438	252.403687
19351.075957	16857.128500	1486.085938	79.570290
19351.075957	16857.128500	1485.023438	253.462616
19351.075957	16857.128500	1483.960938	337.518219
19351.075957	16857.128500	1482.898438	-138.200378
19351.075957	16857.128500	1481.834961	99.233688
19351.075957	16857.128500	1480.772461	-65.611206
19351.075957	16857.128500	1479.708984	484.474243
19351.075957	16857.128500	1478.644531	-324.747711
19351.075957	16857.128500	1477.581055	-475.221588
19351.075957	16857.128500	1476.517578	149.366501
19351.075957	16857.128500	1475.453125	389.791992
19351.075957	16857.128500	1474.388672	-33.970398
19351.075957	16857.128500	1473.323242	684.917664
19351.075957	16857.128500	1472.258789	629.638611
19351.075957	16857.128500	1471.193359	242.799118
19351.075957	16857.128500	1470.127930	418.958984
19351.075957	16857.128500	1469.062500	-115.292175
19351.075957	16857.128500	1467.997070	334.631378
19351.075957	16857.128500	1466.930664	572.213501
19351.075957	16857.128500	1465.865234	609.517212
19351.075957	16857.128500	1464.798828	197.987091
19351.075957	16857.128500	1463.731445	160.486725
19351.075957	16857.128500	1462.665039	657.601440
19351.075957	16857.128500	1461.597656	245.253433
19351.075957	16857.128500	1460.530273	330.973389
19351.075957	16857.128500	1459.462891	250.135910
19351.075957	16857.128500	1458.395508	617.389099
19351.075957	16857.128500	1457.327148	1097.542480
19351.075957	16857.128500	1456.259766	1072.229858
19351.075957	16857.128500	1455.191406	773.695862
19351.075957	16857.128500	1454.123047	642.649597
19351.075957	16857.128500	1453.053711	539.143494
19351.075957	16857.128500	1451.985352	520.259094
19351.075957	16857.128500	1450.916016	663.019714
19351.075957	16857.128500	1449.846680	791.211731
19351.075957	16857.128500	1448.776367	615.677368
19351.075957	16857.128500	1447.707031	688.285645
19351.075957	16857.128500	1446.636719	371.440216
19351.075957	16857.128500	1445.566406	429.942322
19351.075957	16857.128500	1444.496094	876.760193
19351.075957	16857.128500	1443.425781	907.510437
19351.075957	16857.128500	1442.354492	530.883606
19351.075957	16857.128500	1441.283203	414.875671
19351.075957	16857.128500	1440.211914	855.294556
19351.075957	16857.128500	1439.140625	352.452087
19351.075957	16857.128500	1438.069336	482.171814
19351.075957	16857.128500	1436.997070	486.871704
19351.075957	16857.128500	1435.924805	539.870972
19351.075957	16857.128500	1434.852539	193.012573
19351.075957	16857.128500	1433.780273	86.010651
19351.075957	16857.128500	1432.707031	78.885345
19351.075957	16857.128500	1431.633789	-1.040982
19351.075957	16857.128500	1430.560547	303.715240
19351.075957	16857.128500	1429.487305	-32.194450
19351.075957	16857.128500	1428.413086	138.442108
19351.075957	16857.128500	1427.339844	-70.024445
19351.075957	16857.128500	1426.265625	-299.879730
19351.075957	16857.128500	1425.191406	-350.177460
19351.075957	16857.128500	1424.116211	-394.892395
19351.075957	16857.128500	1423.041992	-168.476013
19351.075957	16857.128500	1421.966797	734.232605
19351.075957	16857.128500	1420.891602	26.737595
19351.075957	16857.128500	1419.816406	107.916939
19351.075957	16857.128500	1418.740234	-411.054932
19351.075957	16857.128500	1417.665039	-611.787476
19351.075957	16857.128500	1416.588867	-570.743225
19351.075957	16857.128500	1415.512695	-479.411041
19351.075957	16857.128500	1414.435547	-121.862076
19351.075957	16857.128500	1413.359375	-51.574219
19351.075957	16857.128500	1412.282227	-166.294006
19351.075957	16857.128500	1411.205078	-397.862549
19351.075957	16857.128500	1410.127930	127.574524
19351.075957	16857.128500	1409.049805	274.677277
19351.075957	16857.128500	1407.972656	83.880272
19351.075957	16857.128500	1406.894531	-228.030319
19351.075957	16857.128500	1405.816406	-65.302681
19351.075957	16857.128500	1404.737305	-292.514526
19351.075957	16857.128500	1403.659180	-88.740334
19351.075957	16857.128500	1402.580078	-567.095154
19351.075957	16857.128500	1401.500977	-231.550446
19351.075957	16857.128500	1400.421875	-161.119156
19351.075957	16857.128500	1399.341797	195.172455
19351.075957	16857.128500	1398.262695	252.564865
19351.075957	16857.128500	1397.182617	157.249039
19351.075957	16857.128500	1396.102539	386.612091
19351.075957	16857.128500	1395.021484	321.597015
19351.075957	16857.128500	1393.941406	-134.228760
19351.075957	16857.128500	1392.860352	219.295547
19351.075957	16857.128500	1391.779297	299.294739
19351.075957	16857.128500	1390.698242	5.869105
19351.075957	16857.128500	1389.616211	-60.901073
19351.075957	16857.128500	1388.535156	285.147949
19351.075957	16857.128500	1387.453125	272.713348
19351.075957	16857.128500	1386.371094	679.391846
19351.075957	16857.128500	1385.288086	175.604141
19351.075957	16857.128500	1384.206055	97.395653
19351.075957	16857.128500	1383.123047	260.952820
19351.075957	16857.128500	1382.040039	389.949982
19351.075957	16857.128500	1380.957031	624.366211
19351.075957	16857.128500	1379.873047	560.314148
19351.075957	16857.128500	1378.789063	424.030151
19351.075957	16857.128500	1377.705078	854.508911
19351.075957	16857.128500	1376.621094	1032.526489
19351.075957	16857.128500	1375.537109	417.366425
19351.075957	16857.128500	1374.452148	82.634163
19351.075957	16857.128500	1373.367188	92.077179
19351.075957	16857.128500	1372.282227	-229.735657
19351.075957	16857.128500	1371.197266	402.389526
19351.075957	16857.128500	1370.112305	491.896545
19351.075957	16857.128500	1369.026367	675.004517
19351.075957	16857.128500	1367.940430	934.679138
19351.075957	16857.128500	1366.854492	847.008728
19351.075957	16857.128500	1365.767578	804.904114
19351.075957	16857.128500	1364.681641	480.941620
19351.075957	16857.128500	1363.594727	913.905457
19351.075957	16857.128500	1362.507813	662.631714
19351.075957	16857.128500	1361.419922	701.523804
19351.075957	16857.128500	1360.333008	730.641663
19351.075957	16857.128500	1359.245117	699.148987
19351.075957	16857.128500	1358.157227	892.389465
19351.075957	16857.128500	1357.069336	270.084229
19351.075957	16857.128500	1355.981445	837.360535
19351.075957	16857.128500	1354.892578	902.282471
19351.075957	16857.128500	1353.803711	323.005768
19351.075957	16857.128500	1352.714844	192.895996
19351.075957	16857.128500	1351.625000	562.665894
19351.075957	16857.128500	1350.536133	629.190125
19351.075957	16857.128500	1349.446289	431.368347
19351.075957	16857.128500	1348.356445	670.937866
19351.075957	16857.128500	1347.266602	1263.279907
19351.075957	16857.128500	1346.175781	599.084229
19351.075957	16857.128500	1345.085938	930.775269
19351.075957	16857.128500	1343.995117	742.554382
19351.075957	16857.128500	1342.903320	1054.763916
19351.075957	16857.128500	1341.812500	908.195251
19351.075957	16857.128500	1340.720703	363.104736
19351.075957	16857.128500	1339.629883	514.510010
19351.075957	16857.128500	1338.538086	361.831726
19351.075957	16857.128500	1337.445313	613.677917
19351.075957	16857.128500	1336.353516	780.702515
19351.075957	16857.128500	1335.260742	803.182007
19351.075957	16857.128500	1334.167969	625.450439
19351.075957	16857.128500	1333.075195	936.127197
19351.075957	16857.128500	1331.981445	385.734833
19351.075957	16857.128500	1330.888672	1024.594604
19351.075957	16857.128500	1329.794922	997.366455
19351.075957	16857.128500	1328.701172	717.177063
19351.075957	16857.128500	1327.606445	448.041290
19351.075957	16857.128500	1326.512695	767.162781
19351.075957	16857.128500	1325.417969	802.334717
19351.075957	16857.128500	1324.323242	1095.902222
19351.075957	16857.128500	1323.227539	956.415649
19351.075957	16857.128500	1322.132813	719.738281
19351.075957	16857.128500	1321.037109	1039.472412
19351.075957	16857.128500	1319.941406	1258.287109
19351.075957	16857.128500	1318.845703	1004.262756
19351.075957	16857.128500	1317.750000	1049.616577
19351.075957	16857.128500	1316.653320	1001.535767
19351.075957	16857.128500	1315.556641	976.431519
19351.075957	16857.128500	1314.459961	791.743530
19351.075957	16857.128500	1313.363281	611.278809
19351.075957	16857.128500	1312.265625	1018.127136
19351.075957	16857.128500	1311.167969	805.918213
19351.075957	16857.128500	1310.070313	277.205200
19351.075957	16857.128500	1308.972656	516.091858
19351.075957	16857.128500	1307.874023	819.461060
19351.075957	16857.128500	1306.776367	657.886108
19351.075957	16857.128500	1305.677734	807.130371
19351.075957	16857.128500	1304.579102	241.432816
19351.075957	16857.128500	1303.479492	396.379547
19351.075957	16857.128500	1302.380859	761.809265
19351.075957	16857.128500	1301.281250	462.985535
19351.075957	16857.128500	1300.181641	401.846497
19351.075957	16857.128500	1299.081055	352.286896
19351.075957	16857.128500	1297.981445	566.082825
19351.075957	16857.128500	1296.880859	566.185486
19351.075957	16857.128500	1295.780273	474.126740
19351.075957	16857.128500	1294.679688	225.975311
19351.075957	16857.128500	1293.578125	569.161133
19351.075957	16857.128500	1292.476563	740.075439
19351.075957	16857.128500	1291.375000	447.782959
19351.075957	16857.128500	1290.273438	488.278320
19351.075957	16857.128500	1289.171875	540.977966
19351.075957	16857.128500	1288.069336	233.179062
19351.075957	16857.128500	1286.966797	107.237610
19351.075957	16857.128500	1285.864258	342.812225
19351.075957	16857.128500	1284.761719	180.159210
19351.075957	16857.128500	1283.658203	-72.099960
19351.075957	16857.128500	1282.554688	416.726624
19351.075957	16857.128500	1281.451172	507.008545
19351.075957	16857.128500	1280.347656	242.584137
19351.075957	16857.128500	1279.244141	512.741028
19351.075957	16857.128500	1278.139648	77.866264
19351.075957	16857.128500	1277.035156	354.917450
19351.075957	16857.128500	1275.930664	141.893158
19351.075957	16857.128500	1274.825195	170.715576
19351.075957	16857.128500	1273.720703	73.656952
19351.075957	16857.128500	1272.615234	-100.249260
19351.075957	16857.128500	1271.508789	2.100903
19351.075957	16857.128500	1270.403320	163.659500
19351.075957	16857.128500	1269.297852	158.458145
19351.075957	16857.128500	1268.191406	-174.631775
19351.075957	16857.128500	1267.084961	312.738159
19351.075957	16857.128500	1265.977539	-181.287262
19351.075957	16857.128500	1264.871094	-275.724487
19351.075957	16857.128500	1263.763672	-40.098934
19351.075957	16857.128500	1262.656250	190.644958
19351.075957	16857.128500	1261.548828	56.841766
19351.075957	16857.128500	1260.440430	237.577606
19351.075957	16857.128500	1259.333008	-76.073830
19351.075957	16857.128500	1258.224609	-102.435051
19351.075957	16857.128500	1257.115234	227.074554
19351.075957	16857.128500	1256.006836	172.462479
19351.075957	16857.128500	1254.897461	-115.109589
19351.075957	16857.128500	1253.788086	334.418152
19351.075957	16857.128500	1252.678711	346.759216
19351.075957	16857.128500	1251.569336	86.935806
19351.075957	16857.128500	1250.458984	92.260361
19351.075957	16857.128500	1249.349609	106.447914
19351.075957	16857.128500	1248.239258	431.351196
19351.075957	16857.128500	1247.127930	262.398499
19351.075957	16857.128500	1246.017578	402.816864
19351.075957	16857.128500	1244.906250	467.982239
19351.075957	16857.128500	1243.794922	356.560303
19351.075957	16857.128500	1242.683594	217.346725
19351.075957	16857.128500	1241.571289	568.770874
19351.075957	16857.128500	1240.459961	418.568146
19351.075957	16857.128500	1239.347656	511.602295
19351.075957	16857.128500	1238.234375	289.137665
19351.075957	16857.128500	1237.122070	305.554474
19351.075957	16857.128500	1236.008789	166.591278
19351.075957	16857.128500	1234.896484	317.175354
19351.075957	16857.128500	1233.782227	282.217468
19351.075957	16857.128500	1232.668945	243.890610
19351.075957	16857.128500	1231.555664	169.916977
19351.075957	16857.128500	1230.441406	287.010651
19351.075957	16857.128500	1229.327148	138.709213
19351.075957	16857.128500	1228.211914	253.199341
19351.075957	16857.128500	1227.097656	76.608467
19351.075957	16857.128500	1225.982422	198.678101
19351.075957	16857.128500	1224.867188	-27.589027
19351.075957	16857.128500	1223.751953	148.665466
19351.075957	16857.128500	1222.635742	380.858459
19351.075957	16857.128500	1221.520508	428.907166
19351.075957	16857.128500	1220.404297	-126.779510
19351.075957	16857.128500	1219.287109	-12.003494
19351.075957	16857.128500	1218.170898	40.648949
19351.075957	16857.128500	1217.053711	17.269960
19351.075957	16857.128500	1215.936523	-210.793365
19351.075957	16857.128500	1214.819336	378.876038
19351.075957	16857.128500	1213.702148	28.695324
19351.075957	16857.128500	1212.583984	82.084755
19351.075957	16857.128500	1211.465820	38.505039
19351.075957	16857.128500	1210.347656	-30.157923
19351.075957	16857.128500	1209.229492	-82.576813
19351.075957	16857.128500	1208.110352	236.367645
19351.075957	16857.128500	1206.992188	-28.514750
19351.075957	16857.128500	1205.873047	219.316086
19351.075957	16857.128500	1204.752930	440.765411
19351.075957	16857.128500	1203.633789	242.823212
19351.075957	16857.128500	1202.513672	116.783051
19351.075957	16857.128500	1201.393555	47.176743
19351.075957	16857.128500	1200.273438	422.347321
19351.075957	16857.128500	1199.152344	154.753433
19351.075957	16857.128500	1198.032227	-279.453949
19351.075957	16857.128500	1196.911133	-284.552307
19351.075957	16857.128500	1195.790039	-54.001522
19351.075957	16857.128500	1194.667969	53.980934
19351.075957	16857.128500	1193.545898	290.435333
19351.075957	16857.128500	1192.424805	-242.535202
19351.075957	16857.128500	1191.301758	-101.871262
19351.075957	16857.128500	1190.179688	-71.547462
19351.075957	16857.128500	1189.056641	39.876434
19351.075957	16857.128500	1187.933594	39.491959
19351.075957	16857.128500	1186.810547	40.189220
19351.075957	16857.128500	1185.687500	1.467715
19351.075957	16857.128500	1184.563477	54.480473
19351.075957	16857.128500	1183.440430	89.830063
19351.075957	16857.128500	1182.316406	41.819054
19351.075957	16857.128500	1181.191406	187.360809
19351.075957	16857.128500	1180.067383	-230.074341
19351.075957	16857.128500	1178.942383	-290.660858
19351.075957	16857.128500	1177.817383	-53.845406
19351.075957	16857.128500	1176.692383	-222.565826
19351.075957	16857.128500	1175.566406	64.392815
19351.075957	16857.128500	1174.440430	-86.411903
19351.075957	16857.128500	1173.314453	-347.906097
19351.075957	16857.128500	1172.188477	-229.457260
19351.075957	16857.128500	1171.062500	204.422546
19351.075957	16857.128500	1169.935547	86.865875
19351.075957	16857.128500	1168.808594	-198.619949
19351.075957	16857.128500	1167.681641	21.656219
19351.075957	16857.128500	1166.553711	-74.286598
19351.075957	16857.128500	1165.426758	-65.690407
19351.075957	16857.128500	1164.298828	217.803345
19351.075957	16857.128500	1163.170898	-258.981079
19351.075957	16857.128500	1162.041992	62.533634
19351.075957	16857.128500	1160.914063	-240.995300
19351.075957	16857.128500	1159.785156	-110.112335
19351.075957	16857.128500	1158.656250	-106.449829
19351.075957	16857.128500	1157.526367	-142.196396
19351.075957	16857.128500	1156.397461	-569.865906
19351.075957	16857.128500	1155.267578	-307.667542
19351.075957	16857.128500	1154.137695	-389.326996
19351.075957	16857.128500	1153.006836	-336.216797
19351.075957	16857.128500	1151.876953	-591.674194
19351.075957	16857.128500	1150.746094	-151.725555
19351.075957	16857.128500	1149.615234	-379.728851
19351.075957	16857.128500	1148.484375	-262.586487
19351.075957	16857.128500	1147.352539	99.176270
19351.075957	16857.128500	1146.220703	-150.071732
19351.075957	16857.128500	1145.088867	-607.412537
19351.075957	16857.128500	1143.957031	-448.553070
19351.075957	16857.128500	1142.825195	-395.235535
19351.075957	16857.128500	1141.692383	-255.352768
19351.075957	16857.128500	1140.559570	-203.738525
19351.075957	16857.128500	1139.426758	-297.142700
19351.075957	16857.128500	1138.292969	-267.306061
19351.075957	16857.128500	1137.159180	-25.948730
19351.075957	16857.128500	1136.025391	-257.312805
19351.075957	16857.128500	1134.891602	-108.105118
19351.075957	16857.128500	1133.757813	-409.235718
19351.075957	16857.128500	1132.623047	-207.609787
19351.075957	16857.128500	1131.488281	-189.247742
19351.075957	16857.128500	1130.353516	-141.438431
19351.075957	16857.128500	1129.217773	-98.923256
19351.075957	16857.128500	1128.083008	-80.531364
19351.075957	16857.128500	1126.947266	-72.695053
19351.075957	16857.128500	1125.811523	-181.988861
19351.075957	16857.128500	1124.674805	103.814232
19351.075957	16857.128500	1123.539063	-96.953972
19351.075957	16857.128500	1122.402344	60.121216
19351.075957	16857.128500	1121.265625	-327.639832
19351.075957	16857.128500	1120.127930	-259.240814
19351.075957	16857.128500	1118.990234	-126.884590
19351.075957	16857.128500	1117.853516	201.995911
19351.075957	16857.128500	1116.714844	-37.232769
19351.075957	16857.128500	1115.577148	-75.627869
19351.075957	16857.128500	1114.439453	307.185669
19351.075957	16857.128500	1113.300781	168.039536
19351.075957	16857.128500	1112.162109	558.985474
19351.075957	16857.128500	1111.022461	356.366699
19351.075957	16857.128500	1109.883789	373.489990
19351.075957	16857.128500	1108.744141	289.615723
19351.075957	16857.128500	1107.604492	506.842804
19351.075957	16857.128500	1106.463867	420.315002
19351.075957	16857.128500	1105.324219	426.699188
19351.075957	16857.128500	1104.183594	270.380066
19351.075957	16857.128500	1103.042969	252.706970
19351.075957	16857.128500	1101.902344	611.297546
19351.075957	16857.128500	1100.760742	382.955414
19351.075957	16857.128500	1099.619141	394.592651
19351.075957	16857.128500	1098.477539	429.897308
19351.075957	16857.128500	1097.335938	504.127716
19351.075957	16857.128500	1096.193359	574.169189
19351.075957	16857.128500	1095.051758	649.819031
19351.075957	16857.128500	1093.909180	360.409851
19351.075957	16857.128500	1092.765625	258.355927
19351.075957	16857.128500	1091.623047	648.166138
19351.075957	16857.128500	1090.479492	687.234924
19351.075957	16857.128500	1089.335938	335.592560
19351.075957	16857.128500	1088.192383	315.329437
19351.075957	16857.128500	1087.047852	800.877136
19351.075957	16857.128500	1085.903320	541.281738
19351.075957	16857.128500	1084.758789	617.942261
19351.075957	16857.128500	1083.614258	133.375031
19351.075957	16857.128500	1082.469727	406.010345
19351.075957	16857.128500	1081.324219	153.861465
19351.075957	16857.128500	1080.178711	304.345978
19351.075957	16857.128500	1079.033203	405.038788
19351.075957	16857.128500	1077.886719	209.472504
19351.075957	16857.128500	1076.740234	245.061005
19351.075957	16857.128500	1075.593750	515.019836
19351.075957	16857.128500	1074.447266	302.798981
19351.075957	16857.128500	1073.300781	770.887329
19351.075957	16857.128500	1072.153320	323.821106
19351.075957	16857.128500	1071.005859	404.100555
19351.075957	16857.128500	1069.858398	114.363129
19351.075957	16857.128500	1068.709961	86.394806
19351.075957	16857.128500	1067.561523	585.422668
19351.075957	16857.128500	1066.413086	133.670044
19351.075957	16857.128500	1065.264648	-54.116177
19351.075957	16857.128500	1064.116211	231.599915
19351.075957	16857.128500	1062.966797	356.248505
19351.075957	16857.128500	1061.817383	108.967163
19351.075957	16857.128500	1060.667969	374.698090
19351.075957	16857.128500	1059.517578	276.777527
19351.075957	16857.128500	1058.368164	135.683624
19351.075957	16857.128500	1057.217773	109.904510
19351.075957	16857.128500	1056.067383	191.886719
19351.075957	16857.128500	1054.916016	332.309998
19351.075957	16857.128500	1053.764648	346.835907
19351.075957	16857.128500	1052.613281	334.055023
19351.075957	16857.128500	1051.461914	144.058029
19351.075957	16857.128500	1050.310547	125.021477
19351.075957	16857.128500	1049.158203	453.742065
19351.075957	16857.128500	1048.005859	451.967529
19351.075957	16857.128500	1046.853516	121.390129
19351.075957	16857.128500	1045.700195	189.665726
19351.075957	16857.128500	1044.547852	398.238800
19351.075957	16857.128500	1043.394531	296.947632
19351.075957	16857.128500	1042.240234	56.949100
19351.075957	16857.128500	1041.086914	195.723206
19351.075957	16857.128500	1039.932617	261.072723
19351.075957	16857.128500	1038.778320	42.347462
19351.075957	16857.128500	1037.624023	480.220093
19351.075957	16857.128500	1036.469727	357.433655
19351.075957	16857.128500	1035.314453	713.209961
19351.075957	16857.128500	1034.159180	856.234924
19351.075957	16857.128500	1033.003906	1144.282837
19351.075957	16857.128500	1031.847656	1424.391724
19351.075957	16857.128500	1030.692383	1405.972290
19351.075957	16857.128500	1029.536133	1927.291260
19351.075957	16857.128500	1028.378906	1845.083496
19351.075957	16857.128500	1027.222656	1706.381104
19351.075957	16857.128500	1026.065430	1063.708374
19351.075957	16857.128500	1024.908203	911.388245
19351.075957	16857.128500	1023.750977	817.355225
19351.075957	16857.128500	1022.593750	185.992889
19351.075957	16857.128500	1021.435547	319.010742
19351.075957	16857.128500	1020.277344	114.458618
19351.075957	16857.128500	1019.119141	465.341217
19351.075957	16857.128500	1017.959961	150.610107
19351.075957	16857.128500	1016.800781	-183.032425
19351.075957	16857.128500	1015.641602	129.672226
19351.075957	16857.128500	1014.482422	-80.540802
19351.075957	16857.128500	1013.323242	48.137894
19351.075957	16857.128500	1012.163086	234.534668
19351.075957	16857.128500	1011.002930	291.906677
19351.075957	16857.128500	1009.842773	199.750778
19351.075957	16857.128500	1008.681641	237.713531
19351.075957	16857.128500	1007.520508	119.688896
19351.075957	16857.128500	1006.359375	449.611237
19351.075957	16857.128500	1005.198242	-92.249184
19351.075957	16857.128500	1004.037109	245.233398
19351.075957	16857.128500	1002.875000	355.053009
19351.075957	16857.128500	1001.712891	118.810783
19351.075957	16857.128500	1000.550781	56.366833
19351.075957	16857.128500	999.387695	-23.546646
19351.075957	16857.128500	998.224609	173.398117
19351.075957	16857.128500	997.061523	-257.657501
19351.075957	16857.128500	995.898438	121.716835
19351.075957	16857.128500	994.734375	202.843063
19351.075957	16857.128500	993.571289	605.360718
19351.075957	16857.128500	992.407227	-50.411419
19351.075957	16857.128500	991.242188	-208.468796
19351.075957	16857.128500	990.078125	46.855591
19351.075957	16857.128500	988.913086	167.813965
19351.075957	16857.128500	987.748047	323.621063
19351.075957	16857.128500	986.583008	249.734512
19351.075957	16857.128500	985.416992	169.565826
19351.075957	16857.128500	984.250977	173.985992
19351.075957	16857.128500	983.084961	45.659706
19351.075957	16857.128500	981.918945	75.380547
19351.075957	16857.128500	980.751953	-224.268265
19351.075957	16857.128500	979.584961	-138.958618
19351.075957	16857.128500	978.417969	-94.162590
19351.075957	16857.128500	977.250977	175.214142
19351.075957	16857.128500	976.083008	-77.245316
19351.075957	16857.128500	974.915039	-319.044830
19351.075957	16857.128500	973.747070	-145.695618
19351.075957	16857.128500	972.579102	87.470886
19351.075957	16857.128500	971.410156	250.842331
19351.075957	16857.128500	970.242188	171.930084
19351.075957	16857.128500	969.072266	558.431213
19351.075957	16857.128500	967.903320	283.454315
19351.075957	16857.128500	966.733398	-250.022736
19351.075957	16857.128500	965.563477	-15.281133
19351.075957	16857.128500	964.393555	18.788977
19351.075957	16857.128500	963.223633	155.551331
19351.075957	16857.128500	962.052734	617.190247
19351.075957	16857.128500	960.881836	111.432411
19351.075957	16857.128500	959.710938	99.649330
19351.075957	16857.128500	958.540039	209.212509
19351.075957	16857.128500	957.368164	122.345230
19351.075957	16857.128500	956.196289	265.766388
19351.075957	16857.128500	955.024414	72.288811
19351.075957	16857.128500	953.851563	469.588867
19351.075957	16857.128500	952.679688	126.162605
19351.075957	16857.128500	951.506836	-185.422882
19351.075957	16857.128500	950.333984	-52.765110
19351.075957	16857.128500	949.160156	252.761383
19351.075957	16857.128500	947.986328	4.578574
19351.075957	16857.128500	946.812500	276.921143
19351.075957	16857.128500	945.638672	-63.870808
19351.075957	16857.128500	944.464844	368.007660
19351.075957	16857.128500	943.290039	-31.802458
19351.075957	16857.128500	942.115234	150.077820
19351.075957	16857.128500	940.940430	-204.487991
19351.075957	16857.128500	939.764648	-63.581650
19351.075957	16857.128500	938.588867	-305.199158
19351.075957	16857.128500	937.413086	183.550278
19351.075957	16857.128500	936.237305	8.959804
19351.075957	16857.128500	935.060547	109.463181
19351.075957	16857.128500	933.883789	9.763611
19351.075957	16857.128500	932.707031	-394.755981
19351.075957	16857.128500	931.530273	2.674081
19351.075957	16857.128500	930.352539	309.174927
19351.075957	16857.128500	929.175781	-22.854908
19351.075957	16857.128500	927.998047	222.983047
19351.075957	16857.128500	926.819336	66.931000
19351.075957	16857.128500	925.641602	155.176544
19351.075957	16857.128500	924.462891	-150.225708
19351.075957	16857.128500	923.284180	174.259445
19351.075957	16857.128500	922.104492	-24.082918
19351.075957	16857.128500	920.924805	223.614395
19351.075957	16857.128500	919.746094	251.796768
19351.075957	16857.128500	919.551758	108.661560
19351.075957	16857.128500	918.386719	-97.952843
19351.075957	16857.128500	917.220703	-247.996338
19351.075957	16857.128500	916.054688	-156.031403
19351.075957	16857.128500	914.887695	-201.159851
19351.075957	16857.128500	913.721680	7.649726
19351.075957	16857.128500	912.554688	-293.411682
19351.075957	16857.128500	911.387695	-12.125341
19351.075957	16857.128500	910.220703	-240.553909
19351.075957	16857.128500	909.052734	-203.049286
19351.075957	16857.128500	907.885742	-207.865250
19351.075957	16857.128500	906.717773	20.841406
19351.075957	16857.128500	905.548828	201.175888
19351.075957	16857.128500	904.380859	174.150101
19351.075957	16857.128500	903.211914	-1.709293
19351.075957	16857.128500	902.042969	-131.246094
19351.075957	16857.128500	900.874023	-292.909790
19351.075957	16857.128500	899.704102	132.584198
19351.075957	16857.128500	898.535156	565.915771
19351.075957	16857.128500	897.365234	364.017731
19351.075957	16857.128500	896.194336	25.588850
19351.075957	16857.128500	895.024414	330.113770
19351.075957	16857.128500	893.853516	-90.533470
19351.075957	16857.128500	892.682617	7.065010
19351.075957	16857.128500	891.511719	-104.184929
19351.075957	16857.128500	890.340820	-24.705557
19351.075957	16857.128500	889.168945	62.783569
19351.075957	16857.128500	887.997070	146.212067
19351.075957	16857.128500	886.825195	329.899811
19351.075957	16857.128500	885.653320	108.365837
19351.075957	16857.128500	884.480469	-135.121201
19351.075957	16857.128500	883.307617	-260.237152
19351.075957	16857.128500	882.134766	-459.478668
19351.075957	16857.128500	880.961914	-57.455555
19351.075957	16857.128500	879.788086	-164.497025
19351.075957	16857.128500	878.614258	149.158585
19351.075957	16857.128500	877.440430	-68.059593
19351.075957	16857.128500	876.266602	45.183823
19351.075957	16857.128500	875.091797	180.411102
19351.075957	16857.128500	873.916992	441.661255
19351.075957	16857.128500	872.742188	104.457138
19351.075957	16857.128500	871.567383	411.595001
19351.075957	16857.128500	870.391602	-27.488977
19351.075957	16857.128500	869.215820	165.545059
19351.075957	16857.128500	868.040039	12.575352
19351.075957	16857.128500	866.864258	-292.281555
19351.075957	16857.128500	865.687500	182.461136
19351.075957	16857.128500	864.510742	505.123810
19351.075957	16857.128500	863.333984	-131.325531
19351.075957	16857.128500	862.157227	261.131989
19351.075957	16857.128500	860.979492	271.998657
19351.075957	16857.128500	859.802734	135.068420
19351.075957	16857.128500	858.625000	0.186420
19351.075957	16857.128500	857.446289	82.894806
19351.075957	16857.128500	856.268555	99.675140
19351.075957	16857.128500	855.089844	-418.205750
19351.075957	16857.128500	853.911133	-237.810181
19351.075957	16857.128500	852.731445	127.961517
19351.075957	16857.128500	851.552734	-112.565117
19351.075957	16857.128500	850.373047	-323.100098
19351.075957	16857.128500	849.193359	-266.529938
19351.075957	16857.128500	848.013672	-299.679626
19351.075957	16857.128500	846.833008	-141.582535
19351.075957	16857.128500	845.652344	-123.003944
19351.075957	16857.128500	844.471680	-160.225983
19351.075957	16857.128500	843.291016	-111.858887
19351.075957	16857.128500	842.110352	-378.040253
19351.075957	16857.128500	840.928711	-228.209869
19351.075957	16857.128500	839.747070	206.038971
19351.075957	16857.128500	838.564453	91.063232
19351.075957	16857.128500	837.382813	-276.502228
19351.075957	16857.128500	836.200195	-61.337093
19351.075957	16857.128500	835.017578	68.215424
19351.075957	16857.128500	833.834961	-52.767456
19351.075957	16857.128500	832.651367	-271.093048
19351.075957	16857.128500	831.467773	-177.452103
19351.075957	16857.128500	830.284180	-69.990044
19351.075957	16857.128500	829.100586	138.663239
19351.075957	16857.128500	827.916992	-226.637711
19351.075957	16857.128500	826.732422	35.487038
19351.075957	16857.128500	825.547852	100.964134
19351.075957	16857.128500	824.363281	265.577789
19351.075957	16857.128500	823.177734	43.231194
19351.075957	16857.128500	821.992188	-40.230869
19351.075957	16857.128500	820.806641	-397.379700
19351.075957	16857.128500	819.621094	-284.544373
19351.075957	16857.128500	818.434570	-108.353149
19351.075957	16857.128500	817.249023	-21.497812
19351.075957	16857.128500	816.062500	-212.120667
19351.075957	16857.128500	814.875000	-46.113491
19351.075957	16857.128500	813.688477	131.625244
19351.075957	16857.128500	812.500977	-11.543194
19351.075957	16857.128500	811.313477	187.792801
19351.075957	16857.128500	810.125977	-58.387253
19351.075957	16857.128500	808.937500	-193.680847
19351.075957	16857.128500	807.749023	-107.383186
19351.075957	16857.128500	806.560547	-35.038231
19351.075957	16857.128500	805.372070	-109.143036
19351.075957	16857.128500	804.182617	-31.010151
19351.075957	16857.128500	802.994141	-251.517441
19351.075957	16857.128500	801.803711	-80.608620
19351.075957	16857.128500	800.614258	-299.158295
19351.075957	16857.128500	799.424805	-29.690016
19351.075957	16857.128500	798.234375	63.811497
19351.075957	16857.128500	797.043945	66.356285
19351.075957	16857.128500	795.852539	60.943874
19351.075957	16857.128500	794.662109	-191.326096
19351.075957	16857.128500	793.470703	132.768936
19351.075957	16857.128500	792.279297	229.723709
19351.075957	16857.128500	791.087891	-277.138489
19351.075957	16857.128500	789.895508	176.736221
19351.075957	16857.128500	788.703125	159.022491
19351.075957	16857.128500	787.510742	302.906921
19351.075957	16857.128500	786.318359	290.919861
19351.075957	16857.128500	785.125000	136.974335
19351.075957	16857.128500	783.931641	-202.211731
19351.075957	16857.128500	782.738281	-194.623596
19351.075957	16857.128500	781.544922	171.343399
19351.075957	16857.128500	780.350586	275.183990
19351.075957	16857.128500	779.156250	75.702423
19351.075957	16857.128500	777.961914	143.913483
19351.075957	16857.128500	776.767578	-55.640663
19351.075957	16857.128500	775.572266	-233.539719
19351.075957	16857.128500	774.376953	76.395874
19351.075957	16857.128500	773.181641	87.165359
19351.075957	16857.128500	771.986328	-10.314034
19351.075957	16857.128500	770.790039	-361.430908
19351.075957	16857.128500	769.593750	199.498627
19351.075957	16857.128500	768.397461	-20.049595
19351.075957	16857.128500	767.201172	-13.658281
19351.075957	16857.128500	766.003906	88.896988
19351.075957	16857.128500	764.806641	216.839539
19351.075957	16857.128500	763.609375	10.840596
19351.075957	16857.128500	762.412109	61.989407
19351.075957	16857.128500	761.213867	-61.642235
19351.075957	16857.128500	760.015625	-163.736847
19351.075957	16857.128500	758.817383	253.990173
19351.075957	16857.128500	757.618164	37.922916
19351.075957	16857.128500	756.419922	-191.907700
19351.075957	16857.128500	755.220703	211.552170
19351.075957	16857.128500	754.021484	128.608795
19351.075957	16857.128500	752.821289	490.481964
19351.075957	16857.128500	751.621094	-70.767899
19351.075957	16857.128500	750.420898	304.499420
19351.075957	16857.128500	749.220703	-35.372704
19351.075957	16857.128500	748.020508	-28.619015
19351.075957	16857.128500	746.819336	107.257256
19351.075957	16857.128500	745.618164	-424.487579
19351.075957	16857.128500	744.416992	-57.885056
19351.075957	16857.128500	743.214844	236.080917
19351.075957	16857.128500	742.012695	598.276367
19351.075957	16857.128500	740.810547	156.419907
19351.075957	16857.128500	739.608398	50.948792
19351.075957	16857.128500	738.406250	174.136322
19351.075957	16857.128500	737.203125	222.904510
19351.075957	16857.128500	736.000000	377.065308
19351.075957	16857.128500	734.795898	439.239838
19351.075957	16857.128500	733.592773	401.650482
19351.075957	16857.128500	732.388672	699.871460
19351.075957	16857.128500	731.184570	630.801208
19351.075957	16857.128500	729.979492	836.896545
19351.075957	16857.128500	728.775391	461.197052
19351.075957	16857.128500	727.570313	672.877930
19351.075957	16857.128500	726.365234	283.510010
19351.075957	16857.128500	725.160156	149.695007
19351.075957	16857.128500	723.954102	327.838623
19351.075957	16857.128500	722.748047	215.312759
19351.075957	16857.128500	721.541992	248.910706
19351.075957	16857.128500	720.334961	206.397339
19351.075957	16857.128500	719.128906	187.161743
19351.075957	16857.128500	717.921875	-67.868202
19351.075957	16857.128500	716.714844	-34.659771
19351.075957	16857.128500	715.506836	167.840775
19351.075957	16857.128500	714.298828	29.471094
19351.075957	16857.128500	713.090820	-15.526083
19351.075957	16857.128500	711.882813	-294.118927
19351.075957	16857.128500	710.674805	209.392349
19351.075957	16857.128500	709.465820	113.506577
19351.075957	16857.128500	708.256836	-29.113745
19351.075957	16857.128500	707.047852	-109.561638
19351.075957	16857.128500	705.837891	175.380295
19351.075957	16857.128500	704.627930	-39.371147
19351.075957	16857.128500	703.417969	85.899727
19351.075957	16857.128500	702.208008	-183.341354
19351.075957	16857.128500	700.998047	-54.409870
19351.075957	16857.128500	699.787109	105.450386
19351.075957	16857.128500	698.576172	49.645157
19351.075957	16857.128500	697.364258	53.950104
19351.075957	16857.128500	696.153320	-335.804108
19351.075957	16857.128500	694.941406	-213.258591
19351.075957	16857.128500	693.729492	266.059296
19351.075957	16857.128500	692.516602	157.460220
19351.075957	16857.128500	691.304688	-52.025139
19351.075957	16857.128500	690.091797	426.692139
19351.075957	16857.128500	688.878906	281.030457
19351.075957	16857.128500	687.665039	73.343353
19351.075957	16857.128500	686.451172	-68.473938
19351.075957	16857.128500	685.237305	347.521454
19351.075957	16857.128500	684.023438	629.635742
19351.075957	16857.128500	682.809570	683.085266
19351.075957	16857.128500	681.594727	622.235229
19351.075957	16857.128500	680.379883	541.977417
19351.075957	16857.128500	679.165039	361.059692
19351.075957	16857.128500	677.949219	470.327545
19351.075957	16857.128500	676.733398	745.805969
19351.075957	16857.128500	675.517578	257.289886
19351.075957	16857.128500	674.301758	580.886475
19351.075957	16857.128500	673.084961	268.370972
19351.075957	16857.128500	671.869141	601.351135
19351.075957	16857.128500	670.651367	536.148376
19351.075957	16857.128500	669.434570	316.359406
19351.075957	16857.128500	668.216797	123.653526
19351.075957	16857.128500	667.000000	353.811005
19351.075957	16857.128500	665.781250	369.555206
19351.075957	16857.128500	664.563477	3.085134
19351.075957	16857.128500	663.344727	539.784729
19351.075957	16857.128500	662.125977	547.606018
19351.075957	16857.128500	660.907227	676.887329
19351.075957	16857.128500	659.688477	528.380981
19351.075957	16857.128500	658.468750	362.553497
19351.075957	16857.128500	657.249023	152.419754
19351.075957	16857.128500	656.029297	133.122879
19351.075957	16857.128500	654.808594	476.039551
19351.075957	16857.128500	653.587891	117.587250
19351.075957	16857.128500	652.367188	107.846695
19351.075957	16857.128500	651.146484	431.203400
19351.075957	16857.128500	649.924805	523.389526
19351.075957	16857.128500	648.704102	192.066055
19351.075957	16857.128500	647.482422	174.534546
19351.075957	16857.128500	646.259766	410.961823
19351.075957	16857.128500	645.037109	395.289276
19351.075957	16857.128500	643.815430	87.294296
19351.075957	16857.128500	642.591797	304.336029
19351.075957	16857.128500	641.369141	42.619804
19351.075957	16857.128500	640.145508	-90.212845
19351.075957	16857.128500	638.921875	22.959373
19351.075957	16857.128500	637.698242	-104.047974
19351.075957	16857.128500	636.474609	-177.216156
19351.075957	16857.128500	635.250000	76.109268
19351.075957	16857.128500	634.025391	-213.973724
19351.075957	16857.128500	632.800781	129.495087
19351.075957	16857.128500	631.575195	-210.329712
19351.075957	16857.128500	630.349609	-70.330544
19351.075957	16857.128500	629.124023	-97.250214
19351.075957	16857.128500	627.898438	81.074753
19351.075957	16857.128500	626.671875	426.181915
19351.075957	16857.128500	625.445313	-7.123601
19351.075957	16857.128500	624.218750	240.185043
19351.075957	16857.128500	622.992188	247.908142
19351.075957	16857.128500	621.764648	251.849075
19351.075957	16857.128500	620.537109	271.164520
19351.075957	16857.128500	619.309570	-255.239670
19351.075957	16857.128500	618.081055	34.244728
19351.075957	16857.128500	616.852539	-149.124069
19351.075957	16857.128500	615.624023	-449.096466
19351.075957	16857.128500	614.395508	119.788109
19351.075957	16857.128500	613.166992	-15.458987
19351.075957	16857.128500	611.937500	-142.916672
19351.075957	16857.128500	610.708008	-283.623810
19351.075957	16857.128500	609.477539	40.368176
19351.075957	16857.128500	608.248047	188.454163
19351.075957	16857.128500	607.017578	-269.179260
19351.075957	16857.128500	605.787109	-321.496887
19351.075957	16857.128500	604.555664	-545.592896
19351.075957	16857.128500	603.325195	-213.791687
19351.075957	16857.128500	602.093750	-239.046707
19351.075957	16857.128500	600.861328	-592.498657
19351.075957	16857.128500	599.629883	46.699390
19351.075957	16857.128500	598.397461	-98.460213
19351.075957	16857.128500	597.165039	-249.161636
19351.075957	16857.128500	595.932617	-237.561554
19351.075957	16857.128500	594.699219	-212.483902
19351.075957	16857.128500	593.465820	-234.945221
19351.075957	16857.128500	592.232422	28.639986
19351.075957	16857.128500	590.999023	-41.236591
19351.075957	16857.128500	589.764648	142.460800
19351.075957	16857.128500	588.530273	-283.316132
19351.075957	16857.128500	587.295898	-188.860931
19351.075957	16857.128500	586.061523	94.200821
19351.075957	16857.128500	584.826172	-138.567505
19351.075957	16857.128500	583.590820	178.941498
19351.075957	16857.128500	582.355469	117.824745
19351.075957	16857.128500	581.119141	235.727905
19351.075957	16857.128500	579.882813	241.535217
19351.075957	16857.128500	578.646484	-302.043274
19351.075957	16857.128500	577.410156	10.304000
19351.075957	16857.128500	576.172852	-72.648071
19351.075957	16857.128500	574.935547	150.569916
19351.075957	16857.128500	573.698242	121.179512
19351.075957	16857.128500	572.460938	261.050598
19351.075957	16857.128500	571.222656	393.462250
19351.075957	16857.128500	569.984375	510.820557
19351.075957	16857.128500	568.746094	411.909241
19351.075957	16857.128500	567.506836	286.683380
19351.075957	16857.128500	566.267578	199.657700
19351.075957	16857.128500	565.028320	148.912552
19351.075957	16857.128500	563.789063	49.078957
19351.075957	16857.128500	562.548828	10.186433
19351.075957	16857.128500	561.309570	659.717102
19351.075957	16857.128500	560.068359	810.693420
19351.075957	16857.128500	558.828125	609.311218
19351.075957	16857.128500	557.586914	88.045906
19351.075957	16857.128500	556.345703	283.253906
19351.075957	16857.128500	555.104492	471.018524
19351.075957	16857.128500	553.863281	371.110474
19351.075957	16857.128500	552.621094	850.754883
19351.075957	16857.128500	551.378906	509.002350
19351.075957	16857.128500	550.136719	966.146484
19351.075957	16857.128500	548.893555	1287.119507
19351.075957	16857.128500	547.650391	766.482788
19351.075957	16857.128500	546.407227	847.642761
19351.075957	16857.128500	545.164063	683.208923
19351.075957	16857.128500	543.919922	878.226807
19351.075957	16857.128500	542.675781	1116.846069
19351.075957	16857.128500	541.431641	977.703064
19351.075957	16857.128500	540.186523	1099.546265
19351.075957	16857.128500	538.941406	1552.059692
19351.075957	16857.128500	537.696289	1273.867065
19351.075957	16857.128500	536.451172	1398.111694
19351.075957	16857.128500	535.205078	1226.217896
19351.075957	16857.128500	533.959961	1401.801270
19351.075957	16857.128500	532.712891	1600.203979
19351.075957	16857.128500	531.466797	1287.556396
19351.075957	16857.128500	530.219727	1399.571411
19351.075957	16857.128500	528.972656	1585.273560
19351.075957	16857.128500	527.725586	1908.702881
19351.075957	16857.128500	526.478516	1704.520142
19351.075957	16857.128500	525.230469	1760.652710
19351.075957	16857.128500	523.982422	1888.541138
19351.075957	16857.128500	522.734375	1978.896362
19351.075957	16857.128500	521.485352	1739.906982
19351.075957	16857.128500	520.236328	1553.910645
19351.075957	16857.128500	518.987305	1769.066406
19351.075957	16857.128500	517.737305	2078.410156
19351.075957	16857.128500	516.488281	2160.123535
19351.075957	16857.128500	515.238281	2004.986328
19351.075957	16857.128500	513.988281	2361.571777
19351.075957	16857.128500	512.737305	2015.012573
19351.075957	16857.128500	511.486328	2482.654785
19351.075957	16857.128500	510.235352	2345.092773
19351.075957	16857.128500	508.984375	2453.853760
19351.075957	16857.128500	507.732422	2575.853760
19351.075957	16857.128500	506.480469	2694.156494
19351.075957	16857.128500	505.228516	2651.021973
19351.075957	16857.128500	503.976563	3051.042236
19351.075957	16857.128500	502.723633	2876.664063
19351.075957	16857.128500	501.470703	3012.049316
19351.075957	16857.128500	500.217773	3169.949463
19351.075957	16857.128500	498.963867	3055.879639
19351.075957	16857.128500	497.709961	3288.821045
19351.075957	16857.128500	496.456055	2996.726074
19351.075957	16857.128500	495.202148	3248.359863
19351.075957	16857.128500	493.947266	3434.317627
19351.075957	16857.128500	492.692383	3777.562744
19351.075957	16857.128500	491.437500	3796.561523
19351.075957	16857.128500	490.181641	4019.669434
19351.075957	16857.128500	488.926758	4034.755615
19351.075957	16857.128500	487.670898	4059.145996
19351.075957	16857.128500	486.414063	4025.433105
19351.075957	16857.128500	485.158203	4283.516113
19351.075957	16857.128500	483.901367	4391.714844
19351.075957	16857.128500	482.644531	4744.746582
19351.075957	16857.128500	481.386719	4826.328613
19351.075957	16857.128500	480.128906	5253.571777
19351.075957	16857.128500	478.871094	5252.377930
19351.075957	16857.128500	477.613281	5422.886230
19351.075957	16857.128500	476.355469	5148.386719
19351.075957	16857.128500	475.096680	5275.382813
19351.075957	16857.128500	473.837891	5228.341797
19351.075957	16857.128500	472.578125	5399.486328
19351.075957	16857.128500	471.319336	5208.032227
19351.075957	16857.128500	470.059570	5551.967773
19351.075957	16857.128500	468.799805	5546.421875
19351.075957	16857.128500	467.539063	5631.890625
19351.075957	16857.128500	466.278320	5849.295898
19351.075957	16857.128500	465.017578	6289.905762
19351.075957	16857.128500	463.756836	5773.386230
19351.075957	16857.128500	462.495117	6238.888184
19351.075957	16857.128500	461.233398	6023.410156
19351.075957	16857.128500	459.971680	6362.649902
19351.075957	16857.128500	458.709961	6347.180176
19351.075957	16857.128500	457.447266	6962.404785
19351.075957	16857.128500	456.184570	6463.198730
19351.075957	16857.128500	454.921875	6648.521484
19351.075957	16857.128500	453.658203	7136.370117
19351.075957	16857.128500	452.394531	7024.024414
19351.075957	16857.128500	451.130859	7320.148438
19351.075957	16857.128500	449.867188	7241.394043
19351.075957	16857.128500	448.602539	7217.536133
19351.075957	16857.128500	447.337891	7482.731445
19351.075957	16857.128500	446.073242	7367.601563
19351.075957	16857.128500	444.807617	7483.750977
19351.075957	16857.128500	443.542969	7494.683594
19351.075957	16857.128500	442.276367	7738.513184
19351.075957	16857.128500	441.010742	7509.301270
19351.075957	16857.128500	439.744141	7622.430176
19351.075957	16857.128500	438.478516	7409.331543
19351.075957	16857.128500	437.210938	7829.700195
19351.075957	16857.128500	435.944336	7916.328125
19351.075957	16857.128500	434.676758	7580.325684
19351.075957	16857.128500	433.409180	7335.674316
19351.075957	16857.128500	432.141602	7473.392578
19351.075957	16857.128500	430.873047	7574.176758
19351.075957	16857.128500	429.604492	7489.711426
19351.075957	16857.128500	428.335938	7948.333984
19351.075957	16857.128500	427.067383	7656.424805
19351.075957	16857.128500	425.797852	7848.044434
19351.075957	16857.128500	424.528320	7439.450195
19351.075957	16857.128500	423.258789	8349.138672
19351.075957	16857.128500	421.988281	7936.470215
19351.075957	16857.128500	420.717773	8165.858398
19351.075957	16857.128500	419.447266	8002.482422
19351.075957	16857.128500	418.175781	8010.739258
19351.075957	16857.128500	416.905273	7487.649902
19351.075957	16857.128500	415.633789	8140.187988
19351.075957	16857.128500	414.362305	8039.307617
19351.075957	16857.128500	413.089844	8157.613770
19351.075957	16857.128500	411.817383	7942.375977
19351.075957	16857.128500	410.544922	7907.333008
19351.075957	16857.128500	409.272461	8216.676758
19351.075957	16857.128500	407.999023	7915.309570
19351.075957	16857.128500	406.725586	7747.631348
19351.075957	16857.128500	405.452148	8241.392578
19351.075957	16857.128500	404.177734	8139.238770
19351.075957	16857.128500	402.903320	7819.744141
19351.075957	16857.128500	401.628906	7996.851074
19351.075957	16857.128500	400.354492	8098.407227
19351.075957	16857.128500	399.079102	8380.607422
19351.075957	16857.128500	397.803711	8043.194824
19351.075957	16857.128500	396.528320	7934.295410
19351.075957	16857.128500	395.251953	7935.655273
19351.075957	16857.128500	393.976563	7986.416504
19351.075957	16857.128500	392.700195	8056.841309
19351.075957	16857.128500	391.422852	8071.287109
19351.075957	16857.128500	390.145508	8037.099121
19351.075957	16857.128500	388.869141	8079.438965
19351.075957	16857.128500	387.590820	7936.574219
19351.075957	16857.128500	386.313477	7950.956543
19351.075957	16857.128500	385.035156	7969.514648
19351.075957	16857.128500	383.756836	7948.052246
19351.075957	16857.128500	382.478516	7684.209961
19351.075957	16857.128500	381.199219	7845.214355
19351.075957	16857.128500	379.919922	7498.919922
19351.075957	16857.128500	378.640625	7529.364746
19351.075957	16857.128500	377.360352	7531.880859
19351.075957	16857.128500	376.080078	7466.033691
19351.075957	16857.128500	374.799805	7227.052734
19351.075957	16857.128500	373.519531	7677.770996
19351.075957	16857.128500	372.238281	7059.044434
19351.075957	16857.128500	370.957031	7010.277344
19351.075957	16857.128500	369.675781	6767.708496
19351.075957	16857.128500	368.394531	6826.556641
19351.075957	16857.128500	367.112305	6702.154297
19351.075957	16857.128500	365.830078	6510.104980
19351.075957	16857.128500	364.546875	6580.078613
19351.075957	16857.128500	363.264648	6433.713867
19351.075957	16857.128500	361.981445	6559.857910
19351.075957	16857.128500	360.698242	5970.921387
19351.075957	16857.128500	359.414063	6134.033203
19351.075957	16857.128500	358.129883	6014.111816
19351.075957	16857.128500	356.845703	5759.438965
19351.075957	16857.128500	355.561523	5754.271973
19351.075957	16857.128500	354.276367	6007.178223
19351.075957	16857.128500	352.991211	5859.360352
19351.075957	16857.128500	351.706055	5415.136719
19351.075957	16857.128500	350.420898	5113.384766
19351.075957	16857.128500	349.134766	5489.244629
19351.075957	16857.128500	347.848633	4866.082031
19351.075957	16857.128500	346.561523	4940.010742
19351.075957	16857.128500	345.275391	4450.142090
19351.075957	16857.128500	343.988281	4442.800293
19351.075957	16857.128500	342.700195	4166.795898
19351.075957	16857.128500	341.413086	4230.650879
19351.075957	16857.128500	340.125000	4114.882324
19351.075957	16857.128500	338.836914	3744.803711
19351.075957	16857.128500	337.548828	3383.100830
19351.075957	16857.128500	336.259766	3470.671387
19351.075957	16857.128500	334.970703	3071.587402
19351.075957	16857.128500	333.681641	3081.268311
19351.075957	16857.128500	332.391602	2795.077881
19351.075957	16857.128500	331.101563	2586.942383
19351.075957	16857.128500	329.811523	2112.107910
19351.075957	16857.128500	328.521484	2084.670898
19351.075957	16857.128500	327.230469	1760.456055
19351.075957	16857.128500	325.939453	1722.512573
19351.075957	16857.128500	324.648438	1664.469849
19351.075957	16857.128500	323.356445	1128.699341
19351.075957	16857.128500	322.064453	1449.641968
19351.075957	16857.128500	320.772461	1298.143311
19351.075957	16857.128500	319.480469	1229.040283
19351.075957	16857.128500	318.187500	1236.019775
19351.075957	16857.128500	316.894531	719.099365
19351.075957	16857.128500	315.601563	645.447998
19351.075957	16857.128500	314.307617	216.003677
19351.075957	16857.128500	313.013672	421.507813
19351.075957	16857.128500	311.719727	191.105515
19351.075957	16857.128500	310.425781	140.483597
19351.075957	16857.128500	309.130859	-248.960678
19351.075957	16857.128500	307.835938	-34.545429
19351.075957	16857.128500	306.541016	-217.210159
19351.075957	16857.128500	305.245117	-184.282394
19351.075957	16857.128500	303.949219	-222.387695
19351.075957	16857.128500	302.653320	-70.651131
19351.075957	16857.128500	301.356445	206.270142
19351.075957	16857.128500	300.060547	714.354492
19351.075957	16857.128500	298.763672	228.054214
