#X		#Y		#Wave		#Intensity
19341.271543	16894.110000	2000.043945	-38.836315
19341.271543	16894.110000	1999.080078	-140.464020
19341.271543	16894.110000	1998.116211	246.064758
19341.271543	16894.110000	1997.151367	-297.343231
19341.271543	16894.110000	1996.186523	-169.589035
19341.271543	16894.110000	1995.222656	-260.392242
19341.271543	16894.110000	1994.256836	260.179382
19341.271543	16894.110000	1993.291992	-71.781601
19341.271543	16894.110000	1992.327148	326.305145
19341.271543	16894.110000	1991.361328	352.525696
19341.271543	16894.110000	1990.395508	393.156342
19341.271543	16894.110000	1989.429688	420.981873
19341.271543	16894.110000	1988.463867	183.673599
19341.271543	16894.110000	1987.497070	304.748627
19341.271543	16894.110000	1986.531250	544.079834
19341.271543	16894.110000	1985.564453	-30.528973
19341.271543	16894.110000	1984.597656	341.555145
19341.271543	16894.110000	1983.630859	-95.103027
19341.271543	16894.110000	1982.664063	219.318848
19341.271543	16894.110000	1981.696289	-76.981972
19341.271543	16894.110000	1980.728516	256.444580
19341.271543	16894.110000	1979.761719	483.202087
19341.271543	16894.110000	1978.792969	-6.530163
19341.271543	16894.110000	1977.825195	377.617676
19341.271543	16894.110000	1976.857422	665.059998
19341.271543	16894.110000	1975.888672	419.030090
19341.271543	16894.110000	1974.919922	518.283508
19341.271543	16894.110000	1973.951172	-307.948975
19341.271543	16894.110000	1972.982422	-98.124298
19341.271543	16894.110000	1972.013672	350.593445
19341.271543	16894.110000	1971.043945	606.587646
19341.271543	16894.110000	1970.075195	297.680145
19341.271543	16894.110000	1969.105469	587.629639
19341.271543	16894.110000	1968.135742	73.856400
19341.271543	16894.110000	1967.165039	508.687561
19341.271543	16894.110000	1966.195313	406.094604
19341.271543	16894.110000	1965.224609	128.478256
19341.271543	16894.110000	1964.253906	242.313766
19341.271543	16894.110000	1963.283203	67.849548
19341.271543	16894.110000	1962.312500	639.142456
19341.271543	16894.110000	1961.341797	464.307800
19341.271543	16894.110000	1960.370117	555.135132
19341.271543	16894.110000	1959.399414	601.460754
19341.271543	16894.110000	1958.427734	-23.908056
19341.271543	16894.110000	1957.455078	194.369431
19341.271543	16894.110000	1956.483398	449.286438
19341.271543	16894.110000	1955.511719	726.084534
19341.271543	16894.110000	1954.539063	39.117863
19341.271543	16894.110000	1953.566406	141.139343
19341.271543	16894.110000	1952.593750	-39.576851
19341.271543	16894.110000	1951.621094	452.758942
19341.271543	16894.110000	1950.647461	-54.859589
19341.271543	16894.110000	1949.674805	107.983673
19341.271543	16894.110000	1948.701172	160.181503
19341.271543	16894.110000	1947.727539	472.447845
19341.271543	16894.110000	1946.753906	315.716187
19341.271543	16894.110000	1945.780273	-216.509644
19341.271543	16894.110000	1944.805664	-76.385857
19341.271543	16894.110000	1943.831055	-257.753235
19341.271543	16894.110000	1942.856445	443.754913
19341.271543	16894.110000	1941.881836	205.774673
19341.271543	16894.110000	1940.907227	387.016266
19341.271543	16894.110000	1939.932617	41.107750
19341.271543	16894.110000	1938.957031	-98.881691
19341.271543	16894.110000	1937.981445	356.503937
19341.271543	16894.110000	1937.005859	189.400192
19341.271543	16894.110000	1936.030273	159.446457
19341.271543	16894.110000	1935.054688	384.110107
19341.271543	16894.110000	1934.078125	469.072723
19341.271543	16894.110000	1933.101563	367.895660
19341.271543	16894.110000	1932.125000	149.210068
19341.271543	16894.110000	1931.148438	121.408775
19341.271543	16894.110000	1930.171875	-70.361649
19341.271543	16894.110000	1929.194336	452.157715
19341.271543	16894.110000	1928.217773	52.396252
19341.271543	16894.110000	1927.240234	276.267975
19341.271543	16894.110000	1926.262695	15.943501
19341.271543	16894.110000	1925.284180	220.087387
19341.271543	16894.110000	1924.306641	-272.402130
19341.271543	16894.110000	1923.328125	144.196838
19341.271543	16894.110000	1922.350586	663.180969
19341.271543	16894.110000	1921.372070	297.760162
19341.271543	16894.110000	1920.392578	113.150230
19341.271543	16894.110000	1919.414063	333.851135
19341.271543	16894.110000	1918.434570	305.447174
19341.271543	16894.110000	1917.456055	-69.573425
19341.271543	16894.110000	1916.476563	216.806870
19341.271543	16894.110000	1915.497070	407.891174
19341.271543	16894.110000	1914.516602	281.764648
19341.271543	16894.110000	1913.537109	562.923340
19341.271543	16894.110000	1912.556641	-94.826645
19341.271543	16894.110000	1911.576172	-45.373756
19341.271543	16894.110000	1910.595703	-37.416649
19341.271543	16894.110000	1909.615234	-443.786865
19341.271543	16894.110000	1908.633789	144.080643
19341.271543	16894.110000	1907.653320	134.838272
19341.271543	16894.110000	1906.671875	378.881134
19341.271543	16894.110000	1905.690430	26.172211
19341.271543	16894.110000	1904.708984	318.766449
19341.271543	16894.110000	1903.727539	153.570236
19341.271543	16894.110000	1902.745117	-439.941803
19341.271543	16894.110000	1901.762695	-210.791031
19341.271543	16894.110000	1900.780273	40.135803
19341.271543	16894.110000	1899.797852	-105.555847
19341.271543	16894.110000	1898.815430	50.340965
19341.271543	16894.110000	1897.832031	60.257473
19341.271543	16894.110000	1896.849609	-51.430965
19341.271543	16894.110000	1895.866211	-289.494690
19341.271543	16894.110000	1894.882813	242.861221
19341.271543	16894.110000	1893.898438	-77.846336
19341.271543	16894.110000	1892.915039	145.679977
19341.271543	16894.110000	1891.930664	-104.525955
19341.271543	16894.110000	1890.947266	-216.272156
19341.271543	16894.110000	1889.962891	-87.638252
19341.271543	16894.110000	1888.977539	-53.753746
19341.271543	16894.110000	1887.993164	196.069565
19341.271543	16894.110000	1887.007813	30.829824
19341.271543	16894.110000	1886.023438	273.187988
19341.271543	16894.110000	1885.038086	398.989685
19341.271543	16894.110000	1884.051758	260.366882
19341.271543	16894.110000	1883.066406	158.113586
19341.271543	16894.110000	1882.081055	-77.476822
19341.271543	16894.110000	1881.094727	-288.779053
19341.271543	16894.110000	1880.108398	592.892578
19341.271543	16894.110000	1879.122070	-187.931519
19341.271543	16894.110000	1878.135742	-207.857529
19341.271543	16894.110000	1877.148438	-147.885513
19341.271543	16894.110000	1876.162109	282.501587
19341.271543	16894.110000	1875.174805	124.359116
19341.271543	16894.110000	1874.187500	-133.021606
19341.271543	16894.110000	1873.199219	-34.578403
19341.271543	16894.110000	1872.211914	-335.489227
19341.271543	16894.110000	1871.223633	-181.507782
19341.271543	16894.110000	1870.236328	-102.628242
19341.271543	16894.110000	1869.248047	520.309509
19341.271543	16894.110000	1868.258789	4.120711
19341.271543	16894.110000	1867.270508	0.565376
19341.271543	16894.110000	1866.282227	328.084290
19341.271543	16894.110000	1865.292969	-38.128143
19341.271543	16894.110000	1864.303711	-155.401321
19341.271543	16894.110000	1863.314453	53.423840
19341.271543	16894.110000	1862.324219	532.615784
19341.271543	16894.110000	1861.334961	219.517181
19341.271543	16894.110000	1860.344727	319.326050
19341.271543	16894.110000	1859.354492	551.791321
19341.271543	16894.110000	1858.364258	23.884605
19341.271543	16894.110000	1857.374023	393.721924
19341.271543	16894.110000	1856.383789	-148.572815
19341.271543	16894.110000	1855.392578	-145.606689
19341.271543	16894.110000	1854.401367	373.365631
19341.271543	16894.110000	1853.410156	-532.906982
19341.271543	16894.110000	1852.418945	178.652527
19341.271543	16894.110000	1851.426758	-165.805496
19341.271543	16894.110000	1850.435547	53.672470
19341.271543	16894.110000	1849.443359	689.806335
19341.271543	16894.110000	1848.451172	39.287071
19341.271543	16894.110000	1847.458984	325.805023
19341.271543	16894.110000	1846.466797	590.464539
19341.271543	16894.110000	1845.473633	231.403778
19341.271543	16894.110000	1844.480469	555.993835
19341.271543	16894.110000	1843.487305	196.905518
19341.271543	16894.110000	1842.494141	177.133698
19341.271543	16894.110000	1841.500977	27.372618
19341.271543	16894.110000	1840.506836	-134.443054
19341.271543	16894.110000	1839.513672	-29.358000
19341.271543	16894.110000	1838.519531	-1.337745
19341.271543	16894.110000	1837.525391	89.079231
19341.271543	16894.110000	1836.530273	49.589012
19341.271543	16894.110000	1835.536133	-199.043793
19341.271543	16894.110000	1834.541016	-226.640839
19341.271543	16894.110000	1833.545898	-30.931656
19341.271543	16894.110000	1832.550781	544.063171
19341.271543	16894.110000	1831.555664	547.264465
19341.271543	16894.110000	1830.560547	245.471893
19341.271543	16894.110000	1829.564453	42.107544
19341.271543	16894.110000	1828.568359	431.469757
19341.271543	16894.110000	1827.572266	-76.778465
19341.271543	16894.110000	1826.576172	216.295502
19341.271543	16894.110000	1825.580078	-195.992981
19341.271543	16894.110000	1824.583008	-272.503571
19341.271543	16894.110000	1823.585938	231.109497
19341.271543	16894.110000	1822.588867	156.724167
19341.271543	16894.110000	1821.591797	547.206665
19341.271543	16894.110000	1820.594727	208.985748
19341.271543	16894.110000	1819.596680	261.291077
19341.271543	16894.110000	1818.599609	-91.343506
19341.271543	16894.110000	1817.601563	-297.867920
19341.271543	16894.110000	1816.603516	-157.244186
19341.271543	16894.110000	1815.604492	483.542175
19341.271543	16894.110000	1814.606445	403.533752
19341.271543	16894.110000	1813.607422	244.467285
19341.271543	16894.110000	1812.608398	-414.704651
19341.271543	16894.110000	1811.609375	442.856934
19341.271543	16894.110000	1810.610352	173.498962
19341.271543	16894.110000	1809.610352	78.680557
19341.271543	16894.110000	1808.611328	213.289551
19341.271543	16894.110000	1807.611328	813.838684
19341.271543	16894.110000	1806.611328	771.164246
19341.271543	16894.110000	1805.610352	207.486557
19341.271543	16894.110000	1804.610352	66.745361
19341.271543	16894.110000	1803.609375	924.327515
19341.271543	16894.110000	1802.608398	114.593132
19341.271543	16894.110000	1801.607422	431.990875
19341.271543	16894.110000	1800.606445	632.164612
19341.271543	16894.110000	1799.605469	540.957458
19341.271543	16894.110000	1798.603516	137.057922
19341.271543	16894.110000	1797.601563	425.065186
19341.271543	16894.110000	1796.599609	464.752136
19341.271543	16894.110000	1795.597656	432.743225
19341.271543	16894.110000	1794.595703	591.373901
19341.271543	16894.110000	1793.592773	44.148457
19341.271543	16894.110000	1792.589844	243.045776
19341.271543	16894.110000	1791.587891	317.810760
19341.271543	16894.110000	1790.583984	223.245850
19341.271543	16894.110000	1789.581055	64.262619
19341.271543	16894.110000	1788.577148	745.959351
19341.271543	16894.110000	1787.574219	508.080963
19341.271543	16894.110000	1786.570313	398.725311
19341.271543	16894.110000	1785.566406	182.153458
19341.271543	16894.110000	1784.561523	484.353149
19341.271543	16894.110000	1783.557617	476.968964
19341.271543	16894.110000	1782.552734	319.566437
19341.271543	16894.110000	1781.547852	131.165100
19341.271543	16894.110000	1780.542969	522.960083
19341.271543	16894.110000	1779.538086	-5.697352
19341.271543	16894.110000	1778.532227	193.140900
19341.271543	16894.110000	1777.527344	384.632813
19341.271543	16894.110000	1776.521484	347.783905
19341.271543	16894.110000	1775.515625	144.493530
19341.271543	16894.110000	1774.508789	2.904547
19341.271543	16894.110000	1773.502930	212.722992
19341.271543	16894.110000	1772.496094	486.433868
19341.271543	16894.110000	1771.489258	391.913696
19341.271543	16894.110000	1770.482422	510.920319
19341.271543	16894.110000	1769.475586	394.793549
19341.271543	16894.110000	1768.467773	525.328003
19341.271543	16894.110000	1767.460938	610.602478
19341.271543	16894.110000	1766.453125	792.948242
19341.271543	16894.110000	1765.445313	619.375488
19341.271543	16894.110000	1764.437500	339.036713
19341.271543	16894.110000	1763.428711	248.296265
19341.271543	16894.110000	1762.420898	79.242241
19341.271543	16894.110000	1761.412109	296.349152
19341.271543	16894.110000	1760.403320	536.921021
19341.271543	16894.110000	1759.393555	296.419342
19341.271543	16894.110000	1758.384766	439.523285
19341.271543	16894.110000	1757.375000	343.284454
19341.271543	16894.110000	1756.366211	242.210678
19341.271543	16894.110000	1755.356445	167.064072
19341.271543	16894.110000	1754.345703	217.223480
19341.271543	16894.110000	1753.335938	279.060852
19341.271543	16894.110000	1752.325195	350.189148
19341.271543	16894.110000	1751.315430	236.683990
19341.271543	16894.110000	1750.304688	186.923477
19341.271543	16894.110000	1749.292969	-156.119629
19341.271543	16894.110000	1748.282227	384.865479
19341.271543	16894.110000	1747.270508	-423.919586
19341.271543	16894.110000	1746.259766	173.340515
19341.271543	16894.110000	1745.248047	35.538326
19341.271543	16894.110000	1744.235352	107.857643
19341.271543	16894.110000	1743.223633	-233.236984
19341.271543	16894.110000	1742.211914	372.425476
19341.271543	16894.110000	1741.199219	137.363281
19341.271543	16894.110000	1740.186523	112.305328
19341.271543	16894.110000	1739.173828	37.568714
19341.271543	16894.110000	1738.160156	-126.926300
19341.271543	16894.110000	1737.147461	-331.584625
19341.271543	16894.110000	1736.133789	105.152199
19341.271543	16894.110000	1735.120117	-243.568176
19341.271543	16894.110000	1734.106445	-222.174683
19341.271543	16894.110000	1733.091797	-33.583450
19341.271543	16894.110000	1732.078125	-172.741089
19341.271543	16894.110000	1731.063477	100.331673
19341.271543	16894.110000	1730.048828	85.787064
19341.271543	16894.110000	1729.034180	207.723648
19341.271543	16894.110000	1728.019531	75.177467
19341.271543	16894.110000	1727.003906	-248.143204
19341.271543	16894.110000	1725.988281	-166.612946
19341.271543	16894.110000	1724.972656	-167.601883
19341.271543	16894.110000	1723.957031	-262.831696
19341.271543	16894.110000	1722.941406	-207.586487
19341.271543	16894.110000	1721.924805	-77.228806
19341.271543	16894.110000	1720.909180	-135.155624
19341.271543	16894.110000	1719.892578	-33.311825
19341.271543	16894.110000	1718.875977	-176.090576
19341.271543	16894.110000	1717.858398	-90.971939
19341.271543	16894.110000	1716.841797	-52.988674
19341.271543	16894.110000	1715.824219	-254.770020
19341.271543	16894.110000	1714.806641	29.627262
19341.271543	16894.110000	1713.789063	236.302017
19341.271543	16894.110000	1712.770508	38.933941
19341.271543	16894.110000	1711.752930	22.292147
19341.271543	16894.110000	1710.734375	-210.382416
19341.271543	16894.110000	1709.715820	26.240799
19341.271543	16894.110000	1708.697266	-204.219742
19341.271543	16894.110000	1707.678711	536.424744
19341.271543	16894.110000	1706.659180	279.943329
19341.271543	16894.110000	1705.640625	159.461868
19341.271543	16894.110000	1704.621094	-272.881348
19341.271543	16894.110000	1703.600586	49.567169
19341.271543	16894.110000	1702.581055	767.847900
19341.271543	16894.110000	1701.561523	-20.797586
19341.271543	16894.110000	1700.541016	120.747070
19341.271543	16894.110000	1699.520508	208.274445
19341.271543	16894.110000	1698.500000	-69.624191
19341.271543	16894.110000	1697.478516	-235.137421
19341.271543	16894.110000	1696.458008	-208.727554
19341.271543	16894.110000	1695.436523	388.605652
19341.271543	16894.110000	1694.415039	318.760742
19341.271543	16894.110000	1693.393555	122.532181
19341.271543	16894.110000	1692.372070	-62.015991
19341.271543	16894.110000	1691.349609	363.767090
19341.271543	16894.110000	1690.327148	684.088989
19341.271543	16894.110000	1689.304688	239.810562
19341.271543	16894.110000	1688.282227	405.620941
19341.271543	16894.110000	1687.259766	424.080292
19341.271543	16894.110000	1686.236328	552.245483
19341.271543	16894.110000	1685.213867	757.382507
19341.271543	16894.110000	1684.190430	546.658142
19341.271543	16894.110000	1683.166016	833.273132
19341.271543	16894.110000	1682.142578	890.939148
19341.271543	16894.110000	1681.119141	593.748169
19341.271543	16894.110000	1680.094727	611.619995
19341.271543	16894.110000	1679.070313	1077.380371
19341.271543	16894.110000	1678.045898	1244.315918
19341.271543	16894.110000	1677.020508	832.725403
19341.271543	16894.110000	1675.996094	1092.794067
19341.271543	16894.110000	1674.970703	1280.417969
19341.271543	16894.110000	1673.945313	943.474121
19341.271543	16894.110000	1672.919922	1105.311646
19341.271543	16894.110000	1671.893555	707.826843
19341.271543	16894.110000	1670.868164	906.814697
19341.271543	16894.110000	1669.841797	1364.190674
19341.271543	16894.110000	1668.815430	1423.148071
19341.271543	16894.110000	1667.789063	1328.376221
19341.271543	16894.110000	1666.761719	1459.376709
19341.271543	16894.110000	1665.735352	1217.929199
19341.271543	16894.110000	1664.708008	1683.878540
19341.271543	16894.110000	1663.680664	1661.066772
19341.271543	16894.110000	1662.653320	1477.741943
19341.271543	16894.110000	1661.625000	1450.245239
19341.271543	16894.110000	1660.597656	1771.489502
19341.271543	16894.110000	1659.569336	2083.268555
19341.271543	16894.110000	1658.541016	1462.924683
19341.271543	16894.110000	1657.512695	1762.967651
19341.271543	16894.110000	1656.483398	1997.804810
19341.271543	16894.110000	1655.455078	1921.287109
19341.271543	16894.110000	1654.425781	1879.598633
19341.271543	16894.110000	1653.396484	2065.448975
19341.271543	16894.110000	1652.366211	2167.628418
19341.271543	16894.110000	1651.336914	2415.979980
19341.271543	16894.110000	1650.306641	2156.016357
19341.271543	16894.110000	1649.276367	1731.415405
19341.271543	16894.110000	1648.246094	1868.316040
19341.271543	16894.110000	1647.215820	2624.376465
19341.271543	16894.110000	1646.185547	2102.516357
19341.271543	16894.110000	1645.154297	2770.115967
19341.271543	16894.110000	1644.123047	2922.896973
19341.271543	16894.110000	1643.091797	3124.282959
19341.271543	16894.110000	1642.060547	2741.725098
19341.271543	16894.110000	1641.028320	2885.146484
19341.271543	16894.110000	1639.997070	2799.241943
19341.271543	16894.110000	1638.964844	2914.816895
19341.271543	16894.110000	1637.931641	2470.083984
19341.271543	16894.110000	1636.899414	2752.359131
19341.271543	16894.110000	1635.867188	2752.194580
19341.271543	16894.110000	1634.833984	2682.622803
19341.271543	16894.110000	1633.800781	2511.306641
19341.271543	16894.110000	1632.767578	2726.329834
19341.271543	16894.110000	1631.734375	2499.608643
19341.271543	16894.110000	1630.700195	3045.195557
19341.271543	16894.110000	1629.666016	2781.553711
19341.271543	16894.110000	1628.631836	2869.325684
19341.271543	16894.110000	1627.597656	2873.907959
19341.271543	16894.110000	1626.563477	2862.349609
19341.271543	16894.110000	1625.528320	3047.140625
19341.271543	16894.110000	1624.493164	2827.771484
19341.271543	16894.110000	1623.458008	2721.654297
19341.271543	16894.110000	1622.422852	3144.244385
19341.271543	16894.110000	1621.387695	3093.574463
19341.271543	16894.110000	1620.351563	3409.850342
19341.271543	16894.110000	1619.315430	3366.147705
19341.271543	16894.110000	1618.279297	2948.835693
19341.271543	16894.110000	1617.243164	2829.233154
19341.271543	16894.110000	1616.207031	2912.626953
19341.271543	16894.110000	1615.169922	3072.101318
19341.271543	16894.110000	1614.132813	2752.169922
19341.271543	16894.110000	1613.095703	2999.291504
19341.271543	16894.110000	1612.058594	2953.776611
19341.271543	16894.110000	1611.020508	3083.393799
19341.271543	16894.110000	1609.983398	3629.877930
19341.271543	16894.110000	1608.945313	3685.755615
19341.271543	16894.110000	1607.907227	3184.567383
19341.271543	16894.110000	1606.868164	3406.354980
19341.271543	16894.110000	1605.830078	3080.443115
19341.271543	16894.110000	1604.791016	3286.202637
19341.271543	16894.110000	1603.751953	3588.567871
19341.271543	16894.110000	1602.712891	3414.818604
19341.271543	16894.110000	1601.673828	3052.659668
19341.271543	16894.110000	1600.633789	3152.804932
19341.271543	16894.110000	1599.594727	3271.394775
19341.271543	16894.110000	1598.554688	2769.527344
19341.271543	16894.110000	1597.513672	3246.728271
19341.271543	16894.110000	1596.473633	3356.289307
19341.271543	16894.110000	1595.433594	2905.491211
19341.271543	16894.110000	1594.392578	2666.208740
19341.271543	16894.110000	1593.351563	2769.196045
19341.271543	16894.110000	1592.310547	2798.787109
19341.271543	16894.110000	1591.268555	2759.606689
19341.271543	16894.110000	1590.227539	3154.207520
19341.271543	16894.110000	1589.185547	2855.943359
19341.271543	16894.110000	1588.143555	2631.298096
19341.271543	16894.110000	1587.100586	3003.053467
19341.271543	16894.110000	1586.058594	3012.534668
19341.271543	16894.110000	1585.015625	2838.729004
19341.271543	16894.110000	1583.972656	2942.413086
19341.271543	16894.110000	1582.929688	2736.834717
19341.271543	16894.110000	1581.886719	3211.851074
19341.271543	16894.110000	1580.843750	3205.800049
19341.271543	16894.110000	1579.799805	3593.745361
19341.271543	16894.110000	1578.755859	3026.912109
19341.271543	16894.110000	1577.711914	2902.219971
19341.271543	16894.110000	1576.666992	3313.240723
19341.271543	16894.110000	1575.623047	2673.941650
19341.271543	16894.110000	1574.578125	3089.675537
19341.271543	16894.110000	1573.533203	3121.104736
19341.271543	16894.110000	1572.488281	3152.652588
19341.271543	16894.110000	1571.443359	2973.972900
19341.271543	16894.110000	1570.397461	3147.525391
19341.271543	16894.110000	1569.351563	3145.166748
19341.271543	16894.110000	1568.305664	3072.105469
19341.271543	16894.110000	1567.259766	2482.886230
19341.271543	16894.110000	1566.213867	2645.537842
19341.271543	16894.110000	1565.166992	2737.461914
19341.271543	16894.110000	1564.120117	2998.463623
19341.271543	16894.110000	1563.073242	2613.462646
19341.271543	16894.110000	1562.026367	2543.733887
19341.271543	16894.110000	1560.978516	2451.354736
19341.271543	16894.110000	1559.930664	2461.833252
19341.271543	16894.110000	1558.883789	2392.629883
19341.271543	16894.110000	1557.834961	2581.302979
19341.271543	16894.110000	1556.787109	2384.718994
19341.271543	16894.110000	1555.739258	2427.740967
19341.271543	16894.110000	1554.690430	2124.455078
19341.271543	16894.110000	1553.641602	2580.290039
19341.271543	16894.110000	1552.592773	2040.466187
19341.271543	16894.110000	1551.542969	1926.987915
19341.271543	16894.110000	1550.494141	1943.538086
19341.271543	16894.110000	1549.444336	2301.796631
19341.271543	16894.110000	1548.394531	1995.323975
19341.271543	16894.110000	1547.344727	2301.422363
19341.271543	16894.110000	1546.293945	2113.745850
19341.271543	16894.110000	1545.244141	2592.963623
19341.271543	16894.110000	1544.193359	2703.647705
19341.271543	16894.110000	1543.142578	2493.787354
19341.271543	16894.110000	1542.090820	2329.662598
19341.271543	16894.110000	1541.040039	2640.932861
19341.271543	16894.110000	1539.988281	2240.812256
19341.271543	16894.110000	1538.936523	2438.711914
19341.271543	16894.110000	1537.884766	2527.655762
19341.271543	16894.110000	1536.833008	2300.989502
19341.271543	16894.110000	1535.780273	2254.024414
19341.271543	16894.110000	1534.727539	2143.686035
19341.271543	16894.110000	1533.674805	2449.041992
19341.271543	16894.110000	1532.622070	2566.073975
19341.271543	16894.110000	1531.569336	2497.157959
19341.271543	16894.110000	1530.515625	2430.731934
19341.271543	16894.110000	1529.461914	2437.118164
19341.271543	16894.110000	1528.408203	2278.130859
19341.271543	16894.110000	1527.354492	2568.392090
19341.271543	16894.110000	1526.299805	2135.507568
19341.271543	16894.110000	1525.246094	2337.679199
19341.271543	16894.110000	1524.191406	1989.266235
19341.271543	16894.110000	1523.136719	1500.711914
19341.271543	16894.110000	1522.081055	1830.353394
19341.271543	16894.110000	1521.026367	2126.093506
19341.271543	16894.110000	1519.970703	1889.774048
19341.271543	16894.110000	1518.915039	1637.903320
19341.271543	16894.110000	1517.859375	1610.435547
19341.271543	16894.110000	1516.802734	1958.868896
19341.271543	16894.110000	1515.747070	2017.748901
19341.271543	16894.110000	1514.690430	1427.559570
19341.271543	16894.110000	1513.633789	2081.796631
19341.271543	16894.110000	1512.577148	1944.519775
19341.271543	16894.110000	1511.519531	1854.993530
19341.271543	16894.110000	1510.461914	1702.424072
19341.271543	16894.110000	1509.405273	1938.848389
19341.271543	16894.110000	1508.346680	1985.599854
19341.271543	16894.110000	1507.289063	2418.850586
19341.271543	16894.110000	1506.231445	1964.502563
19341.271543	16894.110000	1505.172852	2106.724121
19341.271543	16894.110000	1504.114258	2023.333374
19341.271543	16894.110000	1503.055664	1619.658813
19341.271543	16894.110000	1501.996094	1981.447632
19341.271543	16894.110000	1500.937500	1734.079102
19341.271543	16894.110000	1499.877930	1868.296753
19341.271543	16894.110000	1498.818359	1195.214355
19341.271543	16894.110000	1497.757813	1039.036621
19341.271543	16894.110000	1496.698242	1428.762085
19341.271543	16894.110000	1495.637695	1212.194702
19341.271543	16894.110000	1494.577148	761.552673
19341.271543	16894.110000	1493.516602	577.207458
19341.271543	16894.110000	1492.456055	683.776917
19341.271543	16894.110000	1491.394531	720.717102
19341.271543	16894.110000	1490.333008	1149.709961
19341.271543	16894.110000	1489.271484	329.193634
19341.271543	16894.110000	1488.209961	898.121582
19341.271543	16894.110000	1487.148438	249.490372
19341.271543	16894.110000	1486.085938	505.913269
19341.271543	16894.110000	1485.023438	400.266571
19341.271543	16894.110000	1483.960938	373.620880
19341.271543	16894.110000	1482.898438	385.457092
19341.271543	16894.110000	1481.834961	406.529877
19341.271543	16894.110000	1480.772461	-100.403320
19341.271543	16894.110000	1479.708984	-260.798096
19341.271543	16894.110000	1478.644531	98.198059
19341.271543	16894.110000	1477.581055	589.778687
19341.271543	16894.110000	1476.517578	-34.762032
19341.271543	16894.110000	1475.453125	102.323929
19341.271543	16894.110000	1474.388672	24.183903
19341.271543	16894.110000	1473.323242	4.691390
19341.271543	16894.110000	1472.258789	478.826752
19341.271543	16894.110000	1471.193359	275.856476
19341.271543	16894.110000	1470.127930	106.891777
19341.271543	16894.110000	1469.062500	182.432785
19341.271543	16894.110000	1467.997070	415.202271
19341.271543	16894.110000	1466.930664	36.149117
19341.271543	16894.110000	1465.865234	-17.229511
19341.271543	16894.110000	1464.798828	368.874481
19341.271543	16894.110000	1463.731445	98.450050
19341.271543	16894.110000	1462.665039	144.617966
19341.271543	16894.110000	1461.597656	314.843842
19341.271543	16894.110000	1460.530273	244.662537
19341.271543	16894.110000	1459.462891	573.507568
19341.271543	16894.110000	1458.395508	155.121094
19341.271543	16894.110000	1457.327148	526.203857
19341.271543	16894.110000	1456.259766	557.998779
19341.271543	16894.110000	1455.191406	350.153809
19341.271543	16894.110000	1454.123047	508.831207
19341.271543	16894.110000	1453.053711	414.826294
19341.271543	16894.110000	1451.985352	330.278656
19341.271543	16894.110000	1450.916016	288.544861
19341.271543	16894.110000	1449.846680	562.508972
19341.271543	16894.110000	1448.776367	124.521713
19341.271543	16894.110000	1447.707031	222.666214
19341.271543	16894.110000	1446.636719	111.195251
19341.271543	16894.110000	1445.566406	9.054387
19341.271543	16894.110000	1444.496094	-144.541824
19341.271543	16894.110000	1443.425781	51.441437
19341.271543	16894.110000	1442.354492	-129.811768
19341.271543	16894.110000	1441.283203	54.865810
19341.271543	16894.110000	1440.211914	134.540237
19341.271543	16894.110000	1439.140625	64.816566
19341.271543	16894.110000	1438.069336	-203.586838
19341.271543	16894.110000	1436.997070	-107.316978
19341.271543	16894.110000	1435.924805	270.565674
19341.271543	16894.110000	1434.852539	79.861465
19341.271543	16894.110000	1433.780273	81.015221
19341.271543	16894.110000	1432.707031	-372.037231
19341.271543	16894.110000	1431.633789	-108.919792
19341.271543	16894.110000	1430.560547	-327.547028
19341.271543	16894.110000	1429.487305	-450.220306
19341.271543	16894.110000	1428.413086	-80.651398
19341.271543	16894.110000	1427.339844	-382.652527
19341.271543	16894.110000	1426.265625	-79.955223
19341.271543	16894.110000	1425.191406	-475.669128
19341.271543	16894.110000	1424.116211	29.272100
19341.271543	16894.110000	1423.041992	199.605225
19341.271543	16894.110000	1421.966797	192.510529
19341.271543	16894.110000	1420.891602	262.076691
19341.271543	16894.110000	1419.816406	-21.263411
19341.271543	16894.110000	1418.740234	106.651253
19341.271543	16894.110000	1417.665039	369.777954
19341.271543	16894.110000	1416.588867	114.216995
19341.271543	16894.110000	1415.512695	211.782410
19341.271543	16894.110000	1414.435547	-66.293663
19341.271543	16894.110000	1413.359375	400.323212
19341.271543	16894.110000	1412.282227	449.777893
19341.271543	16894.110000	1411.205078	666.059326
19341.271543	16894.110000	1410.127930	453.268250
19341.271543	16894.110000	1409.049805	537.020508
19341.271543	16894.110000	1407.972656	937.316406
19341.271543	16894.110000	1406.894531	1083.963013
19341.271543	16894.110000	1405.816406	524.295654
19341.271543	16894.110000	1404.737305	711.614624
19341.271543	16894.110000	1403.659180	1136.899048
19341.271543	16894.110000	1402.580078	943.937927
19341.271543	16894.110000	1401.500977	775.042419
19341.271543	16894.110000	1400.421875	1069.715454
19341.271543	16894.110000	1399.341797	938.891052
19341.271543	16894.110000	1398.262695	1010.050110
19341.271543	16894.110000	1397.182617	1445.479492
19341.271543	16894.110000	1396.102539	1151.220093
19341.271543	16894.110000	1395.021484	1351.292236
19341.271543	16894.110000	1393.941406	1198.522949
19341.271543	16894.110000	1392.860352	1086.521240
19341.271543	16894.110000	1391.779297	946.842224
19341.271543	16894.110000	1390.698242	993.278015
19341.271543	16894.110000	1389.616211	1157.721069
19341.271543	16894.110000	1388.535156	1043.320679
19341.271543	16894.110000	1387.453125	1249.203003
19341.271543	16894.110000	1386.371094	594.133545
19341.271543	16894.110000	1385.288086	627.622559
19341.271543	16894.110000	1384.206055	617.356873
19341.271543	16894.110000	1383.123047	482.776733
19341.271543	16894.110000	1382.040039	812.088013
19341.271543	16894.110000	1380.957031	1096.281738
19341.271543	16894.110000	1379.873047	1088.294922
19341.271543	16894.110000	1378.789063	982.180603
19341.271543	16894.110000	1377.705078	1299.238403
19341.271543	16894.110000	1376.621094	1013.842102
19341.271543	16894.110000	1375.537109	1096.017578
19341.271543	16894.110000	1374.452148	1572.738159
19341.271543	16894.110000	1373.367188	927.770447
19341.271543	16894.110000	1372.282227	571.332153
19341.271543	16894.110000	1371.197266	741.019592
19341.271543	16894.110000	1370.112305	680.522766
19341.271543	16894.110000	1369.026367	779.963928
19341.271543	16894.110000	1367.940430	741.804565
19341.271543	16894.110000	1366.854492	509.140839
19341.271543	16894.110000	1365.767578	1184.275146
19341.271543	16894.110000	1364.681641	857.825500
19341.271543	16894.110000	1363.594727	621.944946
19341.271543	16894.110000	1362.507813	717.437683
19341.271543	16894.110000	1361.419922	973.950500
19341.271543	16894.110000	1360.333008	710.361694
19341.271543	16894.110000	1359.245117	729.407654
19341.271543	16894.110000	1358.157227	899.942627
19341.271543	16894.110000	1357.069336	1095.312988
19341.271543	16894.110000	1355.981445	871.825806
19341.271543	16894.110000	1354.892578	800.484131
19341.271543	16894.110000	1353.803711	1005.876038
19341.271543	16894.110000	1352.714844	772.937622
19341.271543	16894.110000	1351.625000	910.328552
19341.271543	16894.110000	1350.536133	1143.838379
19341.271543	16894.110000	1349.446289	1252.280396
19341.271543	16894.110000	1348.356445	1352.132446
19341.271543	16894.110000	1347.266602	1063.287476
19341.271543	16894.110000	1346.175781	1390.988159
19341.271543	16894.110000	1345.085938	962.108215
19341.271543	16894.110000	1343.995117	1385.044556
19341.271543	16894.110000	1342.903320	1669.362183
19341.271543	16894.110000	1341.812500	1258.180664
19341.271543	16894.110000	1340.720703	1551.459717
19341.271543	16894.110000	1339.629883	1258.302490
19341.271543	16894.110000	1338.538086	1685.919434
19341.271543	16894.110000	1337.445313	1504.102295
19341.271543	16894.110000	1336.353516	1447.738647
19341.271543	16894.110000	1335.260742	1122.621582
19341.271543	16894.110000	1334.167969	1495.711670
19341.271543	16894.110000	1333.075195	1444.663330
19341.271543	16894.110000	1331.981445	1725.049072
19341.271543	16894.110000	1330.888672	1784.684448
19341.271543	16894.110000	1329.794922	1617.203857
19341.271543	16894.110000	1328.701172	1589.449951
19341.271543	16894.110000	1327.606445	1830.065552
19341.271543	16894.110000	1326.512695	1595.447510
19341.271543	16894.110000	1325.417969	2005.024170
19341.271543	16894.110000	1324.323242	1401.914917
19341.271543	16894.110000	1323.227539	2046.228027
19341.271543	16894.110000	1322.132813	1713.394409
19341.271543	16894.110000	1321.037109	1505.741821
19341.271543	16894.110000	1319.941406	2169.228760
19341.271543	16894.110000	1318.845703	1692.436035
19341.271543	16894.110000	1317.750000	1810.471069
19341.271543	16894.110000	1316.653320	1799.723999
19341.271543	16894.110000	1315.556641	1728.801636
19341.271543	16894.110000	1314.459961	2172.675049
19341.271543	16894.110000	1313.363281	1762.521973
19341.271543	16894.110000	1312.265625	1639.975342
19341.271543	16894.110000	1311.167969	1793.574951
19341.271543	16894.110000	1310.070313	1219.475464
19341.271543	16894.110000	1308.972656	947.683044
19341.271543	16894.110000	1307.874023	1897.893066
19341.271543	16894.110000	1306.776367	1715.600342
19341.271543	16894.110000	1305.677734	1386.681885
19341.271543	16894.110000	1304.579102	1352.298218
19341.271543	16894.110000	1303.479492	1329.574829
19341.271543	16894.110000	1302.380859	1711.275391
19341.271543	16894.110000	1301.281250	1451.863525
19341.271543	16894.110000	1300.181641	1573.889893
19341.271543	16894.110000	1299.081055	1512.312622
19341.271543	16894.110000	1297.981445	1639.601440
19341.271543	16894.110000	1296.880859	1712.607422
19341.271543	16894.110000	1295.780273	1700.416260
19341.271543	16894.110000	1294.679688	1442.088623
19341.271543	16894.110000	1293.578125	1640.618042
19341.271543	16894.110000	1292.476563	1291.066528
19341.271543	16894.110000	1291.375000	952.971191
19341.271543	16894.110000	1290.273438	1305.748535
19341.271543	16894.110000	1289.171875	1206.853760
19341.271543	16894.110000	1288.069336	907.807922
19341.271543	16894.110000	1286.966797	902.602417
19341.271543	16894.110000	1285.864258	770.770691
19341.271543	16894.110000	1284.761719	624.189880
19341.271543	16894.110000	1283.658203	922.240784
19341.271543	16894.110000	1282.554688	597.996338
19341.271543	16894.110000	1281.451172	704.314331
19341.271543	16894.110000	1280.347656	806.489868
19341.271543	16894.110000	1279.244141	952.029175
19341.271543	16894.110000	1278.139648	544.574890
19341.271543	16894.110000	1277.035156	714.387268
19341.271543	16894.110000	1275.930664	405.706909
19341.271543	16894.110000	1274.825195	490.149261
19341.271543	16894.110000	1273.720703	492.825989
19341.271543	16894.110000	1272.615234	677.989380
19341.271543	16894.110000	1271.508789	732.251099
19341.271543	16894.110000	1270.403320	726.418030
19341.271543	16894.110000	1269.297852	653.543091
19341.271543	16894.110000	1268.191406	181.332047
19341.271543	16894.110000	1267.084961	421.224426
19341.271543	16894.110000	1265.977539	392.086029
19341.271543	16894.110000	1264.871094	307.918610
19341.271543	16894.110000	1263.763672	334.096130
19341.271543	16894.110000	1262.656250	359.679169
19341.271543	16894.110000	1261.548828	626.134766
19341.271543	16894.110000	1260.440430	479.672791
19341.271543	16894.110000	1259.333008	414.669586
19341.271543	16894.110000	1258.224609	528.518982
19341.271543	16894.110000	1257.115234	409.879608
19341.271543	16894.110000	1256.006836	564.908936
19341.271543	16894.110000	1254.897461	509.411194
19341.271543	16894.110000	1253.788086	408.938904
19341.271543	16894.110000	1252.678711	523.353760
19341.271543	16894.110000	1251.569336	459.712708
19341.271543	16894.110000	1250.458984	688.909363
19341.271543	16894.110000	1249.349609	563.722168
19341.271543	16894.110000	1248.239258	533.635193
19341.271543	16894.110000	1247.127930	420.728912
19341.271543	16894.110000	1246.017578	385.848114
19341.271543	16894.110000	1244.906250	228.094147
19341.271543	16894.110000	1243.794922	598.581970
19341.271543	16894.110000	1242.683594	430.845154
19341.271543	16894.110000	1241.571289	479.535278
19341.271543	16894.110000	1240.459961	277.829071
19341.271543	16894.110000	1239.347656	437.136566
19341.271543	16894.110000	1238.234375	379.268707
19341.271543	16894.110000	1237.122070	90.722656
19341.271543	16894.110000	1236.008789	168.345917
19341.271543	16894.110000	1234.896484	368.053589
19341.271543	16894.110000	1233.782227	69.998558
19341.271543	16894.110000	1232.668945	174.872635
19341.271543	16894.110000	1231.555664	135.917191
19341.271543	16894.110000	1230.441406	364.826752
19341.271543	16894.110000	1229.327148	592.235901
19341.271543	16894.110000	1228.211914	430.655487
19341.271543	16894.110000	1227.097656	147.832870
19341.271543	16894.110000	1225.982422	350.244385
19341.271543	16894.110000	1224.867188	364.786407
19341.271543	16894.110000	1223.751953	-11.343271
19341.271543	16894.110000	1222.635742	-64.735329
19341.271543	16894.110000	1221.520508	-100.200890
19341.271543	16894.110000	1220.404297	134.794891
19341.271543	16894.110000	1219.287109	123.508362
19341.271543	16894.110000	1218.170898	-86.308914
19341.271543	16894.110000	1217.053711	26.084805
19341.271543	16894.110000	1215.936523	71.644714
19341.271543	16894.110000	1214.819336	80.146820
19341.271543	16894.110000	1213.702148	-93.523514
19341.271543	16894.110000	1212.583984	-0.050889
19341.271543	16894.110000	1211.465820	-68.226067
19341.271543	16894.110000	1210.347656	-157.878479
19341.271543	16894.110000	1209.229492	-66.833649
19341.271543	16894.110000	1208.110352	-211.178619
19341.271543	16894.110000	1206.992188	53.448189
19341.271543	16894.110000	1205.873047	37.506790
19341.271543	16894.110000	1204.752930	134.753616
19341.271543	16894.110000	1203.633789	-29.601828
19341.271543	16894.110000	1202.513672	225.404160
19341.271543	16894.110000	1201.393555	-76.206299
19341.271543	16894.110000	1200.273438	114.881989
19341.271543	16894.110000	1199.152344	-211.859665
19341.271543	16894.110000	1198.032227	-271.065094
19341.271543	16894.110000	1196.911133	-31.661510
19341.271543	16894.110000	1195.790039	-92.751579
19341.271543	16894.110000	1194.667969	-39.856304
19341.271543	16894.110000	1193.545898	-42.691475
19341.271543	16894.110000	1192.424805	-25.929718
19341.271543	16894.110000	1191.301758	-86.788231
19341.271543	16894.110000	1190.179688	-126.345055
19341.271543	16894.110000	1189.056641	198.675079
19341.271543	16894.110000	1187.933594	118.037125
19341.271543	16894.110000	1186.810547	245.622803
19341.271543	16894.110000	1185.687500	73.806023
19341.271543	16894.110000	1184.563477	-6.852555
19341.271543	16894.110000	1183.440430	131.870148
19341.271543	16894.110000	1182.316406	-109.079323
19341.271543	16894.110000	1181.191406	297.997040
19341.271543	16894.110000	1180.067383	373.096161
19341.271543	16894.110000	1178.942383	240.254089
19341.271543	16894.110000	1177.817383	878.923889
19341.271543	16894.110000	1176.692383	225.995209
19341.271543	16894.110000	1175.566406	201.993149
19341.271543	16894.110000	1174.440430	409.988159
19341.271543	16894.110000	1173.314453	193.717545
19341.271543	16894.110000	1172.188477	235.231155
19341.271543	16894.110000	1171.062500	660.336609
19341.271543	16894.110000	1169.935547	627.418213
19341.271543	16894.110000	1168.808594	620.152100
19341.271543	16894.110000	1167.681641	618.412537
19341.271543	16894.110000	1166.553711	132.310013
19341.271543	16894.110000	1165.426758	516.843262
19341.271543	16894.110000	1164.298828	186.265640
19341.271543	16894.110000	1163.170898	50.702988
19341.271543	16894.110000	1162.041992	302.933655
19341.271543	16894.110000	1160.914063	74.027321
19341.271543	16894.110000	1159.785156	-8.993753
19341.271543	16894.110000	1158.656250	-83.335335
19341.271543	16894.110000	1157.526367	180.862686
19341.271543	16894.110000	1156.397461	-212.688797
19341.271543	16894.110000	1155.267578	-134.401627
19341.271543	16894.110000	1154.137695	-208.403091
19341.271543	16894.110000	1153.006836	-22.298208
19341.271543	16894.110000	1151.876953	-298.922272
19341.271543	16894.110000	1150.746094	-335.429932
19341.271543	16894.110000	1149.615234	-25.147299
19341.271543	16894.110000	1148.484375	-311.645416
19341.271543	16894.110000	1147.352539	123.497681
19341.271543	16894.110000	1146.220703	-191.172760
19341.271543	16894.110000	1145.088867	-488.551971
19341.271543	16894.110000	1143.957031	-16.261709
19341.271543	16894.110000	1142.825195	-256.587769
19341.271543	16894.110000	1141.692383	-398.878052
19341.271543	16894.110000	1140.559570	-213.719696
19341.271543	16894.110000	1139.426758	-106.109406
19341.271543	16894.110000	1138.292969	74.936729
19341.271543	16894.110000	1137.159180	90.253738
19341.271543	16894.110000	1136.025391	-0.553508
19341.271543	16894.110000	1134.891602	-120.395729
19341.271543	16894.110000	1133.757813	-340.234406
19341.271543	16894.110000	1132.623047	221.117096
19341.271543	16894.110000	1131.488281	179.494308
19341.271543	16894.110000	1130.353516	104.881065
19341.271543	16894.110000	1129.217773	-65.950241
19341.271543	16894.110000	1128.083008	-187.401459
19341.271543	16894.110000	1126.947266	-111.579727
19341.271543	16894.110000	1125.811523	-215.590454
19341.271543	16894.110000	1124.674805	-53.431129
19341.271543	16894.110000	1123.539063	-239.819199
19341.271543	16894.110000	1122.402344	-242.940628
19341.271543	16894.110000	1121.265625	-282.380890
19341.271543	16894.110000	1120.127930	-232.872147
19341.271543	16894.110000	1118.990234	-311.745758
19341.271543	16894.110000	1117.853516	-247.012344
19341.271543	16894.110000	1116.714844	-58.391598
19341.271543	16894.110000	1115.577148	-387.676331
19341.271543	16894.110000	1114.439453	-385.755096
19341.271543	16894.110000	1113.300781	196.877701
19341.271543	16894.110000	1112.162109	131.055389
19341.271543	16894.110000	1111.022461	-177.490005
19341.271543	16894.110000	1109.883789	-108.184532
19341.271543	16894.110000	1108.744141	-69.173302
19341.271543	16894.110000	1107.604492	-188.177231
19341.271543	16894.110000	1106.463867	-58.437325
19341.271543	16894.110000	1105.324219	211.226669
19341.271543	16894.110000	1104.183594	124.801727
19341.271543	16894.110000	1103.042969	-80.432663
19341.271543	16894.110000	1101.902344	-179.500168
19341.271543	16894.110000	1100.760742	-27.763353
19341.271543	16894.110000	1099.619141	163.530289
19341.271543	16894.110000	1098.477539	59.786797
19341.271543	16894.110000	1097.335938	289.021576
19341.271543	16894.110000	1096.193359	-43.991566
19341.271543	16894.110000	1095.051758	295.542786
19341.271543	16894.110000	1093.909180	94.875557
19341.271543	16894.110000	1092.765625	257.787476
19341.271543	16894.110000	1091.623047	-141.710526
19341.271543	16894.110000	1090.479492	317.303711
19341.271543	16894.110000	1089.335938	213.794601
19341.271543	16894.110000	1088.192383	290.437805
19341.271543	16894.110000	1087.047852	320.795502
19341.271543	16894.110000	1085.903320	89.957375
19341.271543	16894.110000	1084.758789	398.794464
19341.271543	16894.110000	1083.614258	211.767578
19341.271543	16894.110000	1082.469727	297.165710
19341.271543	16894.110000	1081.324219	229.558365
19341.271543	16894.110000	1080.178711	283.039734
19341.271543	16894.110000	1079.033203	398.930084
19341.271543	16894.110000	1077.886719	171.142410
19341.271543	16894.110000	1076.740234	128.075882
19341.271543	16894.110000	1075.593750	290.902374
19341.271543	16894.110000	1074.447266	321.477325
19341.271543	16894.110000	1073.300781	243.007706
19341.271543	16894.110000	1072.153320	304.851410
19341.271543	16894.110000	1071.005859	232.099548
19341.271543	16894.110000	1069.858398	118.342010
19341.271543	16894.110000	1068.709961	302.553528
19341.271543	16894.110000	1067.561523	228.056046
19341.271543	16894.110000	1066.413086	531.564453
19341.271543	16894.110000	1065.264648	239.492828
19341.271543	16894.110000	1064.116211	186.235764
19341.271543	16894.110000	1062.966797	530.970642
19341.271543	16894.110000	1061.817383	251.742661
19341.271543	16894.110000	1060.667969	408.383881
19341.271543	16894.110000	1059.517578	531.012817
19341.271543	16894.110000	1058.368164	-27.439463
19341.271543	16894.110000	1057.217773	15.439697
19341.271543	16894.110000	1056.067383	377.051483
19341.271543	16894.110000	1054.916016	-25.767246
19341.271543	16894.110000	1053.764648	515.107605
19341.271543	16894.110000	1052.613281	308.980774
19341.271543	16894.110000	1051.461914	-4.483518
19341.271543	16894.110000	1050.310547	-245.753906
19341.271543	16894.110000	1049.158203	177.115417
19341.271543	16894.110000	1048.005859	126.819321
19341.271543	16894.110000	1046.853516	356.197815
19341.271543	16894.110000	1045.700195	518.727661
19341.271543	16894.110000	1044.547852	5.147025
19341.271543	16894.110000	1043.394531	155.780365
19341.271543	16894.110000	1042.240234	70.193939
19341.271543	16894.110000	1041.086914	203.696869
19341.271543	16894.110000	1039.932617	101.941109
19341.271543	16894.110000	1038.778320	203.684891
19341.271543	16894.110000	1037.624023	102.174469
19341.271543	16894.110000	1036.469727	274.101471
19341.271543	16894.110000	1035.314453	435.418365
19341.271543	16894.110000	1034.159180	974.661133
19341.271543	16894.110000	1033.003906	900.197144
19341.271543	16894.110000	1031.847656	956.560669
19341.271543	16894.110000	1030.692383	1011.047058
19341.271543	16894.110000	1029.536133	1203.861206
19341.271543	16894.110000	1028.378906	1324.788086
19341.271543	16894.110000	1027.222656	958.033936
19341.271543	16894.110000	1026.065430	974.853760
19341.271543	16894.110000	1024.908203	346.729736
19341.271543	16894.110000	1023.750977	609.361267
19341.271543	16894.110000	1022.593750	215.033737
19341.271543	16894.110000	1021.435547	697.721985
19341.271543	16894.110000	1020.277344	754.338196
19341.271543	16894.110000	1019.119141	310.148285
19341.271543	16894.110000	1017.959961	430.853271
19341.271543	16894.110000	1016.800781	313.404755
19341.271543	16894.110000	1015.641602	292.506104
19341.271543	16894.110000	1014.482422	378.134125
19341.271543	16894.110000	1013.323242	220.714905
19341.271543	16894.110000	1012.163086	35.909958
19341.271543	16894.110000	1011.002930	55.925251
19341.271543	16894.110000	1009.842773	482.292297
19341.271543	16894.110000	1008.681641	170.660675
19341.271543	16894.110000	1007.520508	-301.548523
19341.271543	16894.110000	1006.359375	-194.045975
19341.271543	16894.110000	1005.198242	-22.038433
19341.271543	16894.110000	1004.037109	426.427521
19341.271543	16894.110000	1002.875000	485.489197
19341.271543	16894.110000	1001.712891	842.474487
19341.271543	16894.110000	1000.550781	475.805542
19341.271543	16894.110000	999.387695	160.787384
19341.271543	16894.110000	998.224609	43.455200
19341.271543	16894.110000	997.061523	425.508484
19341.271543	16894.110000	995.898438	662.760010
19341.271543	16894.110000	994.734375	385.885529
19341.271543	16894.110000	993.571289	154.292084
19341.271543	16894.110000	992.407227	224.237106
19341.271543	16894.110000	991.242188	132.486206
19341.271543	16894.110000	990.078125	-120.431953
19341.271543	16894.110000	988.913086	-106.397202
19341.271543	16894.110000	987.748047	-130.443863
19341.271543	16894.110000	986.583008	4.307238
19341.271543	16894.110000	985.416992	123.074135
19341.271543	16894.110000	984.250977	68.596214
19341.271543	16894.110000	983.084961	24.639380
19341.271543	16894.110000	981.918945	-86.503120
19341.271543	16894.110000	980.751953	55.421516
19341.271543	16894.110000	979.584961	144.539764
19341.271543	16894.110000	978.417969	486.590179
19341.271543	16894.110000	977.250977	132.147263
19341.271543	16894.110000	976.083008	152.920471
19341.271543	16894.110000	974.915039	110.653847
19341.271543	16894.110000	973.747070	739.050781
19341.271543	16894.110000	972.579102	450.263824
19341.271543	16894.110000	971.410156	338.174042
19341.271543	16894.110000	970.242188	200.297485
19341.271543	16894.110000	969.072266	-121.219765
19341.271543	16894.110000	967.903320	265.640778
19341.271543	16894.110000	966.733398	363.788849
19341.271543	16894.110000	965.563477	93.953499
19341.271543	16894.110000	964.393555	658.545166
19341.271543	16894.110000	963.223633	609.345337
19341.271543	16894.110000	962.052734	190.453049
19341.271543	16894.110000	960.881836	482.332092
19341.271543	16894.110000	959.710938	378.053040
19341.271543	16894.110000	958.540039	325.412964
19341.271543	16894.110000	957.368164	493.362152
19341.271543	16894.110000	956.196289	819.349121
19341.271543	16894.110000	955.024414	453.198242
19341.271543	16894.110000	953.851563	491.476746
19341.271543	16894.110000	952.679688	703.523560
19341.271543	16894.110000	951.506836	227.531235
19341.271543	16894.110000	950.333984	149.171402
19341.271543	16894.110000	949.160156	215.499130
19341.271543	16894.110000	947.986328	183.920517
19341.271543	16894.110000	946.812500	380.998291
19341.271543	16894.110000	945.638672	131.295166
19341.271543	16894.110000	944.464844	18.791805
19341.271543	16894.110000	943.290039	416.269409
19341.271543	16894.110000	942.115234	-56.345940
19341.271543	16894.110000	940.940430	9.160769
19341.271543	16894.110000	939.764648	1.355654
19341.271543	16894.110000	938.588867	202.125946
19341.271543	16894.110000	937.413086	119.546028
19341.271543	16894.110000	936.237305	141.397354
19341.271543	16894.110000	935.060547	-60.859802
19341.271543	16894.110000	933.883789	248.576172
19341.271543	16894.110000	932.707031	111.107803
19341.271543	16894.110000	931.530273	361.883667
19341.271543	16894.110000	930.352539	298.602020
19341.271543	16894.110000	929.175781	54.312088
19341.271543	16894.110000	927.998047	271.761658
19341.271543	16894.110000	926.819336	71.005287
19341.271543	16894.110000	925.641602	79.190392
19341.271543	16894.110000	924.462891	11.138440
19341.271543	16894.110000	923.284180	-61.328716
19341.271543	16894.110000	922.104492	55.486546
19341.271543	16894.110000	920.924805	22.039038
19341.271543	16894.110000	919.746094	43.381550
19341.271543	16894.110000	919.551758	285.700104
19341.271543	16894.110000	918.386719	-259.352722
19341.271543	16894.110000	917.220703	-406.312164
19341.271543	16894.110000	916.054688	-298.930023
19341.271543	16894.110000	914.887695	-215.575684
19341.271543	16894.110000	913.721680	-373.592316
19341.271543	16894.110000	912.554688	-10.148390
19341.271543	16894.110000	911.387695	-359.472107
19341.271543	16894.110000	910.220703	-81.063332
19341.271543	16894.110000	909.052734	-217.588715
19341.271543	16894.110000	907.885742	-35.023449
19341.271543	16894.110000	906.717773	-100.056404
19341.271543	16894.110000	905.548828	-221.554916
19341.271543	16894.110000	904.380859	56.107792
19341.271543	16894.110000	903.211914	-260.788849
19341.271543	16894.110000	902.042969	-152.558319
19341.271543	16894.110000	900.874023	-215.763077
19341.271543	16894.110000	899.704102	-220.484451
19341.271543	16894.110000	898.535156	305.725433
19341.271543	16894.110000	897.365234	-223.702454
19341.271543	16894.110000	896.194336	-174.510513
19341.271543	16894.110000	895.024414	-333.391022
19341.271543	16894.110000	893.853516	-28.819750
19341.271543	16894.110000	892.682617	-148.855698
19341.271543	16894.110000	891.511719	-379.342560
19341.271543	16894.110000	890.340820	-484.288147
19341.271543	16894.110000	889.168945	-221.395660
19341.271543	16894.110000	887.997070	-79.856537
19341.271543	16894.110000	886.825195	35.575310
19341.271543	16894.110000	885.653320	57.876446
19341.271543	16894.110000	884.480469	71.448837
19341.271543	16894.110000	883.307617	188.683334
19341.271543	16894.110000	882.134766	-169.705215
19341.271543	16894.110000	880.961914	-74.255882
19341.271543	16894.110000	879.788086	-162.559219
19341.271543	16894.110000	878.614258	88.197815
19341.271543	16894.110000	877.440430	-99.625427
19341.271543	16894.110000	876.266602	-103.935204
19341.271543	16894.110000	875.091797	109.697121
19341.271543	16894.110000	873.916992	366.319275
19341.271543	16894.110000	872.742188	145.876572
19341.271543	16894.110000	871.567383	-201.849808
19341.271543	16894.110000	870.391602	75.986458
19341.271543	16894.110000	869.215820	27.991980
19341.271543	16894.110000	868.040039	100.662827
19341.271543	16894.110000	866.864258	99.920837
19341.271543	16894.110000	865.687500	282.287750
19341.271543	16894.110000	864.510742	544.210388
19341.271543	16894.110000	863.333984	174.743317
19341.271543	16894.110000	862.157227	363.163910
19341.271543	16894.110000	860.979492	-4.131413
19341.271543	16894.110000	859.802734	196.982269
19341.271543	16894.110000	858.625000	103.047737
19341.271543	16894.110000	857.446289	349.092072
19341.271543	16894.110000	856.268555	338.889130
19341.271543	16894.110000	855.089844	-24.175058
19341.271543	16894.110000	853.911133	90.268913
19341.271543	16894.110000	852.731445	-199.660477
19341.271543	16894.110000	851.552734	129.569122
19341.271543	16894.110000	850.373047	346.811829
19341.271543	16894.110000	849.193359	-31.379032
19341.271543	16894.110000	848.013672	-491.148041
19341.271543	16894.110000	846.833008	357.345520
19341.271543	16894.110000	845.652344	279.780243
19341.271543	16894.110000	844.471680	232.214676
19341.271543	16894.110000	843.291016	233.945633
19341.271543	16894.110000	842.110352	-58.456581
19341.271543	16894.110000	840.928711	-127.655533
19341.271543	16894.110000	839.747070	-342.808197
19341.271543	16894.110000	838.564453	-238.355637
19341.271543	16894.110000	837.382813	35.365349
19341.271543	16894.110000	836.200195	-390.078186
19341.271543	16894.110000	835.017578	234.938385
19341.271543	16894.110000	833.834961	53.758770
19341.271543	16894.110000	832.651367	16.136843
19341.271543	16894.110000	831.467773	599.705261
19341.271543	16894.110000	830.284180	-59.344559
19341.271543	16894.110000	829.100586	-150.743103
19341.271543	16894.110000	827.916992	-64.494278
19341.271543	16894.110000	826.732422	-93.957878
19341.271543	16894.110000	825.547852	-44.321125
19341.271543	16894.110000	824.363281	212.748016
19341.271543	16894.110000	823.177734	390.475464
19341.271543	16894.110000	821.992188	469.646912
19341.271543	16894.110000	820.806641	245.047516
19341.271543	16894.110000	819.621094	61.064072
19341.271543	16894.110000	818.434570	101.504189
19341.271543	16894.110000	817.249023	261.494843
19341.271543	16894.110000	816.062500	564.483215
19341.271543	16894.110000	814.875000	14.945685
19341.271543	16894.110000	813.688477	-280.326202
19341.271543	16894.110000	812.500977	212.344742
19341.271543	16894.110000	811.313477	100.565300
19341.271543	16894.110000	810.125977	-124.383179
19341.271543	16894.110000	808.937500	397.544617
19341.271543	16894.110000	807.749023	3.901091
19341.271543	16894.110000	806.560547	-56.923050
19341.271543	16894.110000	805.372070	-156.206970
19341.271543	16894.110000	804.182617	0.322867
19341.271543	16894.110000	802.994141	143.895096
19341.271543	16894.110000	801.803711	163.716583
19341.271543	16894.110000	800.614258	262.262390
19341.271543	16894.110000	799.424805	100.765030
19341.271543	16894.110000	798.234375	45.745731
19341.271543	16894.110000	797.043945	97.132675
19341.271543	16894.110000	795.852539	357.060242
19341.271543	16894.110000	794.662109	420.939911
19341.271543	16894.110000	793.470703	295.298004
19341.271543	16894.110000	792.279297	299.402863
19341.271543	16894.110000	791.087891	326.817291
19341.271543	16894.110000	789.895508	52.116737
19341.271543	16894.110000	788.703125	483.409698
19341.271543	16894.110000	787.510742	161.829269
19341.271543	16894.110000	786.318359	-225.602768
19341.271543	16894.110000	785.125000	404.968079
19341.271543	16894.110000	783.931641	459.394867
19341.271543	16894.110000	782.738281	118.605614
19341.271543	16894.110000	781.544922	17.846809
19341.271543	16894.110000	780.350586	239.798843
19341.271543	16894.110000	779.156250	262.008453
19341.271543	16894.110000	777.961914	118.567886
19341.271543	16894.110000	776.767578	168.198212
19341.271543	16894.110000	775.572266	31.026886
19341.271543	16894.110000	774.376953	144.114685
19341.271543	16894.110000	773.181641	248.583191
19341.271543	16894.110000	771.986328	26.397709
19341.271543	16894.110000	770.790039	98.876846
19341.271543	16894.110000	769.593750	510.335663
19341.271543	16894.110000	768.397461	146.005203
19341.271543	16894.110000	767.201172	364.323486
19341.271543	16894.110000	766.003906	423.616699
19341.271543	16894.110000	764.806641	76.215919
19341.271543	16894.110000	763.609375	76.090508
19341.271543	16894.110000	762.412109	149.963745
19341.271543	16894.110000	761.213867	-28.111830
19341.271543	16894.110000	760.015625	346.038971
19341.271543	16894.110000	758.817383	565.524292
19341.271543	16894.110000	757.618164	450.677704
19341.271543	16894.110000	756.419922	570.502014
19341.271543	16894.110000	755.220703	428.050507
19341.271543	16894.110000	754.021484	266.553467
19341.271543	16894.110000	752.821289	517.129517
19341.271543	16894.110000	751.621094	651.313904
19341.271543	16894.110000	750.420898	238.269516
19341.271543	16894.110000	749.220703	251.923035
19341.271543	16894.110000	748.020508	478.747955
19341.271543	16894.110000	746.819336	462.642029
19341.271543	16894.110000	745.618164	224.853760
19341.271543	16894.110000	744.416992	392.235657
19341.271543	16894.110000	743.214844	451.888458
19341.271543	16894.110000	742.012695	625.338257
19341.271543	16894.110000	740.810547	646.808777
19341.271543	16894.110000	739.608398	1041.383057
19341.271543	16894.110000	738.406250	763.292725
19341.271543	16894.110000	737.203125	906.751526
19341.271543	16894.110000	736.000000	1056.399292
19341.271543	16894.110000	734.795898	1475.574829
19341.271543	16894.110000	733.592773	1572.256470
19341.271543	16894.110000	732.388672	1784.651611
19341.271543	16894.110000	731.184570	1891.631104
19341.271543	16894.110000	729.979492	1910.103760
19341.271543	16894.110000	728.775391	1835.911743
19341.271543	16894.110000	727.570313	1298.817017
19341.271543	16894.110000	726.365234	1496.022705
19341.271543	16894.110000	725.160156	811.893188
19341.271543	16894.110000	723.954102	872.337524
19341.271543	16894.110000	722.748047	598.449524
19341.271543	16894.110000	721.541992	78.715034
19341.271543	16894.110000	720.334961	624.527222
19341.271543	16894.110000	719.128906	203.643158
19341.271543	16894.110000	717.921875	-76.376785
19341.271543	16894.110000	716.714844	319.876038
19341.271543	16894.110000	715.506836	268.712738
19341.271543	16894.110000	714.298828	125.165215
19341.271543	16894.110000	713.090820	57.186256
19341.271543	16894.110000	711.882813	-252.101364
19341.271543	16894.110000	710.674805	-1.186147
19341.271543	16894.110000	709.465820	-62.915188
19341.271543	16894.110000	708.256836	-80.619598
19341.271543	16894.110000	707.047852	-22.877651
19341.271543	16894.110000	705.837891	-137.063751
19341.271543	16894.110000	704.627930	-133.877991
19341.271543	16894.110000	703.417969	-216.623154
19341.271543	16894.110000	702.208008	-494.172333
19341.271543	16894.110000	700.998047	-428.164185
19341.271543	16894.110000	699.787109	-515.055115
19341.271543	16894.110000	698.576172	216.595734
19341.271543	16894.110000	697.364258	64.687416
19341.271543	16894.110000	696.153320	-49.509621
19341.271543	16894.110000	694.941406	-52.788986
19341.271543	16894.110000	693.729492	-271.522186
19341.271543	16894.110000	692.516602	-295.683044
19341.271543	16894.110000	691.304688	-365.846680
19341.271543	16894.110000	690.091797	-262.482391
19341.271543	16894.110000	688.878906	-194.693970
19341.271543	16894.110000	687.665039	-350.503967
19341.271543	16894.110000	686.451172	116.280807
19341.271543	16894.110000	685.237305	206.928329
19341.271543	16894.110000	684.023438	-40.736767
19341.271543	16894.110000	682.809570	22.778173
19341.271543	16894.110000	681.594727	146.812088
19341.271543	16894.110000	680.379883	291.675476
19341.271543	16894.110000	679.165039	92.239990
19341.271543	16894.110000	677.949219	-57.026402
19341.271543	16894.110000	676.733398	169.181030
19341.271543	16894.110000	675.517578	47.108997
19341.271543	16894.110000	674.301758	202.371445
19341.271543	16894.110000	673.084961	415.958038
19341.271543	16894.110000	671.869141	641.983398
19341.271543	16894.110000	670.651367	347.130005
19341.271543	16894.110000	669.434570	316.957153
19341.271543	16894.110000	668.216797	376.385071
19341.271543	16894.110000	667.000000	-49.278397
19341.271543	16894.110000	665.781250	266.323639
19341.271543	16894.110000	664.563477	134.398529
19341.271543	16894.110000	663.344727	474.896240
19341.271543	16894.110000	662.125977	571.916443
19341.271543	16894.110000	660.907227	425.616302
19341.271543	16894.110000	659.688477	406.278107
19341.271543	16894.110000	658.468750	10.732094
19341.271543	16894.110000	657.249023	498.773163
19341.271543	16894.110000	656.029297	167.927795
19341.271543	16894.110000	654.808594	167.639740
19341.271543	16894.110000	653.587891	337.752655
19341.271543	16894.110000	652.367188	217.128998
19341.271543	16894.110000	651.146484	686.305054
19341.271543	16894.110000	649.924805	206.709305
19341.271543	16894.110000	648.704102	179.837936
19341.271543	16894.110000	647.482422	136.474625
19341.271543	16894.110000	646.259766	329.726288
19341.271543	16894.110000	645.037109	330.102264
19341.271543	16894.110000	643.815430	58.926090
19341.271543	16894.110000	642.591797	302.134552
19341.271543	16894.110000	641.369141	539.125427
19341.271543	16894.110000	640.145508	-108.756058
19341.271543	16894.110000	638.921875	343.928894
19341.271543	16894.110000	637.698242	384.318298
19341.271543	16894.110000	636.474609	248.776718
19341.271543	16894.110000	635.250000	337.042511
19341.271543	16894.110000	634.025391	218.386047
19341.271543	16894.110000	632.800781	-96.710823
19341.271543	16894.110000	631.575195	-113.558281
19341.271543	16894.110000	630.349609	362.117706
19341.271543	16894.110000	629.124023	320.638824
19341.271543	16894.110000	627.898438	115.951775
19341.271543	16894.110000	626.671875	217.498764
19341.271543	16894.110000	625.445313	-119.063736
19341.271543	16894.110000	624.218750	377.525391
19341.271543	16894.110000	622.992188	33.119068
19341.271543	16894.110000	621.764648	283.966675
19341.271543	16894.110000	620.537109	-43.416431
19341.271543	16894.110000	619.309570	83.783569
19341.271543	16894.110000	618.081055	240.011749
19341.271543	16894.110000	616.852539	35.148277
19341.271543	16894.110000	615.624023	-223.102402
19341.271543	16894.110000	614.395508	45.036404
19341.271543	16894.110000	613.166992	393.692963
19341.271543	16894.110000	611.937500	-195.925278
19341.271543	16894.110000	610.708008	-143.874496
19341.271543	16894.110000	609.477539	85.635086
19341.271543	16894.110000	608.248047	47.316868
19341.271543	16894.110000	607.017578	-36.104271
19341.271543	16894.110000	605.787109	257.709320
19341.271543	16894.110000	604.555664	-181.612167
19341.271543	16894.110000	603.325195	-229.296188
19341.271543	16894.110000	602.093750	-252.030746
19341.271543	16894.110000	600.861328	-134.560349
19341.271543	16894.110000	599.629883	-313.261963
19341.271543	16894.110000	598.397461	-220.070755
19341.271543	16894.110000	597.165039	171.574203
19341.271543	16894.110000	595.932617	191.046860
19341.271543	16894.110000	594.699219	38.042919
19341.271543	16894.110000	593.465820	-61.209423
19341.271543	16894.110000	592.232422	135.774979
19341.271543	16894.110000	590.999023	-209.552002
19341.271543	16894.110000	589.764648	-32.662064
19341.271543	16894.110000	588.530273	-15.804520
19341.271543	16894.110000	587.295898	-68.523758
19341.271543	16894.110000	586.061523	-143.549759
19341.271543	16894.110000	584.826172	307.199036
19341.271543	16894.110000	583.590820	35.644165
19341.271543	16894.110000	582.355469	8.625739
19341.271543	16894.110000	581.119141	203.436676
19341.271543	16894.110000	579.882813	84.648071
19341.271543	16894.110000	578.646484	25.640812
19341.271543	16894.110000	577.410156	694.678528
19341.271543	16894.110000	576.172852	412.722626
19341.271543	16894.110000	574.935547	327.878174
19341.271543	16894.110000	573.698242	386.754242
19341.271543	16894.110000	572.460938	486.846497
19341.271543	16894.110000	571.222656	181.726196
19341.271543	16894.110000	569.984375	417.524506
19341.271543	16894.110000	568.746094	356.699707
19341.271543	16894.110000	567.506836	498.803802
19341.271543	16894.110000	566.267578	385.375244
19341.271543	16894.110000	565.028320	499.346527
19341.271543	16894.110000	563.789063	801.714478
19341.271543	16894.110000	562.548828	789.367554
19341.271543	16894.110000	561.309570	640.327759
19341.271543	16894.110000	560.068359	886.144165
19341.271543	16894.110000	558.828125	1064.696045
19341.271543	16894.110000	557.586914	871.652771
19341.271543	16894.110000	556.345703	958.815369
19341.271543	16894.110000	555.104492	913.494202
19341.271543	16894.110000	553.863281	954.231873
19341.271543	16894.110000	552.621094	1236.130371
19341.271543	16894.110000	551.378906	1022.280151
19341.271543	16894.110000	550.136719	1045.494873
19341.271543	16894.110000	548.893555	1242.401978
19341.271543	16894.110000	547.650391	1137.665161
19341.271543	16894.110000	546.407227	1265.714600
19341.271543	16894.110000	545.164063	1363.413940
19341.271543	16894.110000	543.919922	1120.996094
19341.271543	16894.110000	542.675781	1404.705200
19341.271543	16894.110000	541.431641	1305.556519
19341.271543	16894.110000	540.186523	1381.921753
19341.271543	16894.110000	538.941406	1702.903076
19341.271543	16894.110000	537.696289	1710.472168
19341.271543	16894.110000	536.451172	1626.705933
19341.271543	16894.110000	535.205078	1789.517090
19341.271543	16894.110000	533.959961	1541.488037
19341.271543	16894.110000	532.712891	1810.572632
19341.271543	16894.110000	531.466797	1636.398926
19341.271543	16894.110000	530.219727	1692.348389
19341.271543	16894.110000	528.972656	2226.267334
19341.271543	16894.110000	527.725586	1973.610107
19341.271543	16894.110000	526.478516	2036.273438
19341.271543	16894.110000	525.230469	1985.390381
19341.271543	16894.110000	523.982422	2255.690186
19341.271543	16894.110000	522.734375	1746.270264
19341.271543	16894.110000	521.485352	1913.413208
19341.271543	16894.110000	520.236328	2259.325439
19341.271543	16894.110000	518.987305	2237.953369
19341.271543	16894.110000	517.737305	2401.451660
19341.271543	16894.110000	516.488281	2804.417725
19341.271543	16894.110000	515.238281	2706.451904
19341.271543	16894.110000	513.988281	2716.167969
19341.271543	16894.110000	512.737305	2742.282959
19341.271543	16894.110000	511.486328	2918.527100
19341.271543	16894.110000	510.235352	2815.191650
19341.271543	16894.110000	508.984375	2663.407227
19341.271543	16894.110000	507.732422	3202.551514
19341.271543	16894.110000	506.480469	3146.190918
19341.271543	16894.110000	505.228516	3422.001465
19341.271543	16894.110000	503.976563	3126.944580
19341.271543	16894.110000	502.723633	3542.474365
19341.271543	16894.110000	501.470703	3858.744629
19341.271543	16894.110000	500.217773	3826.985107
19341.271543	16894.110000	498.963867	3894.406494
19341.271543	16894.110000	497.709961	4208.512695
19341.271543	16894.110000	496.456055	4431.523926
19341.271543	16894.110000	495.202148	4137.003418
19341.271543	16894.110000	493.947266	4434.703125
19341.271543	16894.110000	492.692383	4722.132813
19341.271543	16894.110000	491.437500	5086.143066
19341.271543	16894.110000	490.181641	5056.160156
19341.271543	16894.110000	488.926758	5157.312012
19341.271543	16894.110000	487.670898	5121.075195
19341.271543	16894.110000	486.414063	5686.169434
19341.271543	16894.110000	485.158203	5952.226074
19341.271543	16894.110000	483.901367	5614.863281
19341.271543	16894.110000	482.644531	5700.997559
19341.271543	16894.110000	481.386719	5919.998535
19341.271543	16894.110000	480.128906	5636.700195
19341.271543	16894.110000	478.871094	6151.435059
19341.271543	16894.110000	477.613281	6204.211426
19341.271543	16894.110000	476.355469	6768.396973
19341.271543	16894.110000	475.096680	6542.458008
19341.271543	16894.110000	473.837891	6866.042969
19341.271543	16894.110000	472.578125	6842.838867
19341.271543	16894.110000	471.319336	6756.822266
19341.271543	16894.110000	470.059570	7181.618652
19341.271543	16894.110000	468.799805	7245.616211
19341.271543	16894.110000	467.539063	7136.119629
19341.271543	16894.110000	466.278320	7221.245605
19341.271543	16894.110000	465.017578	7659.691406
19341.271543	16894.110000	463.756836	7353.545898
19341.271543	16894.110000	462.495117	7728.305664
19341.271543	16894.110000	461.233398	7837.010742
19341.271543	16894.110000	459.971680	7768.199219
19341.271543	16894.110000	458.709961	7777.046387
19341.271543	16894.110000	457.447266	7793.199219
19341.271543	16894.110000	456.184570	8035.435547
19341.271543	16894.110000	454.921875	8469.449219
19341.271543	16894.110000	453.658203	8270.270508
19341.271543	16894.110000	452.394531	8417.392578
19341.271543	16894.110000	451.130859	8836.333984
19341.271543	16894.110000	449.867188	8399.742188
19341.271543	16894.110000	448.602539	8816.520508
19341.271543	16894.110000	447.337891	8718.846680
19341.271543	16894.110000	446.073242	8760.408203
19341.271543	16894.110000	444.807617	8864.927734
19341.271543	16894.110000	443.542969	8803.913086
19341.271543	16894.110000	442.276367	8927.967773
19341.271543	16894.110000	441.010742	9168.813477
19341.271543	16894.110000	439.744141	8939.720703
19341.271543	16894.110000	438.478516	9263.782227
19341.271543	16894.110000	437.210938	8999.899414
19341.271543	16894.110000	435.944336	9184.800781
19341.271543	16894.110000	434.676758	9236.039063
19341.271543	16894.110000	433.409180	9059.645508
19341.271543	16894.110000	432.141602	8963.630859
19341.271543	16894.110000	430.873047	8871.919922
19341.271543	16894.110000	429.604492	9443.999023
19341.271543	16894.110000	428.335938	9348.577148
19341.271543	16894.110000	427.067383	9387.125000
19341.271543	16894.110000	425.797852	9469.604492
19341.271543	16894.110000	424.528320	9561.979492
19341.271543	16894.110000	423.258789	9734.056641
19341.271543	16894.110000	421.988281	9614.435547
19341.271543	16894.110000	420.717773	9532.526367
19341.271543	16894.110000	419.447266	9609.932617
19341.271543	16894.110000	418.175781	9784.628906
19341.271543	16894.110000	416.905273	10010.639648
19341.271543	16894.110000	415.633789	9671.711914
19341.271543	16894.110000	414.362305	9828.666016
19341.271543	16894.110000	413.089844	9484.567383
19341.271543	16894.110000	411.817383	9914.932617
19341.271543	16894.110000	410.544922	9623.076172
19341.271543	16894.110000	409.272461	9868.148438
19341.271543	16894.110000	407.999023	10187.695313
19341.271543	16894.110000	406.725586	9719.584961
19341.271543	16894.110000	405.452148	10042.631836
19341.271543	16894.110000	404.177734	9946.281250
19341.271543	16894.110000	402.903320	9502.377930
19341.271543	16894.110000	401.628906	9932.366211
19341.271543	16894.110000	400.354492	9654.575195
19341.271543	16894.110000	399.079102	9575.963867
19341.271543	16894.110000	397.803711	9557.201172
19341.271543	16894.110000	396.528320	9496.785156
19341.271543	16894.110000	395.251953	9615.128906
19341.271543	16894.110000	393.976563	9312.202148
19341.271543	16894.110000	392.700195	9591.022461
19341.271543	16894.110000	391.422852	9351.032227
19341.271543	16894.110000	390.145508	9515.651367
19341.271543	16894.110000	388.869141	9219.212891
19341.271543	16894.110000	387.590820	9602.673828
19341.271543	16894.110000	386.313477	9409.874023
19341.271543	16894.110000	385.035156	9279.589844
19341.271543	16894.110000	383.756836	9195.875977
19341.271543	16894.110000	382.478516	8920.658203
19341.271543	16894.110000	381.199219	9163.459961
19341.271543	16894.110000	379.919922	9180.740234
19341.271543	16894.110000	378.640625	9192.449219
19341.271543	16894.110000	377.360352	8984.391602
19341.271543	16894.110000	376.080078	8570.541016
19341.271543	16894.110000	374.799805	8420.174805
19341.271543	16894.110000	373.519531	8855.653320
19341.271543	16894.110000	372.238281	8787.750977
19341.271543	16894.110000	370.957031	8244.479492
19341.271543	16894.110000	369.675781	8074.704590
19341.271543	16894.110000	368.394531	7983.318359
19341.271543	16894.110000	367.112305	7823.627441
19341.271543	16894.110000	365.830078	8145.277344
19341.271543	16894.110000	364.546875	7894.093262
19341.271543	16894.110000	363.264648	7857.127930
19341.271543	16894.110000	361.981445	7431.133301
19341.271543	16894.110000	360.698242	7442.043945
19341.271543	16894.110000	359.414063	7061.727539
19341.271543	16894.110000	358.129883	6681.384277
19341.271543	16894.110000	356.845703	6924.632813
19341.271543	16894.110000	355.561523	7177.086914
19341.271543	16894.110000	354.276367	6960.832520
19341.271543	16894.110000	352.991211	6921.273438
19341.271543	16894.110000	351.706055	6326.377930
19341.271543	16894.110000	350.420898	6310.139648
19341.271543	16894.110000	349.134766	6388.735840
19341.271543	16894.110000	347.848633	6162.010254
19341.271543	16894.110000	346.561523	6069.141602
19341.271543	16894.110000	345.275391	5806.933105
19341.271543	16894.110000	343.988281	5443.703125
19341.271543	16894.110000	342.700195	5509.018066
19341.271543	16894.110000	341.413086	5116.931152
19341.271543	16894.110000	340.125000	4822.058594
19341.271543	16894.110000	338.836914	4720.814941
19341.271543	16894.110000	337.548828	4535.411621
19341.271543	16894.110000	336.259766	4552.553223
19341.271543	16894.110000	334.970703	4079.885010
19341.271543	16894.110000	333.681641	4092.765137
19341.271543	16894.110000	332.391602	3729.224854
19341.271543	16894.110000	331.101563	3498.640625
19341.271543	16894.110000	329.811523	3265.083984
19341.271543	16894.110000	328.521484	3014.546143
19341.271543	16894.110000	327.230469	3170.643311
19341.271543	16894.110000	325.939453	3163.722656
19341.271543	16894.110000	324.648438	2473.348145
19341.271543	16894.110000	323.356445	2826.588623
19341.271543	16894.110000	322.064453	1944.492432
19341.271543	16894.110000	320.772461	2444.903076
19341.271543	16894.110000	319.480469	2121.797363
19341.271543	16894.110000	318.187500	1647.642456
19341.271543	16894.110000	316.894531	1397.164673
19341.271543	16894.110000	315.601563	1260.143311
19341.271543	16894.110000	314.307617	920.152344
19341.271543	16894.110000	313.013672	1084.844727
19341.271543	16894.110000	311.719727	513.513123
19341.271543	16894.110000	310.425781	790.812378
19341.271543	16894.110000	309.130859	166.668045
19341.271543	16894.110000	307.835938	-66.033340
19341.271543	16894.110000	306.541016	82.317101
19341.271543	16894.110000	305.245117	-93.938629
19341.271543	16894.110000	303.949219	-118.956039
19341.271543	16894.110000	302.653320	12.674698
19341.271543	16894.110000	301.356445	313.541168
19341.271543	16894.110000	300.060547	-204.888184
19341.271543	16894.110000	298.763672	225.299133
