#X		#Y		#Wave		#Intensity
19444.424096	16875.502667	2000.043945	-1.166561
19444.424096	16875.502667	1999.080078	104.373871
19444.424096	16875.502667	1998.116211	180.403412
19444.424096	16875.502667	1997.151367	261.193268
19444.424096	16875.502667	1996.186523	101.451515
19444.424096	16875.502667	1995.222656	142.262726
19444.424096	16875.502667	1994.256836	-2.848157
19444.424096	16875.502667	1993.291992	176.340408
19444.424096	16875.502667	1992.327148	-11.107364
19444.424096	16875.502667	1991.361328	-99.606453
19444.424096	16875.502667	1990.395508	237.484100
19444.424096	16875.502667	1989.429688	-7.182227
19444.424096	16875.502667	1988.463867	20.260830
19444.424096	16875.502667	1987.497070	124.257698
19444.424096	16875.502667	1986.531250	-234.370926
19444.424096	16875.502667	1985.564453	-24.265728
19444.424096	16875.502667	1984.597656	-56.618656
19444.424096	16875.502667	1983.630859	271.812988
19444.424096	16875.502667	1982.664063	214.507126
19444.424096	16875.502667	1981.696289	-20.766870
19444.424096	16875.502667	1980.728516	20.636976
19444.424096	16875.502667	1979.761719	-19.567698
19444.424096	16875.502667	1978.792969	95.740234
19444.424096	16875.502667	1977.825195	62.787216
19444.424096	16875.502667	1976.857422	101.360489
19444.424096	16875.502667	1975.888672	11.511579
19444.424096	16875.502667	1974.919922	-46.291325
19444.424096	16875.502667	1973.951172	11.819487
19444.424096	16875.502667	1972.982422	-55.951466
19444.424096	16875.502667	1972.013672	-74.429039
19444.424096	16875.502667	1971.043945	136.363327
19444.424096	16875.502667	1970.075195	9.279756
19444.424096	16875.502667	1969.105469	-63.576706
19444.424096	16875.502667	1968.135742	40.985592
19444.424096	16875.502667	1967.165039	22.271807
19444.424096	16875.502667	1966.195313	190.749390
19444.424096	16875.502667	1965.224609	144.845901
19444.424096	16875.502667	1964.253906	-93.154366
19444.424096	16875.502667	1963.283203	-25.795750
19444.424096	16875.502667	1962.312500	34.124397
19444.424096	16875.502667	1961.341797	-29.063429
19444.424096	16875.502667	1960.370117	183.350449
19444.424096	16875.502667	1959.399414	225.903687
19444.424096	16875.502667	1958.427734	17.520018
19444.424096	16875.502667	1957.455078	23.161419
19444.424096	16875.502667	1956.483398	-62.194099
19444.424096	16875.502667	1955.511719	36.851219
19444.424096	16875.502667	1954.539063	180.092468
19444.424096	16875.502667	1953.566406	210.223602
19444.424096	16875.502667	1952.593750	-22.572016
19444.424096	16875.502667	1951.621094	-26.820995
19444.424096	16875.502667	1950.647461	91.733391
19444.424096	16875.502667	1949.674805	89.911598
19444.424096	16875.502667	1948.701172	36.529037
19444.424096	16875.502667	1947.727539	-11.925752
19444.424096	16875.502667	1946.753906	-21.091038
19444.424096	16875.502667	1945.780273	40.910480
19444.424096	16875.502667	1944.805664	-27.137468
19444.424096	16875.502667	1943.831055	25.039543
19444.424096	16875.502667	1942.856445	-38.064159
19444.424096	16875.502667	1941.881836	77.861115
19444.424096	16875.502667	1940.907227	56.462914
19444.424096	16875.502667	1939.932617	47.337929
19444.424096	16875.502667	1938.957031	84.788170
19444.424096	16875.502667	1937.981445	58.531071
19444.424096	16875.502667	1937.005859	223.376068
19444.424096	16875.502667	1936.030273	25.675539
19444.424096	16875.502667	1935.054688	109.679237
19444.424096	16875.502667	1934.078125	215.702682
19444.424096	16875.502667	1933.101563	-96.897362
19444.424096	16875.502667	1932.125000	80.131683
19444.424096	16875.502667	1931.148438	80.924179
19444.424096	16875.502667	1930.171875	49.927906
19444.424096	16875.502667	1929.194336	202.419174
19444.424096	16875.502667	1928.217773	129.870224
19444.424096	16875.502667	1927.240234	72.037224
19444.424096	16875.502667	1926.262695	-100.659004
19444.424096	16875.502667	1925.284180	-28.842636
19444.424096	16875.502667	1924.306641	-35.237034
19444.424096	16875.502667	1923.328125	107.436409
19444.424096	16875.502667	1922.350586	-118.806557
19444.424096	16875.502667	1921.372070	36.081226
19444.424096	16875.502667	1920.392578	81.040398
19444.424096	16875.502667	1919.414063	-5.842256
19444.424096	16875.502667	1918.434570	-4.792973
19444.424096	16875.502667	1917.456055	69.495598
19444.424096	16875.502667	1916.476563	-88.042610
19444.424096	16875.502667	1915.497070	-218.664139
19444.424096	16875.502667	1914.516602	50.825993
19444.424096	16875.502667	1913.537109	-106.560051
19444.424096	16875.502667	1912.556641	-29.783815
19444.424096	16875.502667	1911.576172	144.500488
19444.424096	16875.502667	1910.595703	138.366913
19444.424096	16875.502667	1909.615234	-101.698448
19444.424096	16875.502667	1908.633789	135.909531
19444.424096	16875.502667	1907.653320	-67.485909
19444.424096	16875.502667	1906.671875	28.797325
19444.424096	16875.502667	1905.690430	98.274673
19444.424096	16875.502667	1904.708984	272.438965
19444.424096	16875.502667	1903.727539	49.767368
19444.424096	16875.502667	1902.745117	-184.972946
19444.424096	16875.502667	1901.762695	-71.635834
19444.424096	16875.502667	1900.780273	10.046820
19444.424096	16875.502667	1899.797852	-44.503559
19444.424096	16875.502667	1898.815430	231.735016
19444.424096	16875.502667	1897.832031	-318.840424
19444.424096	16875.502667	1896.849609	100.809547
19444.424096	16875.502667	1895.866211	228.640579
19444.424096	16875.502667	1894.882813	18.641323
19444.424096	16875.502667	1893.898438	122.169716
19444.424096	16875.502667	1892.915039	96.919327
19444.424096	16875.502667	1891.930664	86.263779
19444.424096	16875.502667	1890.947266	17.340893
19444.424096	16875.502667	1889.962891	94.129791
19444.424096	16875.502667	1888.977539	134.489243
19444.424096	16875.502667	1887.993164	26.794241
19444.424096	16875.502667	1887.007813	188.495605
19444.424096	16875.502667	1886.023438	29.898968
19444.424096	16875.502667	1885.038086	-51.010689
19444.424096	16875.502667	1884.051758	-102.778976
19444.424096	16875.502667	1883.066406	12.782453
19444.424096	16875.502667	1882.081055	-38.970509
19444.424096	16875.502667	1881.094727	13.526049
19444.424096	16875.502667	1880.108398	27.233082
19444.424096	16875.502667	1879.122070	70.011147
19444.424096	16875.502667	1878.135742	183.027435
19444.424096	16875.502667	1877.148438	34.425903
19444.424096	16875.502667	1876.162109	21.486570
19444.424096	16875.502667	1875.174805	192.556717
19444.424096	16875.502667	1874.187500	-144.775818
19444.424096	16875.502667	1873.199219	-152.835846
19444.424096	16875.502667	1872.211914	-18.133446
19444.424096	16875.502667	1871.223633	31.841734
19444.424096	16875.502667	1870.236328	-145.578552
19444.424096	16875.502667	1869.248047	93.024178
19444.424096	16875.502667	1868.258789	-77.097023
19444.424096	16875.502667	1867.270508	81.613251
19444.424096	16875.502667	1866.282227	235.421906
19444.424096	16875.502667	1865.292969	-69.982315
19444.424096	16875.502667	1864.303711	98.275520
19444.424096	16875.502667	1863.314453	160.170135
19444.424096	16875.502667	1862.324219	214.785721
19444.424096	16875.502667	1861.334961	160.703171
19444.424096	16875.502667	1860.344727	-59.958996
19444.424096	16875.502667	1859.354492	-22.270172
19444.424096	16875.502667	1858.364258	-69.079865
19444.424096	16875.502667	1857.374023	19.236032
19444.424096	16875.502667	1856.383789	97.852425
19444.424096	16875.502667	1855.392578	60.643436
19444.424096	16875.502667	1854.401367	37.900120
19444.424096	16875.502667	1853.410156	-78.889153
19444.424096	16875.502667	1852.418945	-34.139332
19444.424096	16875.502667	1851.426758	116.622269
19444.424096	16875.502667	1850.435547	-48.376625
19444.424096	16875.502667	1849.443359	49.279957
19444.424096	16875.502667	1848.451172	187.826538
19444.424096	16875.502667	1847.458984	73.412636
19444.424096	16875.502667	1846.466797	45.701435
19444.424096	16875.502667	1845.473633	157.610779
19444.424096	16875.502667	1844.480469	211.680023
19444.424096	16875.502667	1843.487305	5.787167
19444.424096	16875.502667	1842.494141	-60.501255
19444.424096	16875.502667	1841.500977	-1.698801
19444.424096	16875.502667	1840.506836	-29.538136
19444.424096	16875.502667	1839.513672	53.219830
19444.424096	16875.502667	1838.519531	78.210213
19444.424096	16875.502667	1837.525391	83.926666
19444.424096	16875.502667	1836.530273	-25.759089
19444.424096	16875.502667	1835.536133	15.947970
19444.424096	16875.502667	1834.541016	158.508896
19444.424096	16875.502667	1833.545898	130.432129
19444.424096	16875.502667	1832.550781	87.917053
19444.424096	16875.502667	1831.555664	242.275360
19444.424096	16875.502667	1830.560547	98.846069
19444.424096	16875.502667	1829.564453	133.049515
19444.424096	16875.502667	1828.568359	-10.386893
19444.424096	16875.502667	1827.572266	174.899353
19444.424096	16875.502667	1826.576172	-38.145290
19444.424096	16875.502667	1825.580078	192.559479
19444.424096	16875.502667	1824.583008	116.188698
19444.424096	16875.502667	1823.585938	-58.498749
19444.424096	16875.502667	1822.588867	61.676086
19444.424096	16875.502667	1821.591797	47.545464
19444.424096	16875.502667	1820.594727	265.803955
19444.424096	16875.502667	1819.596680	277.896912
19444.424096	16875.502667	1818.599609	-57.382030
19444.424096	16875.502667	1817.601563	40.881920
19444.424096	16875.502667	1816.603516	31.309383
19444.424096	16875.502667	1815.604492	100.688316
19444.424096	16875.502667	1814.606445	95.791275
19444.424096	16875.502667	1813.607422	198.528809
19444.424096	16875.502667	1812.608398	-14.648143
19444.424096	16875.502667	1811.609375	-120.152359
19444.424096	16875.502667	1810.610352	-242.414185
19444.424096	16875.502667	1809.610352	-147.085342
19444.424096	16875.502667	1808.611328	98.770462
19444.424096	16875.502667	1807.611328	191.494873
19444.424096	16875.502667	1806.611328	198.090912
19444.424096	16875.502667	1805.610352	6.303164
19444.424096	16875.502667	1804.610352	-30.188423
19444.424096	16875.502667	1803.609375	129.131195
19444.424096	16875.502667	1802.608398	305.046600
19444.424096	16875.502667	1801.607422	129.856049
19444.424096	16875.502667	1800.606445	45.382248
19444.424096	16875.502667	1799.605469	77.825836
19444.424096	16875.502667	1798.603516	-52.071903
19444.424096	16875.502667	1797.601563	-12.591494
19444.424096	16875.502667	1796.599609	-180.715851
19444.424096	16875.502667	1795.597656	132.909027
19444.424096	16875.502667	1794.595703	43.377399
19444.424096	16875.502667	1793.592773	77.780869
19444.424096	16875.502667	1792.589844	-176.303299
19444.424096	16875.502667	1791.587891	167.800079
19444.424096	16875.502667	1790.583984	66.148666
19444.424096	16875.502667	1789.581055	-40.294563
19444.424096	16875.502667	1788.577148	17.572639
19444.424096	16875.502667	1787.574219	130.120987
19444.424096	16875.502667	1786.570313	56.850937
19444.424096	16875.502667	1785.566406	164.448669
19444.424096	16875.502667	1784.561523	145.797318
19444.424096	16875.502667	1783.557617	5.731047
19444.424096	16875.502667	1782.552734	44.073082
19444.424096	16875.502667	1781.547852	91.843903
19444.424096	16875.502667	1780.542969	94.340080
19444.424096	16875.502667	1779.538086	44.455841
19444.424096	16875.502667	1778.532227	110.999756
19444.424096	16875.502667	1777.527344	-10.316153
19444.424096	16875.502667	1776.521484	6.165539
19444.424096	16875.502667	1775.515625	184.127914
19444.424096	16875.502667	1774.508789	34.138092
19444.424096	16875.502667	1773.502930	97.881363
19444.424096	16875.502667	1772.496094	133.030258
19444.424096	16875.502667	1771.489258	182.336563
19444.424096	16875.502667	1770.482422	162.714142
19444.424096	16875.502667	1769.475586	302.028046
19444.424096	16875.502667	1768.467773	2.257165
19444.424096	16875.502667	1767.460938	222.055481
19444.424096	16875.502667	1766.453125	-8.953090
19444.424096	16875.502667	1765.445313	54.100903
19444.424096	16875.502667	1764.437500	19.847225
19444.424096	16875.502667	1763.428711	-54.770672
19444.424096	16875.502667	1762.420898	218.960541
19444.424096	16875.502667	1761.412109	75.463928
19444.424096	16875.502667	1760.403320	-1.717773
19444.424096	16875.502667	1759.393555	124.754150
19444.424096	16875.502667	1758.384766	-97.021599
19444.424096	16875.502667	1757.375000	-84.384163
19444.424096	16875.502667	1756.366211	160.171722
19444.424096	16875.502667	1755.356445	25.857422
19444.424096	16875.502667	1754.345703	-72.991333
19444.424096	16875.502667	1753.335938	81.283546
19444.424096	16875.502667	1752.325195	88.757278
19444.424096	16875.502667	1751.315430	98.520882
19444.424096	16875.502667	1750.304688	-64.416107
19444.424096	16875.502667	1749.292969	-99.708138
19444.424096	16875.502667	1748.282227	20.946238
19444.424096	16875.502667	1747.270508	165.105957
19444.424096	16875.502667	1746.259766	46.868687
19444.424096	16875.502667	1745.248047	-43.057495
19444.424096	16875.502667	1744.235352	20.493357
19444.424096	16875.502667	1743.223633	-24.678505
19444.424096	16875.502667	1742.211914	-95.878708
19444.424096	16875.502667	1741.199219	28.791925
19444.424096	16875.502667	1740.186523	224.141449
19444.424096	16875.502667	1739.173828	63.034317
19444.424096	16875.502667	1738.160156	-60.345314
19444.424096	16875.502667	1737.147461	-6.840806
19444.424096	16875.502667	1736.133789	96.085838
19444.424096	16875.502667	1735.120117	73.932533
19444.424096	16875.502667	1734.106445	72.929016
19444.424096	16875.502667	1733.091797	-170.919540
19444.424096	16875.502667	1732.078125	188.518845
19444.424096	16875.502667	1731.063477	173.129211
19444.424096	16875.502667	1730.048828	-7.220995
19444.424096	16875.502667	1729.034180	179.826935
19444.424096	16875.502667	1728.019531	39.427597
19444.424096	16875.502667	1727.003906	94.405167
19444.424096	16875.502667	1725.988281	-163.767120
19444.424096	16875.502667	1724.972656	-57.144566
19444.424096	16875.502667	1723.957031	-162.394791
19444.424096	16875.502667	1722.941406	-44.195168
19444.424096	16875.502667	1721.924805	95.048698
19444.424096	16875.502667	1720.909180	64.863968
19444.424096	16875.502667	1719.892578	-99.399887
19444.424096	16875.502667	1718.875977	124.186005
19444.424096	16875.502667	1717.858398	46.783199
19444.424096	16875.502667	1716.841797	-4.805207
19444.424096	16875.502667	1715.824219	105.650658
19444.424096	16875.502667	1714.806641	-98.750114
19444.424096	16875.502667	1713.789063	-124.663322
19444.424096	16875.502667	1712.770508	-82.551689
19444.424096	16875.502667	1711.752930	-42.863392
19444.424096	16875.502667	1710.734375	130.515640
19444.424096	16875.502667	1709.715820	52.676048
19444.424096	16875.502667	1708.697266	127.299026
19444.424096	16875.502667	1707.678711	105.653641
19444.424096	16875.502667	1706.659180	475.600098
19444.424096	16875.502667	1705.640625	219.285736
19444.424096	16875.502667	1704.621094	159.923553
19444.424096	16875.502667	1703.600586	156.765900
19444.424096	16875.502667	1702.581055	319.938019
19444.424096	16875.502667	1701.561523	286.172150
19444.424096	16875.502667	1700.541016	-190.392548
19444.424096	16875.502667	1699.520508	108.398773
19444.424096	16875.502667	1698.500000	329.740082
19444.424096	16875.502667	1697.478516	377.678650
19444.424096	16875.502667	1696.458008	221.900970
19444.424096	16875.502667	1695.436523	150.366241
19444.424096	16875.502667	1694.415039	277.687592
19444.424096	16875.502667	1693.393555	348.755280
19444.424096	16875.502667	1692.372070	237.299484
19444.424096	16875.502667	1691.349609	195.976593
19444.424096	16875.502667	1690.327148	276.191986
19444.424096	16875.502667	1689.304688	230.088898
19444.424096	16875.502667	1688.282227	455.058655
19444.424096	16875.502667	1687.259766	614.459351
19444.424096	16875.502667	1686.236328	364.891541
19444.424096	16875.502667	1685.213867	341.948181
19444.424096	16875.502667	1684.190430	585.182190
19444.424096	16875.502667	1683.166016	447.673157
19444.424096	16875.502667	1682.142578	466.582794
19444.424096	16875.502667	1681.119141	513.442261
19444.424096	16875.502667	1680.094727	504.218964
19444.424096	16875.502667	1679.070313	340.965424
19444.424096	16875.502667	1678.045898	450.647247
19444.424096	16875.502667	1677.020508	697.830383
19444.424096	16875.502667	1675.996094	613.769897
19444.424096	16875.502667	1674.970703	702.204407
19444.424096	16875.502667	1673.945313	564.464966
19444.424096	16875.502667	1672.919922	620.157776
19444.424096	16875.502667	1671.893555	813.243225
19444.424096	16875.502667	1670.868164	850.143799
19444.424096	16875.502667	1669.841797	817.105469
19444.424096	16875.502667	1668.815430	669.936157
19444.424096	16875.502667	1667.789063	518.126953
19444.424096	16875.502667	1666.761719	831.869385
19444.424096	16875.502667	1665.735352	696.297302
19444.424096	16875.502667	1664.708008	865.544128
19444.424096	16875.502667	1663.680664	804.375854
19444.424096	16875.502667	1662.653320	1054.868652
19444.424096	16875.502667	1661.625000	1061.043945
19444.424096	16875.502667	1660.597656	1195.066284
19444.424096	16875.502667	1659.569336	1140.703491
19444.424096	16875.502667	1658.541016	853.915222
19444.424096	16875.502667	1657.512695	1106.296997
19444.424096	16875.502667	1656.483398	1140.156494
19444.424096	16875.502667	1655.455078	1074.102539
19444.424096	16875.502667	1654.425781	1008.033020
19444.424096	16875.502667	1653.396484	995.363464
19444.424096	16875.502667	1652.366211	1087.124146
19444.424096	16875.502667	1651.336914	1127.770142
19444.424096	16875.502667	1650.306641	1156.760132
19444.424096	16875.502667	1649.276367	1023.307922
19444.424096	16875.502667	1648.246094	1001.224121
19444.424096	16875.502667	1647.215820	1030.146118
19444.424096	16875.502667	1646.185547	1239.895386
19444.424096	16875.502667	1645.154297	1206.110229
19444.424096	16875.502667	1644.123047	1322.977295
19444.424096	16875.502667	1643.091797	1270.607666
19444.424096	16875.502667	1642.060547	1220.555176
19444.424096	16875.502667	1641.028320	1274.736450
19444.424096	16875.502667	1639.997070	1294.146973
19444.424096	16875.502667	1638.964844	1188.480591
19444.424096	16875.502667	1637.931641	1569.009766
19444.424096	16875.502667	1636.899414	1551.257202
19444.424096	16875.502667	1635.867188	1565.897461
19444.424096	16875.502667	1634.833984	1700.825806
19444.424096	16875.502667	1633.800781	1652.934937
19444.424096	16875.502667	1632.767578	1579.608643
19444.424096	16875.502667	1631.734375	1369.865356
19444.424096	16875.502667	1630.700195	1432.999878
19444.424096	16875.502667	1629.666016	1264.944824
19444.424096	16875.502667	1628.631836	1346.546997
19444.424096	16875.502667	1627.597656	1349.547363
19444.424096	16875.502667	1626.563477	1465.740967
19444.424096	16875.502667	1625.528320	1623.449829
19444.424096	16875.502667	1624.493164	1400.057739
19444.424096	16875.502667	1623.458008	1396.089233
19444.424096	16875.502667	1622.422852	1396.737549
19444.424096	16875.502667	1621.387695	1505.858032
19444.424096	16875.502667	1620.351563	1333.409668
19444.424096	16875.502667	1619.315430	1364.049683
19444.424096	16875.502667	1618.279297	1604.579834
19444.424096	16875.502667	1617.243164	1409.155273
19444.424096	16875.502667	1616.207031	1462.825928
19444.424096	16875.502667	1615.169922	1537.217529
19444.424096	16875.502667	1614.132813	1611.585938
19444.424096	16875.502667	1613.095703	1796.539673
19444.424096	16875.502667	1612.058594	1810.938965
19444.424096	16875.502667	1611.020508	1836.848022
19444.424096	16875.502667	1609.983398	1947.977173
19444.424096	16875.502667	1608.945313	1971.565430
19444.424096	16875.502667	1607.907227	1870.840210
19444.424096	16875.502667	1606.868164	2046.357178
19444.424096	16875.502667	1605.830078	1733.968018
19444.424096	16875.502667	1604.791016	1828.941040
19444.424096	16875.502667	1603.751953	1774.371094
19444.424096	16875.502667	1602.712891	2184.413330
19444.424096	16875.502667	1601.673828	2325.278564
19444.424096	16875.502667	1600.633789	2004.000244
19444.424096	16875.502667	1599.594727	2085.118896
19444.424096	16875.502667	1598.554688	2026.031372
19444.424096	16875.502667	1597.513672	2192.146729
19444.424096	16875.502667	1596.473633	2257.151123
19444.424096	16875.502667	1595.433594	2211.907959
19444.424096	16875.502667	1594.392578	2123.065918
19444.424096	16875.502667	1593.351563	1960.815918
19444.424096	16875.502667	1592.310547	1895.059448
19444.424096	16875.502667	1591.268555	1788.036987
19444.424096	16875.502667	1590.227539	1782.049438
19444.424096	16875.502667	1589.185547	1757.729370
19444.424096	16875.502667	1588.143555	1765.557861
19444.424096	16875.502667	1587.100586	1727.540894
19444.424096	16875.502667	1586.058594	1788.163208
19444.424096	16875.502667	1585.015625	1605.805176
19444.424096	16875.502667	1583.972656	1907.121704
19444.424096	16875.502667	1582.929688	1896.728882
19444.424096	16875.502667	1581.886719	1877.208740
19444.424096	16875.502667	1580.843750	1832.536499
19444.424096	16875.502667	1579.799805	1941.338989
19444.424096	16875.502667	1578.755859	1990.607422
19444.424096	16875.502667	1577.711914	1891.099609
19444.424096	16875.502667	1576.666992	1967.888550
19444.424096	16875.502667	1575.623047	1868.501709
19444.424096	16875.502667	1574.578125	1943.055908
19444.424096	16875.502667	1573.533203	1859.796387
19444.424096	16875.502667	1572.488281	1616.529541
19444.424096	16875.502667	1571.443359	1775.811768
19444.424096	16875.502667	1570.397461	1589.883423
19444.424096	16875.502667	1569.351563	1481.780396
19444.424096	16875.502667	1568.305664	1552.000732
19444.424096	16875.502667	1567.259766	1409.768555
19444.424096	16875.502667	1566.213867	1320.175781
19444.424096	16875.502667	1565.166992	1205.535889
19444.424096	16875.502667	1564.120117	1472.298706
19444.424096	16875.502667	1563.073242	1184.276489
19444.424096	16875.502667	1562.026367	1168.020874
19444.424096	16875.502667	1560.978516	1293.295898
19444.424096	16875.502667	1559.930664	1240.616577
19444.424096	16875.502667	1558.883789	1085.371582
19444.424096	16875.502667	1557.834961	1041.973755
19444.424096	16875.502667	1556.787109	1137.744385
19444.424096	16875.502667	1555.739258	1165.141846
19444.424096	16875.502667	1554.690430	1069.496582
19444.424096	16875.502667	1553.641602	1201.825562
19444.424096	16875.502667	1552.592773	871.653748
19444.424096	16875.502667	1551.542969	821.845154
19444.424096	16875.502667	1550.494141	1282.273682
19444.424096	16875.502667	1549.444336	1061.745605
19444.424096	16875.502667	1548.394531	964.299988
19444.424096	16875.502667	1547.344727	1024.005737
19444.424096	16875.502667	1546.293945	960.856995
19444.424096	16875.502667	1545.244141	986.536621
19444.424096	16875.502667	1544.193359	775.685547
19444.424096	16875.502667	1543.142578	903.855957
19444.424096	16875.502667	1542.090820	866.040283
19444.424096	16875.502667	1541.040039	962.445190
19444.424096	16875.502667	1539.988281	558.815613
19444.424096	16875.502667	1538.936523	846.262085
19444.424096	16875.502667	1537.884766	622.443420
19444.424096	16875.502667	1536.833008	546.438416
19444.424096	16875.502667	1535.780273	416.017181
19444.424096	16875.502667	1534.727539	882.921753
19444.424096	16875.502667	1533.674805	507.433929
19444.424096	16875.502667	1532.622070	533.928406
19444.424096	16875.502667	1531.569336	478.785675
19444.424096	16875.502667	1530.515625	564.406067
19444.424096	16875.502667	1529.461914	532.103455
19444.424096	16875.502667	1528.408203	447.722229
19444.424096	16875.502667	1527.354492	472.293182
19444.424096	16875.502667	1526.299805	544.534302
19444.424096	16875.502667	1525.246094	333.489960
19444.424096	16875.502667	1524.191406	446.674652
19444.424096	16875.502667	1523.136719	593.879395
19444.424096	16875.502667	1522.081055	285.758942
19444.424096	16875.502667	1521.026367	247.368698
19444.424096	16875.502667	1519.970703	385.695496
19444.424096	16875.502667	1518.915039	272.740875
19444.424096	16875.502667	1517.859375	243.663559
19444.424096	16875.502667	1516.802734	180.725128
19444.424096	16875.502667	1515.747070	221.981140
19444.424096	16875.502667	1514.690430	319.852783
19444.424096	16875.502667	1513.633789	370.270844
19444.424096	16875.502667	1512.577148	343.865692
19444.424096	16875.502667	1511.519531	340.159027
19444.424096	16875.502667	1510.461914	325.234711
19444.424096	16875.502667	1509.405273	172.546432
19444.424096	16875.502667	1508.346680	223.352173
19444.424096	16875.502667	1507.289063	77.686806
19444.424096	16875.502667	1506.231445	13.476452
19444.424096	16875.502667	1505.172852	154.869247
19444.424096	16875.502667	1504.114258	29.877220
19444.424096	16875.502667	1503.055664	99.151184
19444.424096	16875.502667	1501.996094	378.367798
19444.424096	16875.502667	1500.937500	314.592957
19444.424096	16875.502667	1499.877930	316.349609
19444.424096	16875.502667	1498.818359	430.970612
19444.424096	16875.502667	1497.757813	556.907349
19444.424096	16875.502667	1496.698242	579.175232
19444.424096	16875.502667	1495.637695	565.454102
19444.424096	16875.502667	1494.577148	614.932861
19444.424096	16875.502667	1493.516602	547.313049
19444.424096	16875.502667	1492.456055	768.173096
19444.424096	16875.502667	1491.394531	698.477600
19444.424096	16875.502667	1490.333008	1002.721741
19444.424096	16875.502667	1489.271484	903.923401
19444.424096	16875.502667	1488.209961	737.725403
19444.424096	16875.502667	1487.148438	695.469910
19444.424096	16875.502667	1486.085938	507.062256
19444.424096	16875.502667	1485.023438	487.549927
19444.424096	16875.502667	1483.960938	490.633362
19444.424096	16875.502667	1482.898438	354.385101
19444.424096	16875.502667	1481.834961	290.235229
19444.424096	16875.502667	1480.772461	475.720795
19444.424096	16875.502667	1479.708984	238.713608
19444.424096	16875.502667	1478.644531	233.333267
19444.424096	16875.502667	1477.581055	212.376053
19444.424096	16875.502667	1476.517578	-129.637970
19444.424096	16875.502667	1475.453125	-69.536972
19444.424096	16875.502667	1474.388672	40.032200
19444.424096	16875.502667	1473.323242	-162.211609
19444.424096	16875.502667	1472.258789	-202.736755
19444.424096	16875.502667	1471.193359	43.833813
19444.424096	16875.502667	1470.127930	-56.865891
19444.424096	16875.502667	1469.062500	-63.735146
19444.424096	16875.502667	1467.997070	-52.255276
19444.424096	16875.502667	1466.930664	-11.626838
19444.424096	16875.502667	1465.865234	33.540016
19444.424096	16875.502667	1464.798828	262.318726
19444.424096	16875.502667	1463.731445	25.821970
19444.424096	16875.502667	1462.665039	78.059135
19444.424096	16875.502667	1461.597656	99.016296
19444.424096	16875.502667	1460.530273	84.016983
19444.424096	16875.502667	1459.462891	-102.470001
19444.424096	16875.502667	1458.395508	77.919662
19444.424096	16875.502667	1457.327148	-1.810713
19444.424096	16875.502667	1456.259766	17.705500
19444.424096	16875.502667	1455.191406	-3.328738
19444.424096	16875.502667	1454.123047	27.433903
19444.424096	16875.502667	1453.053711	40.371105
19444.424096	16875.502667	1451.985352	103.281334
19444.424096	16875.502667	1450.916016	36.492287
19444.424096	16875.502667	1449.846680	180.144836
19444.424096	16875.502667	1448.776367	156.661911
19444.424096	16875.502667	1447.707031	290.915436
19444.424096	16875.502667	1446.636719	24.412506
19444.424096	16875.502667	1445.566406	313.673492
19444.424096	16875.502667	1444.496094	252.489349
19444.424096	16875.502667	1443.425781	129.496719
19444.424096	16875.502667	1442.354492	232.488220
19444.424096	16875.502667	1441.283203	55.004284
19444.424096	16875.502667	1440.211914	576.419800
19444.424096	16875.502667	1439.140625	462.569733
19444.424096	16875.502667	1438.069336	330.631592
19444.424096	16875.502667	1436.997070	421.647491
19444.424096	16875.502667	1435.924805	443.652466
19444.424096	16875.502667	1434.852539	248.640518
19444.424096	16875.502667	1433.780273	553.717041
19444.424096	16875.502667	1432.707031	563.413574
19444.424096	16875.502667	1431.633789	347.965057
19444.424096	16875.502667	1430.560547	435.507050
19444.424096	16875.502667	1429.487305	446.282532
19444.424096	16875.502667	1428.413086	293.297150
19444.424096	16875.502667	1427.339844	213.089996
19444.424096	16875.502667	1426.265625	584.185242
19444.424096	16875.502667	1425.191406	408.640381
19444.424096	16875.502667	1424.116211	434.655701
19444.424096	16875.502667	1423.041992	431.532257
19444.424096	16875.502667	1421.966797	535.703125
19444.424096	16875.502667	1420.891602	656.637451
19444.424096	16875.502667	1419.816406	741.593933
19444.424096	16875.502667	1418.740234	708.737976
19444.424096	16875.502667	1417.665039	766.078674
19444.424096	16875.502667	1416.588867	700.550110
19444.424096	16875.502667	1415.512695	948.236084
19444.424096	16875.502667	1414.435547	1046.663818
19444.424096	16875.502667	1413.359375	1333.365112
19444.424096	16875.502667	1412.282227	1374.165283
19444.424096	16875.502667	1411.205078	1499.476074
19444.424096	16875.502667	1410.127930	1545.587891
19444.424096	16875.502667	1409.049805	1345.476929
19444.424096	16875.502667	1407.972656	1623.173828
19444.424096	16875.502667	1406.894531	1560.632813
19444.424096	16875.502667	1405.816406	1531.806885
19444.424096	16875.502667	1404.737305	1622.786621
19444.424096	16875.502667	1403.659180	1750.395020
19444.424096	16875.502667	1402.580078	2040.371948
19444.424096	16875.502667	1401.500977	1988.552124
19444.424096	16875.502667	1400.421875	2021.008423
19444.424096	16875.502667	1399.341797	1967.146118
19444.424096	16875.502667	1398.262695	1887.884033
19444.424096	16875.502667	1397.182617	1965.013794
19444.424096	16875.502667	1396.102539	1995.021729
19444.424096	16875.502667	1395.021484	1843.293091
19444.424096	16875.502667	1393.941406	1790.234253
19444.424096	16875.502667	1392.860352	1401.479126
19444.424096	16875.502667	1391.779297	1483.392822
19444.424096	16875.502667	1390.698242	1475.058960
19444.424096	16875.502667	1389.616211	1349.234863
19444.424096	16875.502667	1388.535156	939.440735
19444.424096	16875.502667	1387.453125	1135.380371
19444.424096	16875.502667	1386.371094	872.168457
19444.424096	16875.502667	1385.288086	1026.541382
19444.424096	16875.502667	1384.206055	853.840576
19444.424096	16875.502667	1383.123047	689.439636
19444.424096	16875.502667	1382.040039	818.127747
19444.424096	16875.502667	1380.957031	725.131836
19444.424096	16875.502667	1379.873047	668.067627
19444.424096	16875.502667	1378.789063	655.148682
19444.424096	16875.502667	1377.705078	858.435181
19444.424096	16875.502667	1376.621094	709.901123
19444.424096	16875.502667	1375.537109	691.953308
19444.424096	16875.502667	1374.452148	685.043640
19444.424096	16875.502667	1373.367188	781.521057
19444.424096	16875.502667	1372.282227	753.445679
19444.424096	16875.502667	1371.197266	753.538513
19444.424096	16875.502667	1370.112305	701.678101
19444.424096	16875.502667	1369.026367	692.074402
19444.424096	16875.502667	1367.940430	876.983276
19444.424096	16875.502667	1366.854492	897.945190
19444.424096	16875.502667	1365.767578	961.061035
19444.424096	16875.502667	1364.681641	929.224121
19444.424096	16875.502667	1363.594727	978.374146
19444.424096	16875.502667	1362.507813	1137.266602
19444.424096	16875.502667	1361.419922	875.486877
19444.424096	16875.502667	1360.333008	1175.172974
19444.424096	16875.502667	1359.245117	736.454468
19444.424096	16875.502667	1358.157227	1090.942993
19444.424096	16875.502667	1357.069336	1106.749390
19444.424096	16875.502667	1355.981445	1101.825928
19444.424096	16875.502667	1354.892578	1040.231445
19444.424096	16875.502667	1353.803711	1119.331055
19444.424096	16875.502667	1352.714844	1109.774536
19444.424096	16875.502667	1351.625000	1042.429077
19444.424096	16875.502667	1350.536133	983.024292
19444.424096	16875.502667	1349.446289	980.194885
19444.424096	16875.502667	1348.356445	876.460876
19444.424096	16875.502667	1347.266602	803.487732
19444.424096	16875.502667	1346.175781	890.647034
19444.424096	16875.502667	1345.085938	825.094177
19444.424096	16875.502667	1343.995117	701.845459
19444.424096	16875.502667	1342.903320	865.894592
19444.424096	16875.502667	1341.812500	920.701294
19444.424096	16875.502667	1340.720703	1007.006836
19444.424096	16875.502667	1339.629883	868.057800
19444.424096	16875.502667	1338.538086	723.291016
19444.424096	16875.502667	1337.445313	826.312439
19444.424096	16875.502667	1336.353516	669.390808
19444.424096	16875.502667	1335.260742	592.345032
19444.424096	16875.502667	1334.167969	832.296936
19444.424096	16875.502667	1333.075195	742.282959
19444.424096	16875.502667	1331.981445	394.473236
19444.424096	16875.502667	1330.888672	675.834167
19444.424096	16875.502667	1329.794922	542.657898
19444.424096	16875.502667	1328.701172	584.494629
19444.424096	16875.502667	1327.606445	495.993286
19444.424096	16875.502667	1326.512695	517.341370
19444.424096	16875.502667	1325.417969	447.528839
19444.424096	16875.502667	1324.323242	535.036316
19444.424096	16875.502667	1323.227539	373.140717
19444.424096	16875.502667	1322.132813	466.269531
19444.424096	16875.502667	1321.037109	459.555573
19444.424096	16875.502667	1319.941406	512.138428
19444.424096	16875.502667	1318.845703	559.643494
19444.424096	16875.502667	1317.750000	496.002533
19444.424096	16875.502667	1316.653320	514.586670
19444.424096	16875.502667	1315.556641	531.283325
19444.424096	16875.502667	1314.459961	485.831085
19444.424096	16875.502667	1313.363281	630.967529
19444.424096	16875.502667	1312.265625	741.057983
19444.424096	16875.502667	1311.167969	642.224060
19444.424096	16875.502667	1310.070313	591.039307
19444.424096	16875.502667	1308.972656	570.746155
19444.424096	16875.502667	1307.874023	509.290222
19444.424096	16875.502667	1306.776367	709.830994
19444.424096	16875.502667	1305.677734	778.875610
19444.424096	16875.502667	1304.579102	930.773010
19444.424096	16875.502667	1303.479492	608.842896
19444.424096	16875.502667	1302.380859	814.006226
19444.424096	16875.502667	1301.281250	707.508667
19444.424096	16875.502667	1300.181641	789.849365
19444.424096	16875.502667	1299.081055	680.487000
19444.424096	16875.502667	1297.981445	576.226807
19444.424096	16875.502667	1296.880859	625.807068
19444.424096	16875.502667	1295.780273	647.266785
19444.424096	16875.502667	1294.679688	422.974396
19444.424096	16875.502667	1293.578125	339.119110
19444.424096	16875.502667	1292.476563	346.170532
19444.424096	16875.502667	1291.375000	239.997055
19444.424096	16875.502667	1290.273438	348.121429
19444.424096	16875.502667	1289.171875	307.778259
19444.424096	16875.502667	1288.069336	193.356216
19444.424096	16875.502667	1286.966797	265.209442
19444.424096	16875.502667	1285.864258	207.554962
19444.424096	16875.502667	1284.761719	110.273949
19444.424096	16875.502667	1283.658203	102.876221
19444.424096	16875.502667	1282.554688	52.310539
19444.424096	16875.502667	1281.451172	204.875031
19444.424096	16875.502667	1280.347656	199.402954
19444.424096	16875.502667	1279.244141	204.531311
19444.424096	16875.502667	1278.139648	197.248596
19444.424096	16875.502667	1277.035156	128.468277
19444.424096	16875.502667	1275.930664	126.121284
19444.424096	16875.502667	1274.825195	318.523346
19444.424096	16875.502667	1273.720703	184.270401
19444.424096	16875.502667	1272.615234	19.517111
19444.424096	16875.502667	1271.508789	138.238419
19444.424096	16875.502667	1270.403320	161.537964
19444.424096	16875.502667	1269.297852	107.692451
19444.424096	16875.502667	1268.191406	201.924011
19444.424096	16875.502667	1267.084961	170.585327
19444.424096	16875.502667	1265.977539	92.880020
19444.424096	16875.502667	1264.871094	32.687897
19444.424096	16875.502667	1263.763672	-47.435684
19444.424096	16875.502667	1262.656250	-27.879292
19444.424096	16875.502667	1261.548828	51.087837
19444.424096	16875.502667	1260.440430	234.276810
19444.424096	16875.502667	1259.333008	-55.840923
19444.424096	16875.502667	1258.224609	-44.128769
19444.424096	16875.502667	1257.115234	-78.665489
19444.424096	16875.502667	1256.006836	-33.042217
19444.424096	16875.502667	1254.897461	165.323044
19444.424096	16875.502667	1253.788086	7.385371
19444.424096	16875.502667	1252.678711	23.712442
19444.424096	16875.502667	1251.569336	-154.677856
19444.424096	16875.502667	1250.458984	-71.225243
19444.424096	16875.502667	1249.349609	8.669438
19444.424096	16875.502667	1248.239258	83.304153
19444.424096	16875.502667	1247.127930	158.706604
19444.424096	16875.502667	1246.017578	101.666328
19444.424096	16875.502667	1244.906250	179.395432
19444.424096	16875.502667	1243.794922	185.069595
19444.424096	16875.502667	1242.683594	117.358093
19444.424096	16875.502667	1241.571289	96.890625
19444.424096	16875.502667	1240.459961	63.526012
19444.424096	16875.502667	1239.347656	28.111191
19444.424096	16875.502667	1238.234375	50.462929
19444.424096	16875.502667	1237.122070	125.052330
19444.424096	16875.502667	1236.008789	83.983208
19444.424096	16875.502667	1234.896484	73.909271
19444.424096	16875.502667	1233.782227	56.044216
19444.424096	16875.502667	1232.668945	-182.201889
19444.424096	16875.502667	1231.555664	-35.890713
19444.424096	16875.502667	1230.441406	-154.326096
19444.424096	16875.502667	1229.327148	-186.396805
19444.424096	16875.502667	1228.211914	-94.895958
19444.424096	16875.502667	1227.097656	-56.792873
19444.424096	16875.502667	1225.982422	12.946012
19444.424096	16875.502667	1224.867188	12.782510
19444.424096	16875.502667	1223.751953	91.319550
19444.424096	16875.502667	1222.635742	43.567757
19444.424096	16875.502667	1221.520508	32.774628
19444.424096	16875.502667	1220.404297	94.238373
19444.424096	16875.502667	1219.287109	92.226967
19444.424096	16875.502667	1218.170898	270.818024
19444.424096	16875.502667	1217.053711	233.910294
19444.424096	16875.502667	1215.936523	137.066269
19444.424096	16875.502667	1214.819336	232.562714
19444.424096	16875.502667	1213.702148	99.871742
19444.424096	16875.502667	1212.583984	9.090881
19444.424096	16875.502667	1211.465820	-54.692966
19444.424096	16875.502667	1210.347656	126.216927
19444.424096	16875.502667	1209.229492	-6.727830
19444.424096	16875.502667	1208.110352	60.035118
19444.424096	16875.502667	1206.992188	-44.151787
19444.424096	16875.502667	1205.873047	-48.478733
19444.424096	16875.502667	1204.752930	-68.501945
19444.424096	16875.502667	1203.633789	14.683603
19444.424096	16875.502667	1202.513672	-18.540070
19444.424096	16875.502667	1201.393555	-85.533203
19444.424096	16875.502667	1200.273438	-87.620506
19444.424096	16875.502667	1199.152344	-62.787548
19444.424096	16875.502667	1198.032227	-244.674088
19444.424096	16875.502667	1196.911133	-92.718498
19444.424096	16875.502667	1195.790039	-156.884460
19444.424096	16875.502667	1194.667969	-111.836281
19444.424096	16875.502667	1193.545898	-116.859848
19444.424096	16875.502667	1192.424805	-106.629669
19444.424096	16875.502667	1191.301758	-149.260818
19444.424096	16875.502667	1190.179688	-186.323715
19444.424096	16875.502667	1189.056641	-159.462967
19444.424096	16875.502667	1187.933594	10.670391
19444.424096	16875.502667	1186.810547	-106.976822
19444.424096	16875.502667	1185.687500	-155.207779
19444.424096	16875.502667	1184.563477	-68.069702
19444.424096	16875.502667	1183.440430	3.070585
19444.424096	16875.502667	1182.316406	-20.746172
19444.424096	16875.502667	1181.191406	-96.685486
19444.424096	16875.502667	1180.067383	-17.046682
19444.424096	16875.502667	1178.942383	5.924762
19444.424096	16875.502667	1177.817383	160.870987
19444.424096	16875.502667	1176.692383	68.592377
19444.424096	16875.502667	1175.566406	40.369728
19444.424096	16875.502667	1174.440430	-4.201623
19444.424096	16875.502667	1173.314453	58.542980
19444.424096	16875.502667	1172.188477	178.693985
19444.424096	16875.502667	1171.062500	117.796928
19444.424096	16875.502667	1169.935547	131.321945
19444.424096	16875.502667	1168.808594	99.505165
19444.424096	16875.502667	1167.681641	223.313019
19444.424096	16875.502667	1166.553711	51.265408
19444.424096	16875.502667	1165.426758	12.930833
19444.424096	16875.502667	1164.298828	11.378743
19444.424096	16875.502667	1163.170898	-30.188797
19444.424096	16875.502667	1162.041992	9.348632
19444.424096	16875.502667	1160.914063	99.386887
19444.424096	16875.502667	1159.785156	46.527466
19444.424096	16875.502667	1158.656250	3.447167
19444.424096	16875.502667	1157.526367	-94.357697
19444.424096	16875.502667	1156.397461	138.051926
19444.424096	16875.502667	1155.267578	70.275406
19444.424096	16875.502667	1154.137695	190.535553
19444.424096	16875.502667	1153.006836	87.253395
19444.424096	16875.502667	1151.876953	97.625061
19444.424096	16875.502667	1150.746094	47.012424
19444.424096	16875.502667	1149.615234	100.178467
19444.424096	16875.502667	1148.484375	115.824089
19444.424096	16875.502667	1147.352539	89.504990
19444.424096	16875.502667	1146.220703	52.809441
19444.424096	16875.502667	1145.088867	-35.727638
19444.424096	16875.502667	1143.957031	-26.037159
19444.424096	16875.502667	1142.825195	119.943146
19444.424096	16875.502667	1141.692383	4.090147
19444.424096	16875.502667	1140.559570	-61.898342
19444.424096	16875.502667	1139.426758	-104.769608
19444.424096	16875.502667	1138.292969	17.869751
19444.424096	16875.502667	1137.159180	-10.270633
19444.424096	16875.502667	1136.025391	143.755341
19444.424096	16875.502667	1134.891602	68.523628
19444.424096	16875.502667	1133.757813	21.394403
19444.424096	16875.502667	1132.623047	178.083206
19444.424096	16875.502667	1131.488281	116.050827
19444.424096	16875.502667	1130.353516	109.374245
19444.424096	16875.502667	1129.217773	88.998405
19444.424096	16875.502667	1128.083008	258.228180
19444.424096	16875.502667	1126.947266	88.400925
19444.424096	16875.502667	1125.811523	99.361359
19444.424096	16875.502667	1124.674805	174.069977
19444.424096	16875.502667	1123.539063	-24.156359
19444.424096	16875.502667	1122.402344	2.202062
19444.424096	16875.502667	1121.265625	106.849525
19444.424096	16875.502667	1120.127930	-37.230164
19444.424096	16875.502667	1118.990234	41.039425
19444.424096	16875.502667	1117.853516	97.522949
19444.424096	16875.502667	1116.714844	63.423840
19444.424096	16875.502667	1115.577148	5.853883
19444.424096	16875.502667	1114.439453	56.261684
19444.424096	16875.502667	1113.300781	-67.519508
19444.424096	16875.502667	1112.162109	-68.508736
19444.424096	16875.502667	1111.022461	-43.130619
19444.424096	16875.502667	1109.883789	33.403255
19444.424096	16875.502667	1108.744141	-45.728943
19444.424096	16875.502667	1107.604492	-8.853729
19444.424096	16875.502667	1106.463867	90.867844
19444.424096	16875.502667	1105.324219	-1.691548
19444.424096	16875.502667	1104.183594	-32.455540
19444.424096	16875.502667	1103.042969	-3.175297
19444.424096	16875.502667	1101.902344	92.169647
19444.424096	16875.502667	1100.760742	65.312622
19444.424096	16875.502667	1099.619141	-0.179056
19444.424096	16875.502667	1098.477539	147.817627
19444.424096	16875.502667	1097.335938	170.253815
19444.424096	16875.502667	1096.193359	261.355896
19444.424096	16875.502667	1095.051758	364.225708
19444.424096	16875.502667	1093.909180	349.154907
19444.424096	16875.502667	1092.765625	373.877686
19444.424096	16875.502667	1091.623047	265.230560
19444.424096	16875.502667	1090.479492	170.820343
19444.424096	16875.502667	1089.335938	396.830902
19444.424096	16875.502667	1088.192383	148.317947
19444.424096	16875.502667	1087.047852	101.095505
19444.424096	16875.502667	1085.903320	204.651260
19444.424096	16875.502667	1084.758789	125.543839
19444.424096	16875.502667	1083.614258	161.026199
19444.424096	16875.502667	1082.469727	135.988022
19444.424096	16875.502667	1081.324219	47.901413
19444.424096	16875.502667	1080.178711	-48.199844
19444.424096	16875.502667	1079.033203	19.650110
19444.424096	16875.502667	1077.886719	106.546341
19444.424096	16875.502667	1076.740234	228.166306
19444.424096	16875.502667	1075.593750	62.900661
19444.424096	16875.502667	1074.447266	151.590317
19444.424096	16875.502667	1073.300781	49.246078
19444.424096	16875.502667	1072.153320	176.634735
19444.424096	16875.502667	1071.005859	315.960297
19444.424096	16875.502667	1069.858398	250.843918
19444.424096	16875.502667	1068.709961	156.956604
19444.424096	16875.502667	1067.561523	175.348175
19444.424096	16875.502667	1066.413086	218.879089
19444.424096	16875.502667	1065.264648	269.454681
19444.424096	16875.502667	1064.116211	198.909058
19444.424096	16875.502667	1062.966797	72.415039
19444.424096	16875.502667	1061.817383	46.989391
19444.424096	16875.502667	1060.667969	161.118561
19444.424096	16875.502667	1059.517578	148.951843
19444.424096	16875.502667	1058.368164	171.042542
19444.424096	16875.502667	1057.217773	0.626579
19444.424096	16875.502667	1056.067383	-51.717545
19444.424096	16875.502667	1054.916016	74.546059
19444.424096	16875.502667	1053.764648	-61.726707
19444.424096	16875.502667	1052.613281	21.378361
19444.424096	16875.502667	1051.461914	-43.987236
19444.424096	16875.502667	1050.310547	90.368050
19444.424096	16875.502667	1049.158203	-14.346210
19444.424096	16875.502667	1048.005859	-22.906742
19444.424096	16875.502667	1046.853516	136.262772
19444.424096	16875.502667	1045.700195	120.636475
19444.424096	16875.502667	1044.547852	219.306549
19444.424096	16875.502667	1043.394531	286.796295
19444.424096	16875.502667	1042.240234	170.700516
19444.424096	16875.502667	1041.086914	109.162361
19444.424096	16875.502667	1039.932617	33.560425
19444.424096	16875.502667	1038.778320	233.075272
19444.424096	16875.502667	1037.624023	209.869186
19444.424096	16875.502667	1036.469727	186.168900
19444.424096	16875.502667	1035.314453	225.110413
19444.424096	16875.502667	1034.159180	356.368561
19444.424096	16875.502667	1033.003906	239.872253
19444.424096	16875.502667	1031.847656	267.415588
19444.424096	16875.502667	1030.692383	395.613983
19444.424096	16875.502667	1029.536133	288.068146
19444.424096	16875.502667	1028.378906	317.705933
19444.424096	16875.502667	1027.222656	388.904633
19444.424096	16875.502667	1026.065430	187.628082
19444.424096	16875.502667	1024.908203	414.709595
19444.424096	16875.502667	1023.750977	180.163986
19444.424096	16875.502667	1022.593750	244.811783
19444.424096	16875.502667	1021.435547	50.429291
19444.424096	16875.502667	1020.277344	172.500305
19444.424096	16875.502667	1019.119141	125.582634
19444.424096	16875.502667	1017.959961	96.334358
19444.424096	16875.502667	1016.800781	-14.463776
19444.424096	16875.502667	1015.641602	-3.196319
19444.424096	16875.502667	1014.482422	-46.770298
19444.424096	16875.502667	1013.323242	106.280319
19444.424096	16875.502667	1012.163086	264.519714
19444.424096	16875.502667	1011.002930	-30.854225
19444.424096	16875.502667	1009.842773	98.031769
19444.424096	16875.502667	1008.681641	-67.586327
19444.424096	16875.502667	1007.520508	21.193575
19444.424096	16875.502667	1006.359375	96.693939
19444.424096	16875.502667	1005.198242	170.411087
19444.424096	16875.502667	1004.037109	110.072746
19444.424096	16875.502667	1002.875000	172.156021
19444.424096	16875.502667	1001.712891	67.702736
19444.424096	16875.502667	1000.550781	75.801018
19444.424096	16875.502667	999.387695	-52.224487
19444.424096	16875.502667	998.224609	86.716988
19444.424096	16875.502667	997.061523	89.837570
19444.424096	16875.502667	995.898438	33.690205
19444.424096	16875.502667	994.734375	46.099457
19444.424096	16875.502667	993.571289	160.190262
19444.424096	16875.502667	992.407227	133.188644
19444.424096	16875.502667	991.242188	150.856461
19444.424096	16875.502667	990.078125	290.708466
19444.424096	16875.502667	988.913086	311.711731
19444.424096	16875.502667	987.748047	71.812714
19444.424096	16875.502667	986.583008	-76.455177
19444.424096	16875.502667	985.416992	15.069360
19444.424096	16875.502667	984.250977	148.516418
19444.424096	16875.502667	983.084961	57.135239
19444.424096	16875.502667	981.918945	-27.142334
19444.424096	16875.502667	980.751953	-88.343575
19444.424096	16875.502667	979.584961	59.497650
19444.424096	16875.502667	978.417969	-90.510056
19444.424096	16875.502667	977.250977	-82.407509
19444.424096	16875.502667	976.083008	-153.855850
19444.424096	16875.502667	974.915039	12.149200
19444.424096	16875.502667	973.747070	48.458443
19444.424096	16875.502667	972.579102	-49.715031
19444.424096	16875.502667	971.410156	-68.433830
19444.424096	16875.502667	970.242188	-67.347549
19444.424096	16875.502667	969.072266	49.455128
19444.424096	16875.502667	967.903320	0.641407
19444.424096	16875.502667	966.733398	-124.104668
19444.424096	16875.502667	965.563477	-78.613609
19444.424096	16875.502667	964.393555	-96.713341
19444.424096	16875.502667	963.223633	23.082647
19444.424096	16875.502667	962.052734	-31.071629
19444.424096	16875.502667	960.881836	-84.859146
19444.424096	16875.502667	959.710938	-88.790451
19444.424096	16875.502667	958.540039	-14.307760
19444.424096	16875.502667	957.368164	-92.818657
19444.424096	16875.502667	956.196289	-19.578310
19444.424096	16875.502667	955.024414	-46.318970
19444.424096	16875.502667	953.851563	-76.670944
19444.424096	16875.502667	952.679688	-123.736397
19444.424096	16875.502667	951.506836	-176.779068
19444.424096	16875.502667	950.333984	68.289703
19444.424096	16875.502667	949.160156	133.659836
19444.424096	16875.502667	947.986328	14.662203
19444.424096	16875.502667	946.812500	45.805759
19444.424096	16875.502667	945.638672	12.906088
19444.424096	16875.502667	944.464844	-56.559113
19444.424096	16875.502667	943.290039	-19.438110
19444.424096	16875.502667	942.115234	-107.507370
19444.424096	16875.502667	940.940430	-66.364410
19444.424096	16875.502667	939.764648	3.472539
19444.424096	16875.502667	938.588867	124.973129
19444.424096	16875.502667	937.413086	11.779114
19444.424096	16875.502667	936.237305	-19.076180
19444.424096	16875.502667	935.060547	69.674088
19444.424096	16875.502667	933.883789	238.111938
19444.424096	16875.502667	932.707031	125.065628
19444.424096	16875.502667	931.530273	48.981564
19444.424096	16875.502667	930.352539	-103.078575
19444.424096	16875.502667	929.175781	250.311020
19444.424096	16875.502667	927.998047	336.532349
19444.424096	16875.502667	926.819336	299.453674
19444.424096	16875.502667	925.641602	130.874847
19444.424096	16875.502667	924.462891	-47.904224
19444.424096	16875.502667	923.284180	40.314816
19444.424096	16875.502667	922.104492	-35.760990
19444.424096	16875.502667	920.924805	29.812832
19444.424096	16875.502667	919.746094	35.595058
19444.424096	16875.502667	919.551758	6.003991
19444.424096	16875.502667	918.386719	-111.155167
19444.424096	16875.502667	917.220703	79.408142
19444.424096	16875.502667	916.054688	3.270274
19444.424096	16875.502667	914.887695	115.790504
19444.424096	16875.502667	913.721680	56.044399
19444.424096	16875.502667	912.554688	-67.224167
19444.424096	16875.502667	911.387695	8.308262
19444.424096	16875.502667	910.220703	-133.370956
19444.424096	16875.502667	909.052734	-188.973907
19444.424096	16875.502667	907.885742	-76.647560
19444.424096	16875.502667	906.717773	-107.700951
19444.424096	16875.502667	905.548828	-79.387978
19444.424096	16875.502667	904.380859	73.739189
19444.424096	16875.502667	903.211914	5.799164
19444.424096	16875.502667	902.042969	115.857674
19444.424096	16875.502667	900.874023	-103.453415
19444.424096	16875.502667	899.704102	88.355797
19444.424096	16875.502667	898.535156	59.252808
19444.424096	16875.502667	897.365234	-31.173233
19444.424096	16875.502667	896.194336	17.399900
19444.424096	16875.502667	895.024414	102.713219
19444.424096	16875.502667	893.853516	177.765915
19444.424096	16875.502667	892.682617	-82.194534
19444.424096	16875.502667	891.511719	39.802547
19444.424096	16875.502667	890.340820	202.566727
19444.424096	16875.502667	889.168945	269.314301
19444.424096	16875.502667	887.997070	38.061344
19444.424096	16875.502667	886.825195	-131.902161
19444.424096	16875.502667	885.653320	6.226521
19444.424096	16875.502667	884.480469	-12.760225
19444.424096	16875.502667	883.307617	-23.598257
19444.424096	16875.502667	882.134766	55.256332
19444.424096	16875.502667	880.961914	97.373810
19444.424096	16875.502667	879.788086	4.960562
19444.424096	16875.502667	878.614258	-71.131332
19444.424096	16875.502667	877.440430	-100.355064
19444.424096	16875.502667	876.266602	-3.311277
19444.424096	16875.502667	875.091797	-54.964554
19444.424096	16875.502667	873.916992	-55.717663
19444.424096	16875.502667	872.742188	106.345329
19444.424096	16875.502667	871.567383	81.107170
19444.424096	16875.502667	870.391602	47.728188
19444.424096	16875.502667	869.215820	28.585934
19444.424096	16875.502667	868.040039	72.479141
19444.424096	16875.502667	866.864258	140.737793
19444.424096	16875.502667	865.687500	263.844421
19444.424096	16875.502667	864.510742	63.717648
19444.424096	16875.502667	863.333984	207.075104
19444.424096	16875.502667	862.157227	165.476273
19444.424096	16875.502667	860.979492	14.193645
19444.424096	16875.502667	859.802734	-57.846458
19444.424096	16875.502667	858.625000	4.135414
19444.424096	16875.502667	857.446289	43.748463
19444.424096	16875.502667	856.268555	-77.012535
19444.424096	16875.502667	855.089844	25.467697
19444.424096	16875.502667	853.911133	30.509233
19444.424096	16875.502667	852.731445	1.051417
19444.424096	16875.502667	851.552734	115.564728
19444.424096	16875.502667	850.373047	21.184792
19444.424096	16875.502667	849.193359	-85.338562
19444.424096	16875.502667	848.013672	8.802112
19444.424096	16875.502667	846.833008	17.786295
19444.424096	16875.502667	845.652344	109.805244
19444.424096	16875.502667	844.471680	104.548233
19444.424096	16875.502667	843.291016	133.696747
19444.424096	16875.502667	842.110352	83.856064
19444.424096	16875.502667	840.928711	23.897940
19444.424096	16875.502667	839.747070	168.340851
19444.424096	16875.502667	838.564453	80.026222
19444.424096	16875.502667	837.382813	102.982521
19444.424096	16875.502667	836.200195	166.361526
19444.424096	16875.502667	835.017578	-33.176617
19444.424096	16875.502667	833.834961	62.507526
19444.424096	16875.502667	832.651367	46.966217
19444.424096	16875.502667	831.467773	-91.861061
19444.424096	16875.502667	830.284180	-4.368082
19444.424096	16875.502667	829.100586	-28.033566
19444.424096	16875.502667	827.916992	-27.475897
19444.424096	16875.502667	826.732422	110.363907
19444.424096	16875.502667	825.547852	221.879501
19444.424096	16875.502667	824.363281	206.171265
19444.424096	16875.502667	823.177734	168.253174
19444.424096	16875.502667	821.992188	245.322647
19444.424096	16875.502667	820.806641	308.217346
19444.424096	16875.502667	819.621094	278.294464
19444.424096	16875.502667	818.434570	147.550308
19444.424096	16875.502667	817.249023	20.862598
19444.424096	16875.502667	816.062500	-13.085381
19444.424096	16875.502667	814.875000	118.189453
19444.424096	16875.502667	813.688477	-68.924316
19444.424096	16875.502667	812.500977	46.141216
19444.424096	16875.502667	811.313477	-34.200539
19444.424096	16875.502667	810.125977	-11.855105
19444.424096	16875.502667	808.937500	34.611134
19444.424096	16875.502667	807.749023	95.119469
19444.424096	16875.502667	806.560547	-15.453416
19444.424096	16875.502667	805.372070	83.206680
19444.424096	16875.502667	804.182617	20.900459
19444.424096	16875.502667	802.994141	93.313782
19444.424096	16875.502667	801.803711	22.935146
19444.424096	16875.502667	800.614258	-41.415886
19444.424096	16875.502667	799.424805	145.428543
19444.424096	16875.502667	798.234375	-17.427275
19444.424096	16875.502667	797.043945	-43.649746
19444.424096	16875.502667	795.852539	4.420051
19444.424096	16875.502667	794.662109	24.325733
19444.424096	16875.502667	793.470703	-54.172226
19444.424096	16875.502667	792.279297	178.430756
19444.424096	16875.502667	791.087891	-14.511086
19444.424096	16875.502667	789.895508	51.407112
19444.424096	16875.502667	788.703125	57.090416
19444.424096	16875.502667	787.510742	-3.439967
19444.424096	16875.502667	786.318359	54.317638
19444.424096	16875.502667	785.125000	124.049248
19444.424096	16875.502667	783.931641	131.588745
19444.424096	16875.502667	782.738281	-89.337593
19444.424096	16875.502667	781.544922	-87.834534
19444.424096	16875.502667	780.350586	51.839504
19444.424096	16875.502667	779.156250	-221.098206
19444.424096	16875.502667	777.961914	122.691429
19444.424096	16875.502667	776.767578	170.052368
19444.424096	16875.502667	775.572266	-88.834000
19444.424096	16875.502667	774.376953	-33.513443
19444.424096	16875.502667	773.181641	67.758881
19444.424096	16875.502667	771.986328	8.950474
19444.424096	16875.502667	770.790039	-121.853577
19444.424096	16875.502667	769.593750	141.201477
19444.424096	16875.502667	768.397461	2.354609
19444.424096	16875.502667	767.201172	139.302826
19444.424096	16875.502667	766.003906	234.201416
19444.424096	16875.502667	764.806641	111.291954
19444.424096	16875.502667	763.609375	126.195282
19444.424096	16875.502667	762.412109	13.265629
19444.424096	16875.502667	761.213867	52.064407
19444.424096	16875.502667	760.015625	136.712250
19444.424096	16875.502667	758.817383	-24.155367
19444.424096	16875.502667	757.618164	245.934998
19444.424096	16875.502667	756.419922	184.763245
19444.424096	16875.502667	755.220703	-57.894455
19444.424096	16875.502667	754.021484	187.987015
19444.424096	16875.502667	752.821289	172.595795
19444.424096	16875.502667	751.621094	236.887726
19444.424096	16875.502667	750.420898	161.633087
19444.424096	16875.502667	749.220703	265.659760
19444.424096	16875.502667	748.020508	80.802505
19444.424096	16875.502667	746.819336	55.285439
19444.424096	16875.502667	745.618164	-83.743034
19444.424096	16875.502667	744.416992	-119.251877
19444.424096	16875.502667	743.214844	-39.363731
19444.424096	16875.502667	742.012695	149.877548
19444.424096	16875.502667	740.810547	110.235428
19444.424096	16875.502667	739.608398	60.622795
19444.424096	16875.502667	738.406250	84.557037
19444.424096	16875.502667	737.203125	98.499344
19444.424096	16875.502667	736.000000	205.806442
19444.424096	16875.502667	734.795898	334.884766
19444.424096	16875.502667	733.592773	183.733398
19444.424096	16875.502667	732.388672	288.837219
19444.424096	16875.502667	731.184570	131.711319
19444.424096	16875.502667	729.979492	121.534485
19444.424096	16875.502667	728.775391	149.030701
19444.424096	16875.502667	727.570313	128.838898
19444.424096	16875.502667	726.365234	41.146221
19444.424096	16875.502667	725.160156	52.635143
19444.424096	16875.502667	723.954102	-35.095787
19444.424096	16875.502667	722.748047	25.887768
19444.424096	16875.502667	721.541992	128.433350
19444.424096	16875.502667	720.334961	38.619884
19444.424096	16875.502667	719.128906	-29.404184
19444.424096	16875.502667	717.921875	92.763206
19444.424096	16875.502667	716.714844	40.510727
19444.424096	16875.502667	715.506836	49.629078
19444.424096	16875.502667	714.298828	23.054863
19444.424096	16875.502667	713.090820	97.409119
19444.424096	16875.502667	711.882813	-26.242790
19444.424096	16875.502667	710.674805	-62.821316
19444.424096	16875.502667	709.465820	-49.969986
19444.424096	16875.502667	708.256836	12.277820
19444.424096	16875.502667	707.047852	3.259476
19444.424096	16875.502667	705.837891	-76.982597
19444.424096	16875.502667	704.627930	-137.470901
19444.424096	16875.502667	703.417969	-67.541367
19444.424096	16875.502667	702.208008	-143.909821
19444.424096	16875.502667	700.998047	-24.715868
19444.424096	16875.502667	699.787109	-193.987076
19444.424096	16875.502667	698.576172	25.781130
19444.424096	16875.502667	697.364258	-82.322632
19444.424096	16875.502667	696.153320	164.867813
19444.424096	16875.502667	694.941406	54.711708
19444.424096	16875.502667	693.729492	-19.932152
19444.424096	16875.502667	692.516602	-13.715029
19444.424096	16875.502667	691.304688	65.424606
19444.424096	16875.502667	690.091797	24.202690
19444.424096	16875.502667	688.878906	-22.962727
19444.424096	16875.502667	687.665039	136.794556
19444.424096	16875.502667	686.451172	32.382942
19444.424096	16875.502667	685.237305	162.414871
19444.424096	16875.502667	684.023438	99.312355
19444.424096	16875.502667	682.809570	205.549210
19444.424096	16875.502667	681.594727	189.622360
19444.424096	16875.502667	680.379883	159.875977
19444.424096	16875.502667	679.165039	63.181335
19444.424096	16875.502667	677.949219	108.151520
19444.424096	16875.502667	676.733398	208.138657
19444.424096	16875.502667	675.517578	140.856827
19444.424096	16875.502667	674.301758	142.382446
19444.424096	16875.502667	673.084961	8.207380
19444.424096	16875.502667	671.869141	259.297852
19444.424096	16875.502667	670.651367	199.740173
19444.424096	16875.502667	669.434570	324.848969
19444.424096	16875.502667	668.216797	387.001160
19444.424096	16875.502667	667.000000	309.643738
19444.424096	16875.502667	665.781250	389.354828
19444.424096	16875.502667	664.563477	166.671204
19444.424096	16875.502667	663.344727	138.343582
19444.424096	16875.502667	662.125977	335.645508
19444.424096	16875.502667	660.907227	171.839127
19444.424096	16875.502667	659.688477	286.583954
19444.424096	16875.502667	658.468750	109.044411
19444.424096	16875.502667	657.249023	260.920105
19444.424096	16875.502667	656.029297	199.028778
19444.424096	16875.502667	654.808594	307.622742
19444.424096	16875.502667	653.587891	132.020828
19444.424096	16875.502667	652.367188	322.778168
19444.424096	16875.502667	651.146484	205.923508
19444.424096	16875.502667	649.924805	143.904373
19444.424096	16875.502667	648.704102	142.563477
19444.424096	16875.502667	647.482422	213.602982
19444.424096	16875.502667	646.259766	108.453934
19444.424096	16875.502667	645.037109	228.304642
19444.424096	16875.502667	643.815430	91.825905
19444.424096	16875.502667	642.591797	164.619705
19444.424096	16875.502667	641.369141	123.944527
19444.424096	16875.502667	640.145508	139.938782
19444.424096	16875.502667	638.921875	42.536079
19444.424096	16875.502667	637.698242	163.987000
19444.424096	16875.502667	636.474609	205.255981
19444.424096	16875.502667	635.250000	55.061863
19444.424096	16875.502667	634.025391	4.489735
19444.424096	16875.502667	632.800781	71.046097
19444.424096	16875.502667	631.575195	-28.371588
19444.424096	16875.502667	630.349609	98.596321
19444.424096	16875.502667	629.124023	63.540344
19444.424096	16875.502667	627.898438	153.312698
19444.424096	16875.502667	626.671875	-22.220413
19444.424096	16875.502667	625.445313	75.272438
19444.424096	16875.502667	624.218750	-30.045912
19444.424096	16875.502667	622.992188	-37.895458
19444.424096	16875.502667	621.764648	65.302826
19444.424096	16875.502667	620.537109	-153.022308
19444.424096	16875.502667	619.309570	63.077641
19444.424096	16875.502667	618.081055	-44.204552
19444.424096	16875.502667	616.852539	33.496468
19444.424096	16875.502667	615.624023	-17.330235
19444.424096	16875.502667	614.395508	-171.301559
19444.424096	16875.502667	613.166992	-134.548035
19444.424096	16875.502667	611.937500	75.300781
19444.424096	16875.502667	610.708008	-80.599564
19444.424096	16875.502667	609.477539	12.439255
19444.424096	16875.502667	608.248047	-88.984314
19444.424096	16875.502667	607.017578	29.249725
19444.424096	16875.502667	605.787109	-124.636124
19444.424096	16875.502667	604.555664	-84.191818
19444.424096	16875.502667	603.325195	33.920467
19444.424096	16875.502667	602.093750	52.924183
19444.424096	16875.502667	600.861328	102.970558
19444.424096	16875.502667	599.629883	-60.542934
19444.424096	16875.502667	598.397461	-76.502258
19444.424096	16875.502667	597.165039	-88.585159
19444.424096	16875.502667	595.932617	7.966070
19444.424096	16875.502667	594.699219	3.609281
19444.424096	16875.502667	593.465820	34.152096
19444.424096	16875.502667	592.232422	101.509483
19444.424096	16875.502667	590.999023	73.857155
19444.424096	16875.502667	589.764648	146.980103
19444.424096	16875.502667	588.530273	-8.553268
19444.424096	16875.502667	587.295898	-34.241074
19444.424096	16875.502667	586.061523	25.292608
19444.424096	16875.502667	584.826172	-70.100815
19444.424096	16875.502667	583.590820	-35.754311
19444.424096	16875.502667	582.355469	39.222702
19444.424096	16875.502667	581.119141	-5.802741
19444.424096	16875.502667	579.882813	88.483856
19444.424096	16875.502667	578.646484	-163.481033
19444.424096	16875.502667	577.410156	-57.591030
19444.424096	16875.502667	576.172852	-65.809158
19444.424096	16875.502667	574.935547	-31.493786
19444.424096	16875.502667	573.698242	-35.835415
19444.424096	16875.502667	572.460938	10.068229
19444.424096	16875.502667	571.222656	-48.352314
19444.424096	16875.502667	569.984375	-58.456432
19444.424096	16875.502667	568.746094	-109.092850
19444.424096	16875.502667	567.506836	120.216843
19444.424096	16875.502667	566.267578	25.195236
19444.424096	16875.502667	565.028320	7.412534
19444.424096	16875.502667	563.789063	-27.710484
19444.424096	16875.502667	562.548828	-72.449295
19444.424096	16875.502667	561.309570	-90.153717
19444.424096	16875.502667	560.068359	19.408682
19444.424096	16875.502667	558.828125	144.365524
19444.424096	16875.502667	557.586914	70.788055
19444.424096	16875.502667	556.345703	45.429939
19444.424096	16875.502667	555.104492	-134.002975
19444.424096	16875.502667	553.863281	-136.153473
19444.424096	16875.502667	552.621094	54.267433
19444.424096	16875.502667	551.378906	102.172447
19444.424096	16875.502667	550.136719	148.155045
19444.424096	16875.502667	548.893555	126.790382
19444.424096	16875.502667	547.650391	120.851372
19444.424096	16875.502667	546.407227	109.169739
19444.424096	16875.502667	545.164063	201.362305
19444.424096	16875.502667	543.919922	224.326477
19444.424096	16875.502667	542.675781	-2.580017
19444.424096	16875.502667	541.431641	26.238104
19444.424096	16875.502667	540.186523	-73.661606
19444.424096	16875.502667	538.941406	60.868465
19444.424096	16875.502667	537.696289	-37.017879
19444.424096	16875.502667	536.451172	153.190536
19444.424096	16875.502667	535.205078	128.335419
19444.424096	16875.502667	533.959961	-84.572060
19444.424096	16875.502667	532.712891	72.992409
19444.424096	16875.502667	531.466797	-59.173553
19444.424096	16875.502667	530.219727	71.527122
19444.424096	16875.502667	528.972656	106.318741
19444.424096	16875.502667	527.725586	85.527679
19444.424096	16875.502667	526.478516	3.437291
19444.424096	16875.502667	525.230469	124.558144
19444.424096	16875.502667	523.982422	126.864288
19444.424096	16875.502667	522.734375	-66.192116
19444.424096	16875.502667	521.485352	5.166066
19444.424096	16875.502667	520.236328	101.418510
19444.424096	16875.502667	518.987305	163.203766
19444.424096	16875.502667	517.737305	-23.825129
19444.424096	16875.502667	516.488281	-11.727692
19444.424096	16875.502667	515.238281	-39.781765
19444.424096	16875.502667	513.988281	-48.665287
19444.424096	16875.502667	512.737305	106.947502
19444.424096	16875.502667	511.486328	17.797449
19444.424096	16875.502667	510.235352	230.735596
19444.424096	16875.502667	508.984375	78.590500
19444.424096	16875.502667	507.732422	280.017822
19444.424096	16875.502667	506.480469	296.089111
19444.424096	16875.502667	505.228516	214.778229
19444.424096	16875.502667	503.976563	89.611649
19444.424096	16875.502667	502.723633	174.520279
19444.424096	16875.502667	501.470703	318.585052
19444.424096	16875.502667	500.217773	197.367401
19444.424096	16875.502667	498.963867	247.928894
19444.424096	16875.502667	497.709961	348.082611
19444.424096	16875.502667	496.456055	282.303772
19444.424096	16875.502667	495.202148	517.814636
19444.424096	16875.502667	493.947266	467.314270
19444.424096	16875.502667	492.692383	439.720703
19444.424096	16875.502667	491.437500	516.948303
19444.424096	16875.502667	490.181641	487.477112
19444.424096	16875.502667	488.926758	743.711914
19444.424096	16875.502667	487.670898	792.293945
19444.424096	16875.502667	486.414063	947.470154
19444.424096	16875.502667	485.158203	893.220276
19444.424096	16875.502667	483.901367	1031.189209
19444.424096	16875.502667	482.644531	809.527405
19444.424096	16875.502667	481.386719	780.068848
19444.424096	16875.502667	480.128906	999.737305
19444.424096	16875.502667	478.871094	899.891357
19444.424096	16875.502667	477.613281	936.938416
19444.424096	16875.502667	476.355469	945.450684
19444.424096	16875.502667	475.096680	953.941101
19444.424096	16875.502667	473.837891	1038.394287
19444.424096	16875.502667	472.578125	955.655945
19444.424096	16875.502667	471.319336	983.057922
19444.424096	16875.502667	470.059570	799.696777
19444.424096	16875.502667	468.799805	832.749207
19444.424096	16875.502667	467.539063	911.291504
19444.424096	16875.502667	466.278320	908.179810
19444.424096	16875.502667	465.017578	857.605286
19444.424096	16875.502667	463.756836	793.727661
19444.424096	16875.502667	462.495117	824.617615
19444.424096	16875.502667	461.233398	766.345642
19444.424096	16875.502667	459.971680	912.706726
19444.424096	16875.502667	458.709961	823.991821
19444.424096	16875.502667	457.447266	769.336243
19444.424096	16875.502667	456.184570	805.530640
19444.424096	16875.502667	454.921875	947.659363
19444.424096	16875.502667	453.658203	1047.985840
19444.424096	16875.502667	452.394531	998.652039
19444.424096	16875.502667	451.130859	871.653809
19444.424096	16875.502667	449.867188	998.106995
19444.424096	16875.502667	448.602539	910.656860
19444.424096	16875.502667	447.337891	872.287476
19444.424096	16875.502667	446.073242	968.037964
19444.424096	16875.502667	444.807617	1003.121887
19444.424096	16875.502667	443.542969	960.567322
19444.424096	16875.502667	442.276367	974.556519
19444.424096	16875.502667	441.010742	977.047302
19444.424096	16875.502667	439.744141	1113.455811
19444.424096	16875.502667	438.478516	1070.256470
19444.424096	16875.502667	437.210938	923.059692
19444.424096	16875.502667	435.944336	1005.991882
19444.424096	16875.502667	434.676758	977.353027
19444.424096	16875.502667	433.409180	918.330994
19444.424096	16875.502667	432.141602	1096.764282
19444.424096	16875.502667	430.873047	914.715698
19444.424096	16875.502667	429.604492	1047.350586
19444.424096	16875.502667	428.335938	1002.495789
19444.424096	16875.502667	427.067383	1096.850830
19444.424096	16875.502667	425.797852	1087.263916
19444.424096	16875.502667	424.528320	917.285767
19444.424096	16875.502667	423.258789	971.193176
19444.424096	16875.502667	421.988281	1075.602417
19444.424096	16875.502667	420.717773	1015.874390
19444.424096	16875.502667	419.447266	970.896484
19444.424096	16875.502667	418.175781	963.221619
19444.424096	16875.502667	416.905273	943.910156
19444.424096	16875.502667	415.633789	965.608765
19444.424096	16875.502667	414.362305	986.912598
19444.424096	16875.502667	413.089844	964.562622
19444.424096	16875.502667	411.817383	909.856873
19444.424096	16875.502667	410.544922	952.463623
19444.424096	16875.502667	409.272461	972.064392
19444.424096	16875.502667	407.999023	1094.500977
19444.424096	16875.502667	406.725586	987.298828
19444.424096	16875.502667	405.452148	990.429504
19444.424096	16875.502667	404.177734	1131.950317
19444.424096	16875.502667	402.903320	1118.994019
19444.424096	16875.502667	401.628906	1174.925659
19444.424096	16875.502667	400.354492	847.587097
19444.424096	16875.502667	399.079102	923.038452
19444.424096	16875.502667	397.803711	889.103882
19444.424096	16875.502667	396.528320	1103.904541
19444.424096	16875.502667	395.251953	1027.450928
19444.424096	16875.502667	393.976563	980.370361
19444.424096	16875.502667	392.700195	977.587158
19444.424096	16875.502667	391.422852	1187.624390
19444.424096	16875.502667	390.145508	1080.374878
19444.424096	16875.502667	388.869141	1097.888428
19444.424096	16875.502667	387.590820	1090.269531
19444.424096	16875.502667	386.313477	990.186401
19444.424096	16875.502667	385.035156	1046.490479
19444.424096	16875.502667	383.756836	1144.963623
19444.424096	16875.502667	382.478516	1158.379395
19444.424096	16875.502667	381.199219	1049.354614
19444.424096	16875.502667	379.919922	1049.767456
19444.424096	16875.502667	378.640625	929.633911
19444.424096	16875.502667	377.360352	1068.308472
19444.424096	16875.502667	376.080078	806.148254
19444.424096	16875.502667	374.799805	909.174377
19444.424096	16875.502667	373.519531	874.799133
19444.424096	16875.502667	372.238281	850.549683
19444.424096	16875.502667	370.957031	856.944763
19444.424096	16875.502667	369.675781	893.935059
19444.424096	16875.502667	368.394531	758.104431
19444.424096	16875.502667	367.112305	854.284668
19444.424096	16875.502667	365.830078	732.870667
19444.424096	16875.502667	364.546875	1018.560303
19444.424096	16875.502667	363.264648	780.916199
19444.424096	16875.502667	361.981445	903.587708
19444.424096	16875.502667	360.698242	624.240417
19444.424096	16875.502667	359.414063	807.458191
19444.424096	16875.502667	358.129883	789.883667
19444.424096	16875.502667	356.845703	893.755249
19444.424096	16875.502667	355.561523	694.492249
19444.424096	16875.502667	354.276367	614.726990
19444.424096	16875.502667	352.991211	672.988586
19444.424096	16875.502667	351.706055	631.007690
19444.424096	16875.502667	350.420898	656.216492
19444.424096	16875.502667	349.134766	545.784424
19444.424096	16875.502667	347.848633	602.857666
19444.424096	16875.502667	346.561523	552.128845
19444.424096	16875.502667	345.275391	652.041382
19444.424096	16875.502667	343.988281	536.325012
19444.424096	16875.502667	342.700195	541.305481
19444.424096	16875.502667	341.413086	419.944855
19444.424096	16875.502667	340.125000	498.978577
19444.424096	16875.502667	338.836914	202.790131
19444.424096	16875.502667	337.548828	290.686676
19444.424096	16875.502667	336.259766	363.354279
19444.424096	16875.502667	334.970703	302.075836
19444.424096	16875.502667	333.681641	207.046585
19444.424096	16875.502667	332.391602	93.011284
19444.424096	16875.502667	331.101563	184.320480
19444.424096	16875.502667	329.811523	-119.773720
19444.424096	16875.502667	328.521484	31.543407
19444.424096	16875.502667	327.230469	39.401192
19444.424096	16875.502667	325.939453	153.973831
19444.424096	16875.502667	324.648438	299.205048
19444.424096	16875.502667	323.356445	186.096176
19444.424096	16875.502667	322.064453	31.415049
19444.424096	16875.502667	320.772461	1.697113
19444.424096	16875.502667	319.480469	276.281555
19444.424096	16875.502667	318.187500	-22.048773
19444.424096	16875.502667	316.894531	226.067841
19444.424096	16875.502667	315.601563	1.336625
19444.424096	16875.502667	314.307617	58.192440
19444.424096	16875.502667	313.013672	-182.055237
19444.424096	16875.502667	311.719727	-113.160500
19444.424096	16875.502667	310.425781	-21.760357
19444.424096	16875.502667	309.130859	21.767942
19444.424096	16875.502667	307.835938	-45.306004
19444.424096	16875.502667	306.541016	140.738693
19444.424096	16875.502667	305.245117	-3.750317
19444.424096	16875.502667	303.949219	-20.844069
19444.424096	16875.502667	302.653320	98.522415
19444.424096	16875.502667	301.356445	40.466908
19444.424096	16875.502667	300.060547	9.977291
19444.424096	16875.502667	298.763672	74.939590
