#X		#Y		#Wave		#Intensity
19489.902713	16909.562500	2000.043945	536.372131
19489.902713	16909.562500	1999.080078	156.764801
19489.902713	16909.562500	1998.116211	398.183319
19489.902713	16909.562500	1997.151367	331.171814
19489.902713	16909.562500	1996.186523	216.050293
19489.902713	16909.562500	1995.222656	97.416893
19489.902713	16909.562500	1994.256836	505.194916
19489.902713	16909.562500	1993.291992	161.342392
19489.902713	16909.562500	1992.327148	-134.080200
19489.902713	16909.562500	1991.361328	22.335289
19489.902713	16909.562500	1990.395508	-117.114708
19489.902713	16909.562500	1989.429688	254.384781
19489.902713	16909.562500	1988.463867	23.202143
19489.902713	16909.562500	1987.497070	-65.833084
19489.902713	16909.562500	1986.531250	-203.235703
19489.902713	16909.562500	1985.564453	-102.209549
19489.902713	16909.562500	1984.597656	-52.154499
19489.902713	16909.562500	1983.630859	-25.880486
19489.902713	16909.562500	1982.664063	-18.468254
19489.902713	16909.562500	1981.696289	-279.496552
19489.902713	16909.562500	1980.728516	-211.011261
19489.902713	16909.562500	1979.761719	-391.172546
19489.902713	16909.562500	1978.792969	101.208267
19489.902713	16909.562500	1977.825195	206.556030
19489.902713	16909.562500	1976.857422	65.759605
19489.902713	16909.562500	1975.888672	182.404785
19489.902713	16909.562500	1974.919922	20.862106
19489.902713	16909.562500	1973.951172	-88.145027
19489.902713	16909.562500	1972.982422	-90.406342
19489.902713	16909.562500	1972.013672	-153.705109
19489.902713	16909.562500	1971.043945	-130.090240
19489.902713	16909.562500	1970.075195	-12.234900
19489.902713	16909.562500	1969.105469	-120.647842
19489.902713	16909.562500	1968.135742	-21.490635
19489.902713	16909.562500	1967.165039	142.192001
19489.902713	16909.562500	1966.195313	-105.115242
19489.902713	16909.562500	1965.224609	261.418976
19489.902713	16909.562500	1964.253906	-209.021362
19489.902713	16909.562500	1963.283203	-154.445450
19489.902713	16909.562500	1962.312500	149.128189
19489.902713	16909.562500	1961.341797	17.329941
19489.902713	16909.562500	1960.370117	-138.667770
19489.902713	16909.562500	1959.399414	-158.964844
19489.902713	16909.562500	1958.427734	-267.486725
19489.902713	16909.562500	1957.455078	-144.483170
19489.902713	16909.562500	1956.483398	69.726601
19489.902713	16909.562500	1955.511719	-138.731049
19489.902713	16909.562500	1954.539063	-130.556381
19489.902713	16909.562500	1953.566406	49.870998
19489.902713	16909.562500	1952.593750	-280.625244
19489.902713	16909.562500	1951.621094	5.812205
19489.902713	16909.562500	1950.647461	105.663177
19489.902713	16909.562500	1949.674805	77.943970
19489.902713	16909.562500	1948.701172	-6.076515
19489.902713	16909.562500	1947.727539	-131.657700
19489.902713	16909.562500	1946.753906	346.700195
19489.902713	16909.562500	1945.780273	-100.117874
19489.902713	16909.562500	1944.805664	-31.445522
19489.902713	16909.562500	1943.831055	-46.113590
19489.902713	16909.562500	1942.856445	160.025589
19489.902713	16909.562500	1941.881836	0.793880
19489.902713	16909.562500	1940.907227	-192.650604
19489.902713	16909.562500	1939.932617	-50.176773
19489.902713	16909.562500	1938.957031	-113.578796
19489.902713	16909.562500	1937.981445	53.380405
19489.902713	16909.562500	1937.005859	-142.280411
19489.902713	16909.562500	1936.030273	29.524204
19489.902713	16909.562500	1935.054688	208.598785
19489.902713	16909.562500	1934.078125	-222.060333
19489.902713	16909.562500	1933.101563	-6.335731
19489.902713	16909.562500	1932.125000	89.339676
19489.902713	16909.562500	1931.148438	-10.833920
19489.902713	16909.562500	1930.171875	-49.863098
19489.902713	16909.562500	1929.194336	-64.476982
19489.902713	16909.562500	1928.217773	-130.529007
19489.902713	16909.562500	1927.240234	-20.576147
19489.902713	16909.562500	1926.262695	194.368408
19489.902713	16909.562500	1925.284180	-60.162113
19489.902713	16909.562500	1924.306641	-124.089729
19489.902713	16909.562500	1923.328125	-58.602085
19489.902713	16909.562500	1922.350586	236.373840
19489.902713	16909.562500	1921.372070	-130.790985
19489.902713	16909.562500	1920.392578	-136.522934
19489.902713	16909.562500	1919.414063	101.758293
19489.902713	16909.562500	1918.434570	90.821960
19489.902713	16909.562500	1917.456055	-30.094355
19489.902713	16909.562500	1916.476563	-155.995010
19489.902713	16909.562500	1915.497070	-18.514399
19489.902713	16909.562500	1914.516602	-8.085201
19489.902713	16909.562500	1913.537109	-0.274423
19489.902713	16909.562500	1912.556641	170.737320
19489.902713	16909.562500	1911.576172	224.486923
19489.902713	16909.562500	1910.595703	178.101242
19489.902713	16909.562500	1909.615234	194.906479
19489.902713	16909.562500	1908.633789	238.325470
19489.902713	16909.562500	1907.653320	47.663612
19489.902713	16909.562500	1906.671875	129.672745
19489.902713	16909.562500	1905.690430	228.497406
19489.902713	16909.562500	1904.708984	193.173645
19489.902713	16909.562500	1903.727539	38.376369
19489.902713	16909.562500	1902.745117	-75.194473
19489.902713	16909.562500	1901.762695	27.636366
19489.902713	16909.562500	1900.780273	239.696594
19489.902713	16909.562500	1899.797852	346.862854
19489.902713	16909.562500	1898.815430	-98.292725
19489.902713	16909.562500	1897.832031	210.279083
19489.902713	16909.562500	1896.849609	175.725815
19489.902713	16909.562500	1895.866211	17.001457
19489.902713	16909.562500	1894.882813	-161.333466
19489.902713	16909.562500	1893.898438	-9.382463
19489.902713	16909.562500	1892.915039	-100.648010
19489.902713	16909.562500	1891.930664	135.781540
19489.902713	16909.562500	1890.947266	267.469299
19489.902713	16909.562500	1889.962891	265.339874
19489.902713	16909.562500	1888.977539	216.856613
19489.902713	16909.562500	1887.993164	-30.859032
19489.902713	16909.562500	1887.007813	160.487610
19489.902713	16909.562500	1886.023438	140.456650
19489.902713	16909.562500	1885.038086	180.834213
19489.902713	16909.562500	1884.051758	-84.613136
19489.902713	16909.562500	1883.066406	28.059208
19489.902713	16909.562500	1882.081055	385.301666
19489.902713	16909.562500	1881.094727	286.491516
19489.902713	16909.562500	1880.108398	437.086975
19489.902713	16909.562500	1879.122070	173.068604
19489.902713	16909.562500	1878.135742	80.905357
19489.902713	16909.562500	1877.148438	29.708340
19489.902713	16909.562500	1876.162109	63.049084
19489.902713	16909.562500	1875.174805	1.713825
19489.902713	16909.562500	1874.187500	341.990753
19489.902713	16909.562500	1873.199219	-48.999943
19489.902713	16909.562500	1872.211914	152.758835
19489.902713	16909.562500	1871.223633	-127.237350
19489.902713	16909.562500	1870.236328	-27.603167
19489.902713	16909.562500	1869.248047	134.634689
19489.902713	16909.562500	1868.258789	-201.523529
19489.902713	16909.562500	1867.270508	-184.831573
19489.902713	16909.562500	1866.282227	264.265839
19489.902713	16909.562500	1865.292969	103.985214
19489.902713	16909.562500	1864.303711	-148.280716
19489.902713	16909.562500	1863.314453	-28.667486
19489.902713	16909.562500	1862.324219	-32.511799
19489.902713	16909.562500	1861.334961	-0.353448
19489.902713	16909.562500	1860.344727	-195.384796
19489.902713	16909.562500	1859.354492	386.688568
19489.902713	16909.562500	1858.364258	261.198212
19489.902713	16909.562500	1857.374023	282.719788
19489.902713	16909.562500	1856.383789	291.950134
19489.902713	16909.562500	1855.392578	-46.384178
19489.902713	16909.562500	1854.401367	-11.014810
19489.902713	16909.562500	1853.410156	-163.942062
19489.902713	16909.562500	1852.418945	-20.515856
19489.902713	16909.562500	1851.426758	81.661545
19489.902713	16909.562500	1850.435547	-115.216011
19489.902713	16909.562500	1849.443359	-112.265091
19489.902713	16909.562500	1848.451172	22.961868
19489.902713	16909.562500	1847.458984	-511.605591
19489.902713	16909.562500	1846.466797	184.286316
19489.902713	16909.562500	1845.473633	260.975677
19489.902713	16909.562500	1844.480469	-52.508984
19489.902713	16909.562500	1843.487305	-231.308319
19489.902713	16909.562500	1842.494141	-258.650879
19489.902713	16909.562500	1841.500977	228.637115
19489.902713	16909.562500	1840.506836	205.625366
19489.902713	16909.562500	1839.513672	112.701714
19489.902713	16909.562500	1838.519531	-6.838426
19489.902713	16909.562500	1837.525391	39.345493
19489.902713	16909.562500	1836.530273	282.392792
19489.902713	16909.562500	1835.536133	-8.285723
19489.902713	16909.562500	1834.541016	-46.786602
19489.902713	16909.562500	1833.545898	375.743164
19489.902713	16909.562500	1832.550781	79.848625
19489.902713	16909.562500	1831.555664	88.836494
19489.902713	16909.562500	1830.560547	-180.839981
19489.902713	16909.562500	1829.564453	-64.157837
19489.902713	16909.562500	1828.568359	-305.265137
19489.902713	16909.562500	1827.572266	230.939850
19489.902713	16909.562500	1826.576172	174.244324
19489.902713	16909.562500	1825.580078	222.935547
19489.902713	16909.562500	1824.583008	-119.444778
19489.902713	16909.562500	1823.585938	274.190521
19489.902713	16909.562500	1822.588867	3.519273
19489.902713	16909.562500	1821.591797	53.942043
19489.902713	16909.562500	1820.594727	-25.205109
19489.902713	16909.562500	1819.596680	-308.129272
19489.902713	16909.562500	1818.599609	110.734329
19489.902713	16909.562500	1817.601563	-162.835358
19489.902713	16909.562500	1816.603516	-359.828308
19489.902713	16909.562500	1815.604492	-147.545883
19489.902713	16909.562500	1814.606445	-229.873398
19489.902713	16909.562500	1813.607422	-147.208832
19489.902713	16909.562500	1812.608398	-146.063065
19489.902713	16909.562500	1811.609375	122.858902
19489.902713	16909.562500	1810.610352	-43.741684
19489.902713	16909.562500	1809.610352	-265.428772
19489.902713	16909.562500	1808.611328	-169.175980
19489.902713	16909.562500	1807.611328	-97.011772
19489.902713	16909.562500	1806.611328	-130.157272
19489.902713	16909.562500	1805.610352	-84.585152
19489.902713	16909.562500	1804.610352	-359.260284
19489.902713	16909.562500	1803.609375	-120.442589
19489.902713	16909.562500	1802.608398	-70.493401
19489.902713	16909.562500	1801.607422	-333.461548
19489.902713	16909.562500	1800.606445	43.309166
19489.902713	16909.562500	1799.605469	-45.585594
19489.902713	16909.562500	1798.603516	-332.638885
19489.902713	16909.562500	1797.601563	-94.818939
19489.902713	16909.562500	1796.599609	-277.022339
19489.902713	16909.562500	1795.597656	-146.846817
19489.902713	16909.562500	1794.595703	-128.896042
19489.902713	16909.562500	1793.592773	-63.394104
19489.902713	16909.562500	1792.589844	-157.720901
19489.902713	16909.562500	1791.587891	-278.310638
19489.902713	16909.562500	1790.583984	-217.910187
19489.902713	16909.562500	1789.581055	-305.310181
19489.902713	16909.562500	1788.577148	-352.303162
19489.902713	16909.562500	1787.574219	-101.696487
19489.902713	16909.562500	1786.570313	-120.329926
19489.902713	16909.562500	1785.566406	-212.842621
19489.902713	16909.562500	1784.561523	-464.883423
19489.902713	16909.562500	1783.557617	-14.954444
19489.902713	16909.562500	1782.552734	230.101898
19489.902713	16909.562500	1781.547852	-260.003693
19489.902713	16909.562500	1780.542969	-19.921934
19489.902713	16909.562500	1779.538086	-1.137612
19489.902713	16909.562500	1778.532227	-110.833321
19489.902713	16909.562500	1777.527344	119.329483
19489.902713	16909.562500	1776.521484	4.741745
19489.902713	16909.562500	1775.515625	-24.348379
19489.902713	16909.562500	1774.508789	41.493362
19489.902713	16909.562500	1773.502930	47.879402
19489.902713	16909.562500	1772.496094	199.016495
19489.902713	16909.562500	1771.489258	176.717453
19489.902713	16909.562500	1770.482422	204.202423
19489.902713	16909.562500	1769.475586	319.414215
19489.902713	16909.562500	1768.467773	462.968231
19489.902713	16909.562500	1767.460938	174.666977
19489.902713	16909.562500	1766.453125	106.970291
19489.902713	16909.562500	1765.445313	198.115051
19489.902713	16909.562500	1764.437500	104.231461
19489.902713	16909.562500	1763.428711	455.952148
19489.902713	16909.562500	1762.420898	172.332016
19489.902713	16909.562500	1761.412109	256.023621
19489.902713	16909.562500	1760.403320	62.437878
19489.902713	16909.562500	1759.393555	397.062592
19489.902713	16909.562500	1758.384766	212.884628
19489.902713	16909.562500	1757.375000	-35.227085
19489.902713	16909.562500	1756.366211	62.349190
19489.902713	16909.562500	1755.356445	254.489990
19489.902713	16909.562500	1754.345703	496.180664
19489.902713	16909.562500	1753.335938	387.588104
19489.902713	16909.562500	1752.325195	461.111938
19489.902713	16909.562500	1751.315430	404.499298
19489.902713	16909.562500	1750.304688	291.091003
19489.902713	16909.562500	1749.292969	274.591125
19489.902713	16909.562500	1748.282227	310.073059
19489.902713	16909.562500	1747.270508	565.260254
19489.902713	16909.562500	1746.259766	569.866821
19489.902713	16909.562500	1745.248047	536.614075
19489.902713	16909.562500	1744.235352	406.473541
19489.902713	16909.562500	1743.223633	422.770874
19489.902713	16909.562500	1742.211914	358.748901
19489.902713	16909.562500	1741.199219	377.310486
19489.902713	16909.562500	1740.186523	258.943176
19489.902713	16909.562500	1739.173828	3.721979
19489.902713	16909.562500	1738.160156	29.286007
19489.902713	16909.562500	1737.147461	130.304855
19489.902713	16909.562500	1736.133789	54.356575
19489.902713	16909.562500	1735.120117	60.928719
19489.902713	16909.562500	1734.106445	53.320881
19489.902713	16909.562500	1733.091797	168.224686
19489.902713	16909.562500	1732.078125	-20.916664
19489.902713	16909.562500	1731.063477	-292.500031
19489.902713	16909.562500	1730.048828	-90.533905
19489.902713	16909.562500	1729.034180	231.437469
19489.902713	16909.562500	1728.019531	-4.807883
19489.902713	16909.562500	1727.003906	272.214447
19489.902713	16909.562500	1725.988281	-295.910278
19489.902713	16909.562500	1724.972656	6.894718
19489.902713	16909.562500	1723.957031	-158.672623
19489.902713	16909.562500	1722.941406	682.646118
19489.902713	16909.562500	1721.924805	-393.280060
19489.902713	16909.562500	1720.909180	243.127060
19489.902713	16909.562500	1719.892578	9.337293
19489.902713	16909.562500	1718.875977	196.381241
19489.902713	16909.562500	1717.858398	-152.536255
19489.902713	16909.562500	1716.841797	133.110352
19489.902713	16909.562500	1715.824219	49.763374
19489.902713	16909.562500	1714.806641	346.941681
19489.902713	16909.562500	1713.789063	348.085266
19489.902713	16909.562500	1712.770508	372.666443
19489.902713	16909.562500	1711.752930	190.658081
19489.902713	16909.562500	1710.734375	579.012085
19489.902713	16909.562500	1709.715820	340.655548
19489.902713	16909.562500	1708.697266	186.833069
19489.902713	16909.562500	1707.678711	201.941620
19489.902713	16909.562500	1706.659180	519.543213
19489.902713	16909.562500	1705.640625	719.784668
19489.902713	16909.562500	1704.621094	922.256287
19489.902713	16909.562500	1703.600586	728.493774
19489.902713	16909.562500	1702.581055	994.124268
19489.902713	16909.562500	1701.561523	919.903137
19489.902713	16909.562500	1700.541016	1161.917847
19489.902713	16909.562500	1699.520508	1115.747559
19489.902713	16909.562500	1698.500000	1404.434082
19489.902713	16909.562500	1697.478516	1311.359253
19489.902713	16909.562500	1696.458008	1744.994385
19489.902713	16909.562500	1695.436523	1455.277222
19489.902713	16909.562500	1694.415039	1518.972778
19489.902713	16909.562500	1693.393555	2024.780762
19489.902713	16909.562500	1692.372070	2104.689453
19489.902713	16909.562500	1691.349609	1508.708496
19489.902713	16909.562500	1690.327148	1719.571289
19489.902713	16909.562500	1689.304688	1790.084839
19489.902713	16909.562500	1688.282227	2271.899902
19489.902713	16909.562500	1687.259766	2155.319580
19489.902713	16909.562500	1686.236328	2342.468018
19489.902713	16909.562500	1685.213867	2440.793213
19489.902713	16909.562500	1684.190430	2475.996338
19489.902713	16909.562500	1683.166016	2714.288574
19489.902713	16909.562500	1682.142578	3122.918457
19489.902713	16909.562500	1681.119141	2618.783936
19489.902713	16909.562500	1680.094727	2653.864258
19489.902713	16909.562500	1679.070313	3003.891846
19489.902713	16909.562500	1678.045898	2908.237549
19489.902713	16909.562500	1677.020508	3008.498535
19489.902713	16909.562500	1675.996094	3073.755371
19489.902713	16909.562500	1674.970703	3218.224854
19489.902713	16909.562500	1673.945313	3500.150635
19489.902713	16909.562500	1672.919922	3204.021484
19489.902713	16909.562500	1671.893555	3243.488525
19489.902713	16909.562500	1670.868164	3299.265381
19489.902713	16909.562500	1669.841797	3271.143311
19489.902713	16909.562500	1668.815430	3510.818848
19489.902713	16909.562500	1667.789063	3394.190674
19489.902713	16909.562500	1666.761719	3452.156738
19489.902713	16909.562500	1665.735352	3449.605713
19489.902713	16909.562500	1664.708008	3521.489258
19489.902713	16909.562500	1663.680664	3725.945557
19489.902713	16909.562500	1662.653320	3711.677734
19489.902713	16909.562500	1661.625000	3913.662109
19489.902713	16909.562500	1660.597656	4187.662109
19489.902713	16909.562500	1659.569336	4570.789551
19489.902713	16909.562500	1658.541016	4077.565674
19489.902713	16909.562500	1657.512695	4618.568359
19489.902713	16909.562500	1656.483398	4478.633789
19489.902713	16909.562500	1655.455078	4631.442871
19489.902713	16909.562500	1654.425781	4486.908203
19489.902713	16909.562500	1653.396484	4398.156738
19489.902713	16909.562500	1652.366211	4650.668457
19489.902713	16909.562500	1651.336914	5000.581055
19489.902713	16909.562500	1650.306641	5150.772949
19489.902713	16909.562500	1649.276367	5177.944824
19489.902713	16909.562500	1648.246094	5307.166504
19489.902713	16909.562500	1647.215820	5334.298340
19489.902713	16909.562500	1646.185547	5280.262695
19489.902713	16909.562500	1645.154297	5274.914063
19489.902713	16909.562500	1644.123047	5327.515625
19489.902713	16909.562500	1643.091797	5838.938477
19489.902713	16909.562500	1642.060547	5775.566406
19489.902713	16909.562500	1641.028320	5834.977539
19489.902713	16909.562500	1639.997070	5746.160645
19489.902713	16909.562500	1638.964844	5907.448242
19489.902713	16909.562500	1637.931641	5654.242188
19489.902713	16909.562500	1636.899414	5530.786621
19489.902713	16909.562500	1635.867188	5812.374512
19489.902713	16909.562500	1634.833984	5874.028809
19489.902713	16909.562500	1633.800781	5678.883789
19489.902713	16909.562500	1632.767578	5506.947266
19489.902713	16909.562500	1631.734375	5695.829590
19489.902713	16909.562500	1630.700195	6023.342773
19489.902713	16909.562500	1629.666016	5742.800293
19489.902713	16909.562500	1628.631836	5915.351563
19489.902713	16909.562500	1627.597656	5803.637207
19489.902713	16909.562500	1626.563477	5851.376953
19489.902713	16909.562500	1625.528320	5806.695313
19489.902713	16909.562500	1624.493164	5868.273438
19489.902713	16909.562500	1623.458008	5793.611328
19489.902713	16909.562500	1622.422852	5811.331055
19489.902713	16909.562500	1621.387695	5549.788574
19489.902713	16909.562500	1620.351563	6065.972656
19489.902713	16909.562500	1619.315430	5843.711426
19489.902713	16909.562500	1618.279297	5806.076660
19489.902713	16909.562500	1617.243164	6089.029785
19489.902713	16909.562500	1616.207031	5781.625488
19489.902713	16909.562500	1615.169922	5550.407715
19489.902713	16909.562500	1614.132813	5833.271484
19489.902713	16909.562500	1613.095703	5818.780273
19489.902713	16909.562500	1612.058594	5944.848145
19489.902713	16909.562500	1611.020508	5697.703125
19489.902713	16909.562500	1609.983398	5971.177246
19489.902713	16909.562500	1608.945313	5899.158203
19489.902713	16909.562500	1607.907227	5951.502441
19489.902713	16909.562500	1606.868164	6167.245117
19489.902713	16909.562500	1605.830078	6155.125488
19489.902713	16909.562500	1604.791016	6239.644531
19489.902713	16909.562500	1603.751953	6271.243652
19489.902713	16909.562500	1602.712891	6344.252930
19489.902713	16909.562500	1601.673828	5909.085938
19489.902713	16909.562500	1600.633789	6053.435547
19489.902713	16909.562500	1599.594727	5926.548340
19489.902713	16909.562500	1598.554688	6024.929199
19489.902713	16909.562500	1597.513672	6378.321289
19489.902713	16909.562500	1596.473633	5923.009766
19489.902713	16909.562500	1595.433594	5929.550781
19489.902713	16909.562500	1594.392578	5417.136719
19489.902713	16909.562500	1593.351563	5653.396484
19489.902713	16909.562500	1592.310547	5508.562012
19489.902713	16909.562500	1591.268555	5919.177734
19489.902713	16909.562500	1590.227539	5469.242676
19489.902713	16909.562500	1589.185547	5251.201172
19489.902713	16909.562500	1588.143555	5615.857422
19489.902713	16909.562500	1587.100586	5604.307129
19489.902713	16909.562500	1586.058594	5457.545898
19489.902713	16909.562500	1585.015625	5200.837402
19489.902713	16909.562500	1583.972656	5139.069336
19489.902713	16909.562500	1582.929688	5283.585938
19489.902713	16909.562500	1581.886719	5258.563477
19489.902713	16909.562500	1580.843750	5474.085449
19489.902713	16909.562500	1579.799805	5172.009277
19489.902713	16909.562500	1578.755859	5039.518555
19489.902713	16909.562500	1577.711914	5035.316895
19489.902713	16909.562500	1576.666992	4777.102539
19489.902713	16909.562500	1575.623047	4628.889160
19489.902713	16909.562500	1574.578125	4846.805664
19489.902713	16909.562500	1573.533203	4833.664063
19489.902713	16909.562500	1572.488281	4633.055176
19489.902713	16909.562500	1571.443359	4736.671387
19489.902713	16909.562500	1570.397461	4538.531250
19489.902713	16909.562500	1569.351563	4774.774902
19489.902713	16909.562500	1568.305664	4597.375977
19489.902713	16909.562500	1567.259766	4621.151367
19489.902713	16909.562500	1566.213867	4526.196777
19489.902713	16909.562500	1565.166992	4223.499512
19489.902713	16909.562500	1564.120117	3968.925293
19489.902713	16909.562500	1563.073242	3995.303955
19489.902713	16909.562500	1562.026367	3711.323975
19489.902713	16909.562500	1560.978516	4018.527832
19489.902713	16909.562500	1559.930664	4108.930176
19489.902713	16909.562500	1558.883789	3987.240723
19489.902713	16909.562500	1557.834961	3575.998535
19489.902713	16909.562500	1556.787109	3397.573486
19489.902713	16909.562500	1555.739258	3390.265381
19489.902713	16909.562500	1554.690430	3747.691406
19489.902713	16909.562500	1553.641602	3697.143311
19489.902713	16909.562500	1552.592773	3648.966064
19489.902713	16909.562500	1551.542969	3689.702881
19489.902713	16909.562500	1550.494141	3773.782715
19489.902713	16909.562500	1549.444336	3762.255615
19489.902713	16909.562500	1548.394531	3363.795654
19489.902713	16909.562500	1547.344727	3366.166016
19489.902713	16909.562500	1546.293945	3275.296631
19489.902713	16909.562500	1545.244141	2982.069580
19489.902713	16909.562500	1544.193359	2354.625000
19489.902713	16909.562500	1543.142578	2412.090088
19489.902713	16909.562500	1542.090820	2012.547607
19489.902713	16909.562500	1541.040039	2133.882568
19489.902713	16909.562500	1539.988281	2241.599609
19489.902713	16909.562500	1538.936523	1922.130127
19489.902713	16909.562500	1537.884766	2427.643066
19489.902713	16909.562500	1536.833008	2224.300293
19489.902713	16909.562500	1535.780273	2009.759155
19489.902713	16909.562500	1534.727539	2054.259521
19489.902713	16909.562500	1533.674805	2171.486328
19489.902713	16909.562500	1532.622070	2089.022705
19489.902713	16909.562500	1531.569336	1727.550049
19489.902713	16909.562500	1530.515625	1584.128662
19489.902713	16909.562500	1529.461914	1579.239990
19489.902713	16909.562500	1528.408203	1504.151001
19489.902713	16909.562500	1527.354492	1753.460815
19489.902713	16909.562500	1526.299805	1810.058472
19489.902713	16909.562500	1525.246094	1547.146484
19489.902713	16909.562500	1524.191406	1377.349487
19489.902713	16909.562500	1523.136719	1255.316284
19489.902713	16909.562500	1522.081055	1239.897583
19489.902713	16909.562500	1521.026367	1120.427612
19489.902713	16909.562500	1519.970703	1071.305420
19489.902713	16909.562500	1518.915039	1087.972412
19489.902713	16909.562500	1517.859375	1290.367432
19489.902713	16909.562500	1516.802734	1166.896362
19489.902713	16909.562500	1515.747070	1134.114990
19489.902713	16909.562500	1514.690430	979.298828
19489.902713	16909.562500	1513.633789	835.974304
19489.902713	16909.562500	1512.577148	1025.248413
19489.902713	16909.562500	1511.519531	963.601868
19489.902713	16909.562500	1510.461914	630.857849
19489.902713	16909.562500	1509.405273	537.948303
19489.902713	16909.562500	1508.346680	345.758698
19489.902713	16909.562500	1507.289063	587.539246
19489.902713	16909.562500	1506.231445	531.220215
19489.902713	16909.562500	1505.172852	-3.693496
19489.902713	16909.562500	1504.114258	211.315857
19489.902713	16909.562500	1503.055664	290.941101
19489.902713	16909.562500	1501.996094	438.367279
19489.902713	16909.562500	1500.937500	529.482666
19489.902713	16909.562500	1499.877930	519.175537
19489.902713	16909.562500	1498.818359	172.947418
19489.902713	16909.562500	1497.757813	503.507263
19489.902713	16909.562500	1496.698242	146.445374
19489.902713	16909.562500	1495.637695	3.803556
19489.902713	16909.562500	1494.577148	-57.491570
19489.902713	16909.562500	1493.516602	386.123932
19489.902713	16909.562500	1492.456055	379.151520
19489.902713	16909.562500	1491.394531	-3.819987
19489.902713	16909.562500	1490.333008	41.389366
19489.902713	16909.562500	1489.271484	-199.199463
19489.902713	16909.562500	1488.209961	242.532135
19489.902713	16909.562500	1487.148438	-47.191738
19489.902713	16909.562500	1486.085938	34.628670
19489.902713	16909.562500	1485.023438	-313.108704
19489.902713	16909.562500	1483.960938	-118.472801
19489.902713	16909.562500	1482.898438	-128.380127
19489.902713	16909.562500	1481.834961	-3.213096
19489.902713	16909.562500	1480.772461	-158.870483
19489.902713	16909.562500	1479.708984	-134.520706
19489.902713	16909.562500	1478.644531	-116.736069
19489.902713	16909.562500	1477.581055	-370.529633
19489.902713	16909.562500	1476.517578	-141.177994
19489.902713	16909.562500	1475.453125	-118.281372
19489.902713	16909.562500	1474.388672	55.165890
19489.902713	16909.562500	1473.323242	80.622543
19489.902713	16909.562500	1472.258789	182.542557
19489.902713	16909.562500	1471.193359	517.709412
19489.902713	16909.562500	1470.127930	306.229614
19489.902713	16909.562500	1469.062500	211.545898
19489.902713	16909.562500	1467.997070	397.015106
19489.902713	16909.562500	1466.930664	181.768890
19489.902713	16909.562500	1465.865234	-64.928444
19489.902713	16909.562500	1464.798828	183.677460
19489.902713	16909.562500	1463.731445	452.463440
19489.902713	16909.562500	1462.665039	495.419312
19489.902713	16909.562500	1461.597656	409.066071
19489.902713	16909.562500	1460.530273	256.207733
19489.902713	16909.562500	1459.462891	340.267517
19489.902713	16909.562500	1458.395508	752.383423
19489.902713	16909.562500	1457.327148	643.278503
19489.902713	16909.562500	1456.259766	453.545715
19489.902713	16909.562500	1455.191406	448.056000
19489.902713	16909.562500	1454.123047	347.280151
19489.902713	16909.562500	1453.053711	843.727173
19489.902713	16909.562500	1451.985352	935.816589
19489.902713	16909.562500	1450.916016	576.838745
19489.902713	16909.562500	1449.846680	666.337830
19489.902713	16909.562500	1448.776367	621.827637
19489.902713	16909.562500	1447.707031	452.409454
19489.902713	16909.562500	1446.636719	756.070679
19489.902713	16909.562500	1445.566406	701.335083
19489.902713	16909.562500	1444.496094	1003.543701
19489.902713	16909.562500	1443.425781	826.885132
19489.902713	16909.562500	1442.354492	771.260986
19489.902713	16909.562500	1441.283203	811.444275
19489.902713	16909.562500	1440.211914	352.299255
19489.902713	16909.562500	1439.140625	268.108398
19489.902713	16909.562500	1438.069336	790.267273
19489.902713	16909.562500	1436.997070	766.002686
19489.902713	16909.562500	1435.924805	426.824738
19489.902713	16909.562500	1434.852539	587.148560
19489.902713	16909.562500	1433.780273	362.936127
19489.902713	16909.562500	1432.707031	346.235352
19489.902713	16909.562500	1431.633789	524.489014
19489.902713	16909.562500	1430.560547	482.069305
19489.902713	16909.562500	1429.487305	569.684143
19489.902713	16909.562500	1428.413086	310.761169
19489.902713	16909.562500	1427.339844	623.178711
19489.902713	16909.562500	1426.265625	544.404480
19489.902713	16909.562500	1425.191406	249.047974
19489.902713	16909.562500	1424.116211	426.436066
19489.902713	16909.562500	1423.041992	395.847504
19489.902713	16909.562500	1421.966797	500.326050
19489.902713	16909.562500	1420.891602	462.913757
19489.902713	16909.562500	1419.816406	617.338013
19489.902713	16909.562500	1418.740234	447.766632
19489.902713	16909.562500	1417.665039	32.679142
19489.902713	16909.562500	1416.588867	238.223083
19489.902713	16909.562500	1415.512695	65.072075
19489.902713	16909.562500	1414.435547	6.090101
19489.902713	16909.562500	1413.359375	123.536034
19489.902713	16909.562500	1412.282227	-21.026760
19489.902713	16909.562500	1411.205078	243.125137
19489.902713	16909.562500	1410.127930	111.718956
19489.902713	16909.562500	1409.049805	-125.657547
19489.902713	16909.562500	1407.972656	9.056738
19489.902713	16909.562500	1406.894531	-308.010040
19489.902713	16909.562500	1405.816406	-346.803741
19489.902713	16909.562500	1404.737305	-18.649769
19489.902713	16909.562500	1403.659180	-279.426483
19489.902713	16909.562500	1402.580078	-349.601624
19489.902713	16909.562500	1401.500977	-726.618103
19489.902713	16909.562500	1400.421875	-335.971436
19489.902713	16909.562500	1399.341797	-36.724346
19489.902713	16909.562500	1398.262695	-155.159958
19489.902713	16909.562500	1397.182617	-432.321808
19489.902713	16909.562500	1396.102539	-291.853363
19489.902713	16909.562500	1395.021484	-324.831970
19489.902713	16909.562500	1393.941406	-42.988121
19489.902713	16909.562500	1392.860352	48.359150
19489.902713	16909.562500	1391.779297	-148.469803
19489.902713	16909.562500	1390.698242	-428.525421
19489.902713	16909.562500	1389.616211	42.158989
19489.902713	16909.562500	1388.535156	-406.110504
19489.902713	16909.562500	1387.453125	-98.506073
19489.902713	16909.562500	1386.371094	-132.907913
19489.902713	16909.562500	1385.288086	-23.121845
19489.902713	16909.562500	1384.206055	-225.195435
19489.902713	16909.562500	1383.123047	80.931488
19489.902713	16909.562500	1382.040039	91.815178
19489.902713	16909.562500	1380.957031	240.404999
19489.902713	16909.562500	1379.873047	-65.474838
19489.902713	16909.562500	1378.789063	-0.038447
19489.902713	16909.562500	1377.705078	240.522858
19489.902713	16909.562500	1376.621094	290.228699
19489.902713	16909.562500	1375.537109	304.957977
19489.902713	16909.562500	1374.452148	423.219635
19489.902713	16909.562500	1373.367188	167.509171
19489.902713	16909.562500	1372.282227	102.517960
19489.902713	16909.562500	1371.197266	146.867050
19489.902713	16909.562500	1370.112305	158.068100
19489.902713	16909.562500	1369.026367	-98.267303
19489.902713	16909.562500	1367.940430	68.132332
19489.902713	16909.562500	1366.854492	128.403595
19489.902713	16909.562500	1365.767578	-29.345160
19489.902713	16909.562500	1364.681641	-298.272308
19489.902713	16909.562500	1363.594727	-20.746744
19489.902713	16909.562500	1362.507813	-165.576401
19489.902713	16909.562500	1361.419922	167.668274
19489.902713	16909.562500	1360.333008	3.572906
19489.902713	16909.562500	1359.245117	102.317406
19489.902713	16909.562500	1358.157227	-310.336975
19489.902713	16909.562500	1357.069336	-71.722610
19489.902713	16909.562500	1355.981445	167.089813
19489.902713	16909.562500	1354.892578	242.339767
19489.902713	16909.562500	1353.803711	131.549164
19489.902713	16909.562500	1352.714844	-326.509003
19489.902713	16909.562500	1351.625000	-92.434418
19489.902713	16909.562500	1350.536133	-278.696869
19489.902713	16909.562500	1349.446289	52.895561
19489.902713	16909.562500	1348.356445	-168.972519
19489.902713	16909.562500	1347.266602	-3.914943
19489.902713	16909.562500	1346.175781	113.575134
19489.902713	16909.562500	1345.085938	-17.404253
19489.902713	16909.562500	1343.995117	186.368408
19489.902713	16909.562500	1342.903320	-18.462290
19489.902713	16909.562500	1341.812500	228.985321
19489.902713	16909.562500	1340.720703	141.777863
19489.902713	16909.562500	1339.629883	0.206179
19489.902713	16909.562500	1338.538086	8.447169
19489.902713	16909.562500	1337.445313	31.907017
19489.902713	16909.562500	1336.353516	186.281296
19489.902713	16909.562500	1335.260742	100.072479
19489.902713	16909.562500	1334.167969	5.301627
19489.902713	16909.562500	1333.075195	259.292053
19489.902713	16909.562500	1331.981445	17.869831
19489.902713	16909.562500	1330.888672	200.532715
19489.902713	16909.562500	1329.794922	-148.441147
19489.902713	16909.562500	1328.701172	-210.160919
19489.902713	16909.562500	1327.606445	-161.924728
19489.902713	16909.562500	1326.512695	34.001541
19489.902713	16909.562500	1325.417969	25.393873
19489.902713	16909.562500	1324.323242	219.681152
19489.902713	16909.562500	1323.227539	-8.625356
19489.902713	16909.562500	1322.132813	97.741714
19489.902713	16909.562500	1321.037109	-127.600098
19489.902713	16909.562500	1319.941406	-131.828369
19489.902713	16909.562500	1318.845703	11.430698
19489.902713	16909.562500	1317.750000	-220.027222
19489.902713	16909.562500	1316.653320	-105.443596
19489.902713	16909.562500	1315.556641	265.069427
19489.902713	16909.562500	1314.459961	-21.258993
19489.902713	16909.562500	1313.363281	245.675339
19489.902713	16909.562500	1312.265625	147.108261
19489.902713	16909.562500	1311.167969	23.286058
19489.902713	16909.562500	1310.070313	62.965141
19489.902713	16909.562500	1308.972656	287.698792
19489.902713	16909.562500	1307.874023	295.024445
19489.902713	16909.562500	1306.776367	439.589752
19489.902713	16909.562500	1305.677734	357.975037
19489.902713	16909.562500	1304.579102	281.733673
19489.902713	16909.562500	1303.479492	335.884338
19489.902713	16909.562500	1302.380859	464.518219
19489.902713	16909.562500	1301.281250	324.303162
19489.902713	16909.562500	1300.181641	383.178345
19489.902713	16909.562500	1299.081055	390.135773
19489.902713	16909.562500	1297.981445	153.806000
19489.902713	16909.562500	1296.880859	410.832947
19489.902713	16909.562500	1295.780273	603.824829
19489.902713	16909.562500	1294.679688	486.492920
19489.902713	16909.562500	1293.578125	270.806580
19489.902713	16909.562500	1292.476563	320.982819
19489.902713	16909.562500	1291.375000	431.570618
19489.902713	16909.562500	1290.273438	753.853394
19489.902713	16909.562500	1289.171875	364.946533
19489.902713	16909.562500	1288.069336	378.019501
19489.902713	16909.562500	1286.966797	379.872162
19489.902713	16909.562500	1285.864258	200.408951
19489.902713	16909.562500	1284.761719	343.409210
19489.902713	16909.562500	1283.658203	392.164154
19489.902713	16909.562500	1282.554688	615.738525
19489.902713	16909.562500	1281.451172	498.671295
19489.902713	16909.562500	1280.347656	319.407867
19489.902713	16909.562500	1279.244141	525.200134
19489.902713	16909.562500	1278.139648	834.090027
19489.902713	16909.562500	1277.035156	717.371826
19489.902713	16909.562500	1275.930664	539.873474
19489.902713	16909.562500	1274.825195	1004.467529
19489.902713	16909.562500	1273.720703	803.201843
19489.902713	16909.562500	1272.615234	455.147675
19489.902713	16909.562500	1271.508789	1169.278076
19489.902713	16909.562500	1270.403320	1081.649658
19489.902713	16909.562500	1269.297852	1247.275635
19489.902713	16909.562500	1268.191406	1269.588013
19489.902713	16909.562500	1267.084961	1379.838379
19489.902713	16909.562500	1265.977539	1436.808350
19489.902713	16909.562500	1264.871094	1159.432007
19489.902713	16909.562500	1263.763672	967.030884
19489.902713	16909.562500	1262.656250	871.979065
19489.902713	16909.562500	1261.548828	1183.895264
19489.902713	16909.562500	1260.440430	784.524780
19489.902713	16909.562500	1259.333008	1261.977783
19489.902713	16909.562500	1258.224609	628.680786
19489.902713	16909.562500	1257.115234	706.852600
19489.902713	16909.562500	1256.006836	590.010620
19489.902713	16909.562500	1254.897461	527.302917
19489.902713	16909.562500	1253.788086	360.053284
19489.902713	16909.562500	1252.678711	578.894165
19489.902713	16909.562500	1251.569336	437.141418
19489.902713	16909.562500	1250.458984	276.670349
19489.902713	16909.562500	1249.349609	263.348297
19489.902713	16909.562500	1248.239258	317.594269
19489.902713	16909.562500	1247.127930	311.181519
19489.902713	16909.562500	1246.017578	-19.169786
19489.902713	16909.562500	1244.906250	196.418961
19489.902713	16909.562500	1243.794922	157.272339
19489.902713	16909.562500	1242.683594	122.889763
19489.902713	16909.562500	1241.571289	171.731262
19489.902713	16909.562500	1240.459961	72.984528
19489.902713	16909.562500	1239.347656	97.806580
19489.902713	16909.562500	1238.234375	264.109222
19489.902713	16909.562500	1237.122070	420.618561
19489.902713	16909.562500	1236.008789	470.554657
19489.902713	16909.562500	1234.896484	213.375702
19489.902713	16909.562500	1233.782227	383.278931
19489.902713	16909.562500	1232.668945	502.624390
19489.902713	16909.562500	1231.555664	278.946747
19489.902713	16909.562500	1230.441406	452.109161
19489.902713	16909.562500	1229.327148	412.739441
19489.902713	16909.562500	1228.211914	340.698975
19489.902713	16909.562500	1227.097656	502.241455
19489.902713	16909.562500	1225.982422	216.340424
19489.902713	16909.562500	1224.867188	374.681854
19489.902713	16909.562500	1223.751953	220.278732
19489.902713	16909.562500	1222.635742	579.525879
19489.902713	16909.562500	1221.520508	314.531799
19489.902713	16909.562500	1220.404297	315.932739
19489.902713	16909.562500	1219.287109	114.630379
19489.902713	16909.562500	1218.170898	47.473122
19489.902713	16909.562500	1217.053711	368.044739
19489.902713	16909.562500	1215.936523	291.659637
19489.902713	16909.562500	1214.819336	259.098236
19489.902713	16909.562500	1213.702148	235.838287
19489.902713	16909.562500	1212.583984	134.853165
19489.902713	16909.562500	1211.465820	225.742172
19489.902713	16909.562500	1210.347656	147.820908
19489.902713	16909.562500	1209.229492	155.666687
19489.902713	16909.562500	1208.110352	207.182724
19489.902713	16909.562500	1206.992188	220.483978
19489.902713	16909.562500	1205.873047	228.270325
19489.902713	16909.562500	1204.752930	393.615234
19489.902713	16909.562500	1203.633789	127.285812
19489.902713	16909.562500	1202.513672	234.210617
19489.902713	16909.562500	1201.393555	190.070602
19489.902713	16909.562500	1200.273438	205.597366
19489.902713	16909.562500	1199.152344	135.698196
19489.902713	16909.562500	1198.032227	-1.272096
19489.902713	16909.562500	1196.911133	-140.371155
19489.902713	16909.562500	1195.790039	-336.500122
19489.902713	16909.562500	1194.667969	-289.564148
19489.902713	16909.562500	1193.545898	-174.993774
19489.902713	16909.562500	1192.424805	-329.322937
19489.902713	16909.562500	1191.301758	-511.257690
19489.902713	16909.562500	1190.179688	-532.091736
19489.902713	16909.562500	1189.056641	-338.810364
19489.902713	16909.562500	1187.933594	-160.902634
19489.902713	16909.562500	1186.810547	-333.008057
19489.902713	16909.562500	1185.687500	-462.494659
19489.902713	16909.562500	1184.563477	-314.318420
19489.902713	16909.562500	1183.440430	-290.616699
19489.902713	16909.562500	1182.316406	-95.052635
19489.902713	16909.562500	1181.191406	-151.881042
19489.902713	16909.562500	1180.067383	-81.473465
19489.902713	16909.562500	1178.942383	-188.631882
19489.902713	16909.562500	1177.817383	-126.274887
19489.902713	16909.562500	1176.692383	-70.100525
19489.902713	16909.562500	1175.566406	145.216248
19489.902713	16909.562500	1174.440430	76.012802
19489.902713	16909.562500	1173.314453	34.710247
19489.902713	16909.562500	1172.188477	126.548050
19489.902713	16909.562500	1171.062500	129.855530
19489.902713	16909.562500	1169.935547	173.889175
19489.902713	16909.562500	1168.808594	264.756165
19489.902713	16909.562500	1167.681641	-45.843113
19489.902713	16909.562500	1166.553711	59.732494
19489.902713	16909.562500	1165.426758	-126.533905
19489.902713	16909.562500	1164.298828	55.535133
19489.902713	16909.562500	1163.170898	-216.425583
19489.902713	16909.562500	1162.041992	-357.021240
19489.902713	16909.562500	1160.914063	-91.113914
19489.902713	16909.562500	1159.785156	150.455826
19489.902713	16909.562500	1158.656250	-50.157433
19489.902713	16909.562500	1157.526367	-59.621590
19489.902713	16909.562500	1156.397461	-311.702423
19489.902713	16909.562500	1155.267578	-34.754723
19489.902713	16909.562500	1154.137695	-18.523928
19489.902713	16909.562500	1153.006836	-272.666504
19489.902713	16909.562500	1151.876953	-176.119461
19489.902713	16909.562500	1150.746094	-219.300644
19489.902713	16909.562500	1149.615234	-112.146538
19489.902713	16909.562500	1148.484375	-507.437012
19489.902713	16909.562500	1147.352539	-213.498810
19489.902713	16909.562500	1146.220703	-310.598206
19489.902713	16909.562500	1145.088867	-380.884186
19489.902713	16909.562500	1143.957031	-344.683350
19489.902713	16909.562500	1142.825195	-221.660278
19489.902713	16909.562500	1141.692383	-277.126526
19489.902713	16909.562500	1140.559570	-341.611481
19489.902713	16909.562500	1139.426758	-338.640961
19489.902713	16909.562500	1138.292969	-491.886169
19489.902713	16909.562500	1137.159180	-272.009003
19489.902713	16909.562500	1136.025391	-439.279297
19489.902713	16909.562500	1134.891602	-426.416229
19489.902713	16909.562500	1133.757813	-212.951324
19489.902713	16909.562500	1132.623047	-53.114960
19489.902713	16909.562500	1131.488281	-184.443283
19489.902713	16909.562500	1130.353516	55.004814
19489.902713	16909.562500	1129.217773	153.291672
19489.902713	16909.562500	1128.083008	31.043650
19489.902713	16909.562500	1126.947266	324.879730
19489.902713	16909.562500	1125.811523	250.094559
19489.902713	16909.562500	1124.674805	437.238251
19489.902713	16909.562500	1123.539063	345.643433
19489.902713	16909.562500	1122.402344	509.560852
19489.902713	16909.562500	1121.265625	356.742828
19489.902713	16909.562500	1120.127930	611.830811
19489.902713	16909.562500	1118.990234	445.553925
19489.902713	16909.562500	1117.853516	467.216125
19489.902713	16909.562500	1116.714844	592.680725
19489.902713	16909.562500	1115.577148	722.205444
19489.902713	16909.562500	1114.439453	461.285095
19489.902713	16909.562500	1113.300781	435.978394
19489.902713	16909.562500	1112.162109	385.497864
19489.902713	16909.562500	1111.022461	212.751572
19489.902713	16909.562500	1109.883789	77.923492
19489.902713	16909.562500	1108.744141	183.477997
19489.902713	16909.562500	1107.604492	187.487701
19489.902713	16909.562500	1106.463867	109.110115
19489.902713	16909.562500	1105.324219	132.870422
19489.902713	16909.562500	1104.183594	263.866577
19489.902713	16909.562500	1103.042969	242.126984
19489.902713	16909.562500	1101.902344	146.019150
19489.902713	16909.562500	1100.760742	69.764297
19489.902713	16909.562500	1099.619141	208.920746
19489.902713	16909.562500	1098.477539	-52.561951
19489.902713	16909.562500	1097.335938	513.074402
19489.902713	16909.562500	1096.193359	254.857086
19489.902713	16909.562500	1095.051758	74.359497
19489.902713	16909.562500	1093.909180	-31.641615
19489.902713	16909.562500	1092.765625	244.373245
19489.902713	16909.562500	1091.623047	106.640648
19489.902713	16909.562500	1090.479492	187.735229
19489.902713	16909.562500	1089.335938	-21.150084
19489.902713	16909.562500	1088.192383	183.721603
19489.902713	16909.562500	1087.047852	-189.631424
19489.902713	16909.562500	1085.903320	9.242184
19489.902713	16909.562500	1084.758789	99.550133
19489.902713	16909.562500	1083.614258	99.912254
19489.902713	16909.562500	1082.469727	-20.590649
19489.902713	16909.562500	1081.324219	-197.431305
19489.902713	16909.562500	1080.178711	-43.737396
19489.902713	16909.562500	1079.033203	108.825897
19489.902713	16909.562500	1077.886719	212.888840
19489.902713	16909.562500	1076.740234	197.248276
19489.902713	16909.562500	1075.593750	-42.428886
19489.902713	16909.562500	1074.447266	233.282120
19489.902713	16909.562500	1073.300781	-17.049406
19489.902713	16909.562500	1072.153320	111.377892
19489.902713	16909.562500	1071.005859	132.906860
19489.902713	16909.562500	1069.858398	255.776855
19489.902713	16909.562500	1068.709961	-90.103889
19489.902713	16909.562500	1067.561523	-176.895737
19489.902713	16909.562500	1066.413086	-64.835815
19489.902713	16909.562500	1065.264648	-147.094818
19489.902713	16909.562500	1064.116211	-79.964523
19489.902713	16909.562500	1062.966797	-88.119560
19489.902713	16909.562500	1061.817383	-25.978899
19489.902713	16909.562500	1060.667969	66.066185
19489.902713	16909.562500	1059.517578	-31.460241
19489.902713	16909.562500	1058.368164	41.762745
19489.902713	16909.562500	1057.217773	-56.692814
19489.902713	16909.562500	1056.067383	115.864670
19489.902713	16909.562500	1054.916016	182.444885
19489.902713	16909.562500	1053.764648	230.755524
19489.902713	16909.562500	1052.613281	49.120369
19489.902713	16909.562500	1051.461914	74.421829
19489.902713	16909.562500	1050.310547	-40.442028
19489.902713	16909.562500	1049.158203	256.119659
19489.902713	16909.562500	1048.005859	252.532532
19489.902713	16909.562500	1046.853516	62.243610
19489.902713	16909.562500	1045.700195	387.931091
19489.902713	16909.562500	1044.547852	223.272842
19489.902713	16909.562500	1043.394531	566.740601
19489.902713	16909.562500	1042.240234	724.396057
19489.902713	16909.562500	1041.086914	484.412567
19489.902713	16909.562500	1039.932617	612.487305
19489.902713	16909.562500	1038.778320	460.348602
19489.902713	16909.562500	1037.624023	776.268005
19489.902713	16909.562500	1036.469727	774.284546
19489.902713	16909.562500	1035.314453	874.277954
19489.902713	16909.562500	1034.159180	1028.118164
19489.902713	16909.562500	1033.003906	1275.205811
19489.902713	16909.562500	1031.847656	1183.601685
19489.902713	16909.562500	1030.692383	1465.647217
19489.902713	16909.562500	1029.536133	1472.553589
19489.902713	16909.562500	1028.378906	1500.842041
19489.902713	16909.562500	1027.222656	1280.279175
19489.902713	16909.562500	1026.065430	966.838623
19489.902713	16909.562500	1024.908203	1096.970581
19489.902713	16909.562500	1023.750977	958.382385
19489.902713	16909.562500	1022.593750	822.974854
19489.902713	16909.562500	1021.435547	1040.775879
19489.902713	16909.562500	1020.277344	890.867554
19489.902713	16909.562500	1019.119141	791.050903
19489.902713	16909.562500	1017.959961	813.449280
19489.902713	16909.562500	1016.800781	909.719421
19489.902713	16909.562500	1015.641602	816.813049
19489.902713	16909.562500	1014.482422	854.166382
19489.902713	16909.562500	1013.323242	1033.096558
19489.902713	16909.562500	1012.163086	1078.844849
19489.902713	16909.562500	1011.002930	1256.124023
19489.902713	16909.562500	1009.842773	1295.559937
19489.902713	16909.562500	1008.681641	1168.471436
19489.902713	16909.562500	1007.520508	1216.941162
19489.902713	16909.562500	1006.359375	1385.569580
19489.902713	16909.562500	1005.198242	1793.269653
19489.902713	16909.562500	1004.037109	1992.891846
19489.902713	16909.562500	1002.875000	2196.361816
19489.902713	16909.562500	1001.712891	2081.255371
19489.902713	16909.562500	1000.550781	1951.491699
19489.902713	16909.562500	999.387695	1429.067871
19489.902713	16909.562500	998.224609	1496.254028
19489.902713	16909.562500	997.061523	1252.308960
19489.902713	16909.562500	995.898438	988.100891
19489.902713	16909.562500	994.734375	925.511475
19489.902713	16909.562500	993.571289	969.720398
19489.902713	16909.562500	992.407227	901.184631
19489.902713	16909.562500	991.242188	917.904785
19489.902713	16909.562500	990.078125	754.401733
19489.902713	16909.562500	988.913086	478.490784
19489.902713	16909.562500	987.748047	710.195801
19489.902713	16909.562500	986.583008	764.590393
19489.902713	16909.562500	985.416992	453.367249
19489.902713	16909.562500	984.250977	403.191528
19489.902713	16909.562500	983.084961	430.689636
19489.902713	16909.562500	981.918945	374.450897
19489.902713	16909.562500	980.751953	906.704529
19489.902713	16909.562500	979.584961	530.223877
19489.902713	16909.562500	978.417969	431.756622
19489.902713	16909.562500	977.250977	405.845276
19489.902713	16909.562500	976.083008	468.300476
19489.902713	16909.562500	974.915039	635.699158
19489.902713	16909.562500	973.747070	458.523438
19489.902713	16909.562500	972.579102	274.558136
19489.902713	16909.562500	971.410156	726.410156
19489.902713	16909.562500	970.242188	669.003357
19489.902713	16909.562500	969.072266	779.603882
19489.902713	16909.562500	967.903320	628.597473
19489.902713	16909.562500	966.733398	945.812744
19489.902713	16909.562500	965.563477	713.343811
19489.902713	16909.562500	964.393555	505.001038
19489.902713	16909.562500	963.223633	703.475708
19489.902713	16909.562500	962.052734	882.951782
19489.902713	16909.562500	960.881836	858.350281
19489.902713	16909.562500	959.710938	623.231689
19489.902713	16909.562500	958.540039	940.269775
19489.902713	16909.562500	957.368164	1295.054199
19489.902713	16909.562500	956.196289	1129.992920
19489.902713	16909.562500	955.024414	1298.324341
19489.902713	16909.562500	953.851563	1411.022583
19489.902713	16909.562500	952.679688	1403.237061
19489.902713	16909.562500	951.506836	1411.525024
19489.902713	16909.562500	950.333984	779.287659
19489.902713	16909.562500	949.160156	1041.123413
19489.902713	16909.562500	947.986328	930.197571
19489.902713	16909.562500	946.812500	830.228821
19489.902713	16909.562500	945.638672	669.594360
19489.902713	16909.562500	944.464844	791.157654
19489.902713	16909.562500	943.290039	522.194214
19489.902713	16909.562500	942.115234	496.557617
19489.902713	16909.562500	940.940430	672.880737
19489.902713	16909.562500	939.764648	692.644043
19489.902713	16909.562500	938.588867	505.716919
19489.902713	16909.562500	937.413086	409.982483
19489.902713	16909.562500	936.237305	607.860901
19489.902713	16909.562500	935.060547	249.533310
19489.902713	16909.562500	933.883789	413.873596
19489.902713	16909.562500	932.707031	347.212158
19489.902713	16909.562500	931.530273	230.701675
19489.902713	16909.562500	930.352539	371.106781
19489.902713	16909.562500	929.175781	214.045517
19489.902713	16909.562500	927.998047	89.951103
19489.902713	16909.562500	926.819336	-37.877613
19489.902713	16909.562500	925.641602	353.271851
19489.902713	16909.562500	924.462891	-33.384712
19489.902713	16909.562500	923.284180	-150.489838
19489.902713	16909.562500	922.104492	-170.476807
19489.902713	16909.562500	920.924805	66.047234
19489.902713	16909.562500	919.746094	70.498970
19489.902713	16909.562500	919.551758	-233.841141
19489.902713	16909.562500	918.386719	125.081978
19489.902713	16909.562500	917.220703	-56.630413
19489.902713	16909.562500	916.054688	-351.923004
19489.902713	16909.562500	914.887695	-33.788319
19489.902713	16909.562500	913.721680	22.322079
19489.902713	16909.562500	912.554688	-282.258820
19489.902713	16909.562500	911.387695	-25.016394
19489.902713	16909.562500	910.220703	-35.092838
19489.902713	16909.562500	909.052734	-259.272034
19489.902713	16909.562500	907.885742	30.448343
19489.902713	16909.562500	906.717773	-283.425659
19489.902713	16909.562500	905.548828	-109.153656
19489.902713	16909.562500	904.380859	-39.219204
19489.902713	16909.562500	903.211914	6.852060
19489.902713	16909.562500	902.042969	169.753143
19489.902713	16909.562500	900.874023	-213.642532
19489.902713	16909.562500	899.704102	16.657948
19489.902713	16909.562500	898.535156	234.009567
19489.902713	16909.562500	897.365234	-85.486984
19489.902713	16909.562500	896.194336	-21.646000
19489.902713	16909.562500	895.024414	3.782389
19489.902713	16909.562500	893.853516	14.544993
19489.902713	16909.562500	892.682617	247.768890
19489.902713	16909.562500	891.511719	258.358704
19489.902713	16909.562500	890.340820	380.103821
19489.902713	16909.562500	889.168945	284.824768
19489.902713	16909.562500	887.997070	497.537537
19489.902713	16909.562500	886.825195	569.808777
19489.902713	16909.562500	885.653320	465.291138
19489.902713	16909.562500	884.480469	333.451508
19489.902713	16909.562500	883.307617	261.716064
19489.902713	16909.562500	882.134766	206.356613
19489.902713	16909.562500	880.961914	181.924149
19489.902713	16909.562500	879.788086	26.434202
19489.902713	16909.562500	878.614258	-21.675173
19489.902713	16909.562500	877.440430	81.193901
19489.902713	16909.562500	876.266602	-92.466164
19489.902713	16909.562500	875.091797	77.600243
19489.902713	16909.562500	873.916992	142.124191
19489.902713	16909.562500	872.742188	-142.394135
19489.902713	16909.562500	871.567383	7.516130
19489.902713	16909.562500	870.391602	8.358536
19489.902713	16909.562500	869.215820	40.065350
19489.902713	16909.562500	868.040039	60.845684
19489.902713	16909.562500	866.864258	81.605896
19489.902713	16909.562500	865.687500	53.327938
19489.902713	16909.562500	864.510742	25.055407
19489.902713	16909.562500	863.333984	18.561800
19489.902713	16909.562500	862.157227	140.882324
19489.902713	16909.562500	860.979492	92.639458
19489.902713	16909.562500	859.802734	62.551167
19489.902713	16909.562500	858.625000	28.848713
19489.902713	16909.562500	857.446289	212.703949
19489.902713	16909.562500	856.268555	142.742950
19489.902713	16909.562500	855.089844	147.114929
19489.902713	16909.562500	853.911133	91.705124
19489.902713	16909.562500	852.731445	52.632023
19489.902713	16909.562500	851.552734	127.675873
19489.902713	16909.562500	850.373047	-43.537582
19489.902713	16909.562500	849.193359	-122.341972
19489.902713	16909.562500	848.013672	-88.887878
19489.902713	16909.562500	846.833008	47.716583
19489.902713	16909.562500	845.652344	-157.639664
19489.902713	16909.562500	844.471680	-13.800635
19489.902713	16909.562500	843.291016	48.625954
19489.902713	16909.562500	842.110352	-33.586781
19489.902713	16909.562500	840.928711	-258.539154
19489.902713	16909.562500	839.747070	-161.678406
19489.902713	16909.562500	838.564453	-23.266937
19489.902713	16909.562500	837.382813	46.470844
19489.902713	16909.562500	836.200195	63.834686
19489.902713	16909.562500	835.017578	-211.306442
19489.902713	16909.562500	833.834961	-85.497963
19489.902713	16909.562500	832.651367	128.743805
19489.902713	16909.562500	831.467773	-3.558037
19489.902713	16909.562500	830.284180	189.008026
19489.902713	16909.562500	829.100586	170.478470
19489.902713	16909.562500	827.916992	271.034302
19489.902713	16909.562500	826.732422	335.532288
19489.902713	16909.562500	825.547852	412.669006
19489.902713	16909.562500	824.363281	428.537506
19489.902713	16909.562500	823.177734	255.236740
19489.902713	16909.562500	821.992188	318.076385
19489.902713	16909.562500	820.806641	272.862274
19489.902713	16909.562500	819.621094	706.769287
19489.902713	16909.562500	818.434570	476.142548
19489.902713	16909.562500	817.249023	476.089905
19489.902713	16909.562500	816.062500	535.488037
19489.902713	16909.562500	814.875000	735.277527
19489.902713	16909.562500	813.688477	949.430969
19489.902713	16909.562500	812.500977	823.600708
19489.902713	16909.562500	811.313477	920.876953
19489.902713	16909.562500	810.125977	1012.778076
19489.902713	16909.562500	808.937500	871.016541
19489.902713	16909.562500	807.749023	522.693970
19489.902713	16909.562500	806.560547	420.748657
19489.902713	16909.562500	805.372070	529.095276
19489.902713	16909.562500	804.182617	278.241272
19489.902713	16909.562500	802.994141	47.306580
19489.902713	16909.562500	801.803711	-57.785454
19489.902713	16909.562500	800.614258	83.142509
19489.902713	16909.562500	799.424805	-229.962769
19489.902713	16909.562500	798.234375	-410.091827
19489.902713	16909.562500	797.043945	-51.917217
19489.902713	16909.562500	795.852539	-316.165771
19489.902713	16909.562500	794.662109	-112.232246
19489.902713	16909.562500	793.470703	-279.414490
19489.902713	16909.562500	792.279297	-159.674484
19489.902713	16909.562500	791.087891	-104.427994
19489.902713	16909.562500	789.895508	-314.296295
19489.902713	16909.562500	788.703125	-230.239716
19489.902713	16909.562500	787.510742	20.407898
19489.902713	16909.562500	786.318359	-294.788940
19489.902713	16909.562500	785.125000	-539.965088
19489.902713	16909.562500	783.931641	-468.177002
19489.902713	16909.562500	782.738281	-451.819153
19489.902713	16909.562500	781.544922	-447.922943
19489.902713	16909.562500	780.350586	-522.656372
19489.902713	16909.562500	779.156250	-606.228577
19489.902713	16909.562500	777.961914	-314.231506
19489.902713	16909.562500	776.767578	-385.161499
19489.902713	16909.562500	775.572266	-262.971710
19489.902713	16909.562500	774.376953	-78.225082
19489.902713	16909.562500	773.181641	-182.892731
19489.902713	16909.562500	771.986328	-233.865646
19489.902713	16909.562500	770.790039	-329.387909
19489.902713	16909.562500	769.593750	-123.079544
19489.902713	16909.562500	768.397461	-16.749659
19489.902713	16909.562500	767.201172	-229.840210
19489.902713	16909.562500	766.003906	-73.437012
19489.902713	16909.562500	764.806641	-102.553032
19489.902713	16909.562500	763.609375	209.051285
19489.902713	16909.562500	762.412109	133.656464
19489.902713	16909.562500	761.213867	72.622086
19489.902713	16909.562500	760.015625	2.762912
19489.902713	16909.562500	758.817383	23.878899
19489.902713	16909.562500	757.618164	192.925354
19489.902713	16909.562500	756.419922	66.268356
19489.902713	16909.562500	755.220703	25.211937
19489.902713	16909.562500	754.021484	7.377068
19489.902713	16909.562500	752.821289	144.484711
19489.902713	16909.562500	751.621094	-4.951765
19489.902713	16909.562500	750.420898	14.771621
19489.902713	16909.562500	749.220703	-127.350174
19489.902713	16909.562500	748.020508	104.158241
19489.902713	16909.562500	746.819336	175.582306
19489.902713	16909.562500	745.618164	97.683044
19489.902713	16909.562500	744.416992	-129.449036
19489.902713	16909.562500	743.214844	173.164871
19489.902713	16909.562500	742.012695	186.082413
19489.902713	16909.562500	740.810547	119.099083
19489.902713	16909.562500	739.608398	114.350174
19489.902713	16909.562500	738.406250	480.765869
19489.902713	16909.562500	737.203125	199.082764
19489.902713	16909.562500	736.000000	483.766388
19489.902713	16909.562500	734.795898	461.371704
19489.902713	16909.562500	733.592773	190.629776
19489.902713	16909.562500	732.388672	372.370819
19489.902713	16909.562500	731.184570	585.989746
19489.902713	16909.562500	729.979492	138.191910
19489.902713	16909.562500	728.775391	468.834961
19489.902713	16909.562500	727.570313	308.428925
19489.902713	16909.562500	726.365234	261.524719
19489.902713	16909.562500	725.160156	347.536530
19489.902713	16909.562500	723.954102	151.911819
19489.902713	16909.562500	722.748047	466.402588
19489.902713	16909.562500	721.541992	394.811554
19489.902713	16909.562500	720.334961	392.308868
19489.902713	16909.562500	719.128906	280.089478
19489.902713	16909.562500	717.921875	321.876373
19489.902713	16909.562500	716.714844	368.962280
19489.902713	16909.562500	715.506836	341.761322
19489.902713	16909.562500	714.298828	420.675568
19489.902713	16909.562500	713.090820	308.626770
19489.902713	16909.562500	711.882813	237.280777
19489.902713	16909.562500	710.674805	250.791656
19489.902713	16909.562500	709.465820	77.018776
19489.902713	16909.562500	708.256836	367.889435
19489.902713	16909.562500	707.047852	238.307693
19489.902713	16909.562500	705.837891	530.779236
19489.902713	16909.562500	704.627930	270.571228
19489.902713	16909.562500	703.417969	517.001709
19489.902713	16909.562500	702.208008	218.060471
19489.902713	16909.562500	700.998047	407.911316
19489.902713	16909.562500	699.787109	246.665237
19489.902713	16909.562500	698.576172	374.675262
19489.902713	16909.562500	697.364258	483.216400
19489.902713	16909.562500	696.153320	247.950226
19489.902713	16909.562500	694.941406	74.440819
19489.902713	16909.562500	693.729492	484.191589
19489.902713	16909.562500	692.516602	560.795715
19489.902713	16909.562500	691.304688	501.709930
19489.902713	16909.562500	690.091797	643.355408
19489.902713	16909.562500	688.878906	640.538330
19489.902713	16909.562500	687.665039	542.638855
19489.902713	16909.562500	686.451172	807.244507
19489.902713	16909.562500	685.237305	640.638000
19489.902713	16909.562500	684.023438	934.914368
19489.902713	16909.562500	682.809570	1195.598511
19489.902713	16909.562500	681.594727	1276.777466
19489.902713	16909.562500	680.379883	1327.978149
19489.902713	16909.562500	679.165039	1526.729492
19489.902713	16909.562500	677.949219	1702.495239
19489.902713	16909.562500	676.733398	1911.497681
19489.902713	16909.562500	675.517578	1849.853638
19489.902713	16909.562500	674.301758	1933.916138
19489.902713	16909.562500	673.084961	1919.556641
19489.902713	16909.562500	671.869141	1845.438477
19489.902713	16909.562500	670.651367	2059.095459
19489.902713	16909.562500	669.434570	1914.639160
19489.902713	16909.562500	668.216797	1877.170410
19489.902713	16909.562500	667.000000	1627.409546
19489.902713	16909.562500	665.781250	1752.919189
19489.902713	16909.562500	664.563477	1690.694336
19489.902713	16909.562500	663.344727	1698.517090
19489.902713	16909.562500	662.125977	1716.751343
19489.902713	16909.562500	660.907227	1605.230835
19489.902713	16909.562500	659.688477	1791.431519
19489.902713	16909.562500	658.468750	1753.290771
19489.902713	16909.562500	657.249023	1785.094727
19489.902713	16909.562500	656.029297	1732.751099
19489.902713	16909.562500	654.808594	1823.833862
19489.902713	16909.562500	653.587891	1498.315063
19489.902713	16909.562500	652.367188	1491.207886
19489.902713	16909.562500	651.146484	1417.521851
19489.902713	16909.562500	649.924805	1443.420288
19489.902713	16909.562500	648.704102	1505.895630
19489.902713	16909.562500	647.482422	1349.730103
19489.902713	16909.562500	646.259766	1202.243286
19489.902713	16909.562500	645.037109	1419.849609
19489.902713	16909.562500	643.815430	1459.049805
19489.902713	16909.562500	642.591797	1588.920776
19489.902713	16909.562500	641.369141	1414.777954
19489.902713	16909.562500	640.145508	1554.796509
19489.902713	16909.562500	638.921875	1563.715820
19489.902713	16909.562500	637.698242	1689.397095
19489.902713	16909.562500	636.474609	1753.818848
19489.902713	16909.562500	635.250000	1352.356323
19489.902713	16909.562500	634.025391	1571.727783
19489.902713	16909.562500	632.800781	1436.925537
19489.902713	16909.562500	631.575195	1092.850098
19489.902713	16909.562500	630.349609	1370.929077
19489.902713	16909.562500	629.124023	1336.844360
19489.902713	16909.562500	627.898438	1137.121582
19489.902713	16909.562500	626.671875	1071.430420
19489.902713	16909.562500	625.445313	873.265503
19489.902713	16909.562500	624.218750	910.041443
19489.902713	16909.562500	622.992188	859.606262
19489.902713	16909.562500	621.764648	610.646790
19489.902713	16909.562500	620.537109	676.525696
19489.902713	16909.562500	619.309570	771.774902
19489.902713	16909.562500	618.081055	677.252747
19489.902713	16909.562500	616.852539	599.980713
19489.902713	16909.562500	615.624023	694.662720
19489.902713	16909.562500	614.395508	526.692078
19489.902713	16909.562500	613.166992	704.395752
19489.902713	16909.562500	611.937500	398.897400
19489.902713	16909.562500	610.708008	265.293671
19489.902713	16909.562500	609.477539	393.772430
19489.902713	16909.562500	608.248047	239.029221
19489.902713	16909.562500	607.017578	646.546204
19489.902713	16909.562500	605.787109	541.768433
19489.902713	16909.562500	604.555664	504.514435
19489.902713	16909.562500	603.325195	397.703674
19489.902713	16909.562500	602.093750	490.190460
19489.902713	16909.562500	600.861328	513.091003
19489.902713	16909.562500	599.629883	116.281036
19489.902713	16909.562500	598.397461	294.856293
19489.902713	16909.562500	597.165039	209.781006
19489.902713	16909.562500	595.932617	403.472839
19489.902713	16909.562500	594.699219	217.567902
19489.902713	16909.562500	593.465820	216.841568
19489.902713	16909.562500	592.232422	484.278137
19489.902713	16909.562500	590.999023	470.994812
19489.902713	16909.562500	589.764648	478.289459
19489.902713	16909.562500	588.530273	438.674652
19489.902713	16909.562500	587.295898	172.273651
19489.902713	16909.562500	586.061523	331.244965
19489.902713	16909.562500	584.826172	292.837341
19489.902713	16909.562500	583.590820	-17.158464
19489.902713	16909.562500	582.355469	-38.573936
19489.902713	16909.562500	581.119141	-179.406677
19489.902713	16909.562500	579.882813	-159.701141
19489.902713	16909.562500	578.646484	41.170349
19489.902713	16909.562500	577.410156	359.194916
19489.902713	16909.562500	576.172852	179.652023
19489.902713	16909.562500	574.935547	205.412170
19489.902713	16909.562500	573.698242	89.458801
19489.902713	16909.562500	572.460938	9.605494
19489.902713	16909.562500	571.222656	150.400986
19489.902713	16909.562500	569.984375	-86.752113
19489.902713	16909.562500	568.746094	-44.645439
19489.902713	16909.562500	567.506836	128.275391
19489.902713	16909.562500	566.267578	-23.090271
19489.902713	16909.562500	565.028320	128.716171
19489.902713	16909.562500	563.789063	133.838882
19489.902713	16909.562500	562.548828	355.810547
19489.902713	16909.562500	561.309570	269.262238
19489.902713	16909.562500	560.068359	117.139877
19489.902713	16909.562500	558.828125	178.368484
19489.902713	16909.562500	557.586914	-237.322662
19489.902713	16909.562500	556.345703	-186.708328
19489.902713	16909.562500	555.104492	-103.594963
19489.902713	16909.562500	553.863281	-263.187408
19489.902713	16909.562500	552.621094	-91.008179
19489.902713	16909.562500	551.378906	-23.928850
19489.902713	16909.562500	550.136719	72.183815
19489.902713	16909.562500	548.893555	137.164597
19489.902713	16909.562500	547.650391	-62.615345
19489.902713	16909.562500	546.407227	2.065303
19489.902713	16909.562500	545.164063	21.922089
19489.902713	16909.562500	543.919922	-8.173271
19489.902713	16909.562500	542.675781	2.803396
19489.902713	16909.562500	541.431641	-46.432186
19489.902713	16909.562500	540.186523	67.216171
19489.902713	16909.562500	538.941406	124.071960
19489.902713	16909.562500	537.696289	-158.820801
19489.902713	16909.562500	536.451172	50.415928
19489.902713	16909.562500	535.205078	-109.162849
19489.902713	16909.562500	533.959961	149.435837
19489.902713	16909.562500	532.712891	167.878464
19489.902713	16909.562500	531.466797	64.563560
19489.902713	16909.562500	530.219727	48.531380
19489.902713	16909.562500	528.972656	107.749123
19489.902713	16909.562500	527.725586	34.999428
19489.902713	16909.562500	526.478516	148.766129
19489.902713	16909.562500	525.230469	-146.657806
19489.902713	16909.562500	523.982422	-15.992262
19489.902713	16909.562500	522.734375	-285.780640
19489.902713	16909.562500	521.485352	-105.730133
19489.902713	16909.562500	520.236328	-314.005615
19489.902713	16909.562500	518.987305	-86.322357
19489.902713	16909.562500	517.737305	-217.766556
19489.902713	16909.562500	516.488281	-195.418976
19489.902713	16909.562500	515.238281	-381.600098
19489.902713	16909.562500	513.988281	-33.121029
19489.902713	16909.562500	512.737305	-325.281006
19489.902713	16909.562500	511.486328	-151.252350
19489.902713	16909.562500	510.235352	-465.570618
19489.902713	16909.562500	508.984375	-112.496010
19489.902713	16909.562500	507.732422	-172.560455
19489.902713	16909.562500	506.480469	-113.231064
19489.902713	16909.562500	505.228516	-30.092363
19489.902713	16909.562500	503.976563	-199.398804
19489.902713	16909.562500	502.723633	-201.606369
19489.902713	16909.562500	501.470703	-220.891235
19489.902713	16909.562500	500.217773	-347.558777
19489.902713	16909.562500	498.963867	-351.537842
19489.902713	16909.562500	497.709961	-345.319183
19489.902713	16909.562500	496.456055	-189.259155
19489.902713	16909.562500	495.202148	-157.579437
19489.902713	16909.562500	493.947266	-71.465088
19489.902713	16909.562500	492.692383	92.885872
19489.902713	16909.562500	491.437500	121.034676
19489.902713	16909.562500	490.181641	431.547943
19489.902713	16909.562500	488.926758	660.292175
19489.902713	16909.562500	487.670898	616.854858
19489.902713	16909.562500	486.414063	758.734253
19489.902713	16909.562500	485.158203	735.690979
19489.902713	16909.562500	483.901367	627.685242
19489.902713	16909.562500	482.644531	548.611755
19489.902713	16909.562500	481.386719	583.377991
19489.902713	16909.562500	480.128906	541.714233
19489.902713	16909.562500	478.871094	286.145233
19489.902713	16909.562500	477.613281	329.461090
19489.902713	16909.562500	476.355469	321.852112
19489.902713	16909.562500	475.096680	241.289429
19489.902713	16909.562500	473.837891	298.181976
19489.902713	16909.562500	472.578125	248.201614
19489.902713	16909.562500	471.319336	167.745300
19489.902713	16909.562500	470.059570	16.120911
19489.902713	16909.562500	468.799805	240.853561
19489.902713	16909.562500	467.539063	26.592655
19489.902713	16909.562500	466.278320	-2.895065
19489.902713	16909.562500	465.017578	84.514038
19489.902713	16909.562500	463.756836	160.037048
19489.902713	16909.562500	462.495117	-96.328140
19489.902713	16909.562500	461.233398	-288.255554
19489.902713	16909.562500	459.971680	-148.390427
19489.902713	16909.562500	458.709961	13.408792
19489.902713	16909.562500	457.447266	-54.945377
19489.902713	16909.562500	456.184570	-160.487808
19489.902713	16909.562500	454.921875	-171.306625
19489.902713	16909.562500	453.658203	-195.672134
19489.902713	16909.562500	452.394531	-324.845062
19489.902713	16909.562500	451.130859	-126.162819
19489.902713	16909.562500	449.867188	-333.072693
19489.902713	16909.562500	448.602539	-224.083221
19489.902713	16909.562500	447.337891	-154.029129
19489.902713	16909.562500	446.073242	-100.945084
19489.902713	16909.562500	444.807617	-145.862717
19489.902713	16909.562500	443.542969	-60.871754
19489.902713	16909.562500	442.276367	-175.119064
19489.902713	16909.562500	441.010742	-2.620716
19489.902713	16909.562500	439.744141	-24.262793
19489.902713	16909.562500	438.478516	206.933472
19489.902713	16909.562500	437.210938	232.216385
19489.902713	16909.562500	435.944336	395.570251
19489.902713	16909.562500	434.676758	115.517891
19489.902713	16909.562500	433.409180	91.503838
19489.902713	16909.562500	432.141602	126.277763
19489.902713	16909.562500	430.873047	132.208328
19489.902713	16909.562500	429.604492	257.468719
19489.902713	16909.562500	428.335938	138.378601
19489.902713	16909.562500	427.067383	195.805786
19489.902713	16909.562500	425.797852	231.068237
19489.902713	16909.562500	424.528320	190.340439
19489.902713	16909.562500	423.258789	122.427109
19489.902713	16909.562500	421.988281	185.365631
19489.902713	16909.562500	420.717773	268.113586
19489.902713	16909.562500	419.447266	456.349976
19489.902713	16909.562500	418.175781	553.368286
19489.902713	16909.562500	416.905273	456.750977
19489.902713	16909.562500	415.633789	598.234863
19489.902713	16909.562500	414.362305	581.348145
19489.902713	16909.562500	413.089844	829.230591
19489.902713	16909.562500	411.817383	692.106079
19489.902713	16909.562500	410.544922	720.632751
19489.902713	16909.562500	409.272461	577.434326
19489.902713	16909.562500	407.999023	656.771179
19489.902713	16909.562500	406.725586	443.620087
19489.902713	16909.562500	405.452148	672.534851
19489.902713	16909.562500	404.177734	595.524414
19489.902713	16909.562500	402.903320	440.699951
19489.902713	16909.562500	401.628906	536.494141
19489.902713	16909.562500	400.354492	385.156677
19489.902713	16909.562500	399.079102	559.594971
19489.902713	16909.562500	397.803711	244.084915
19489.902713	16909.562500	396.528320	205.661011
19489.902713	16909.562500	395.251953	442.403778
19489.902713	16909.562500	393.976563	355.043915
19489.902713	16909.562500	392.700195	174.576584
19489.902713	16909.562500	391.422852	220.500229
19489.902713	16909.562500	390.145508	138.099503
19489.902713	16909.562500	388.869141	246.780212
19489.902713	16909.562500	387.590820	228.675186
19489.902713	16909.562500	386.313477	331.233643
19489.902713	16909.562500	385.035156	238.464508
19489.902713	16909.562500	383.756836	423.218750
19489.902713	16909.562500	382.478516	250.592560
19489.902713	16909.562500	381.199219	199.952835
19489.902713	16909.562500	379.919922	-15.959372
19489.902713	16909.562500	378.640625	26.838856
19489.902713	16909.562500	377.360352	167.874268
19489.902713	16909.562500	376.080078	563.867981
19489.902713	16909.562500	374.799805	485.671600
19489.902713	16909.562500	373.519531	483.831909
19489.902713	16909.562500	372.238281	651.538635
19489.902713	16909.562500	370.957031	883.627014
19489.902713	16909.562500	369.675781	899.994507
19489.902713	16909.562500	368.394531	825.655151
19489.902713	16909.562500	367.112305	812.118225
19489.902713	16909.562500	365.830078	969.216064
19489.902713	16909.562500	364.546875	415.862793
19489.902713	16909.562500	363.264648	437.695190
19489.902713	16909.562500	361.981445	231.904266
19489.902713	16909.562500	360.698242	427.581635
19489.902713	16909.562500	359.414063	427.051544
19489.902713	16909.562500	358.129883	-20.757818
19489.902713	16909.562500	356.845703	366.433105
19489.902713	16909.562500	355.561523	78.375687
19489.902713	16909.562500	354.276367	215.683060
19489.902713	16909.562500	352.991211	232.951202
19489.902713	16909.562500	351.706055	271.356018
19489.902713	16909.562500	350.420898	257.671844
19489.902713	16909.562500	349.134766	224.929169
19489.902713	16909.562500	347.848633	81.769211
19489.902713	16909.562500	346.561523	-50.786823
19489.902713	16909.562500	345.275391	-99.677963
19489.902713	16909.562500	343.988281	-423.697144
19489.902713	16909.562500	342.700195	-67.282318
19489.902713	16909.562500	341.413086	-57.475765
19489.902713	16909.562500	340.125000	176.002930
19489.902713	16909.562500	338.836914	-114.730118
19489.902713	16909.562500	337.548828	-370.927643
19489.902713	16909.562500	336.259766	66.632133
19489.902713	16909.562500	334.970703	-215.770737
19489.902713	16909.562500	333.681641	-303.512177
19489.902713	16909.562500	332.391602	-195.380295
19489.902713	16909.562500	331.101563	65.395477
19489.902713	16909.562500	329.811523	-294.501068
19489.902713	16909.562500	328.521484	-185.902130
19489.902713	16909.562500	327.230469	-148.859207
19489.902713	16909.562500	325.939453	-168.496933
19489.902713	16909.562500	324.648438	-327.670715
19489.902713	16909.562500	323.356445	-291.018951
19489.902713	16909.562500	322.064453	-587.721313
19489.902713	16909.562500	320.772461	-297.188629
19489.902713	16909.562500	319.480469	-485.836273
19489.902713	16909.562500	318.187500	-164.197754
19489.902713	16909.562500	316.894531	-452.504364
19489.902713	16909.562500	315.601563	-159.991547
19489.902713	16909.562500	314.307617	-137.749908
19489.902713	16909.562500	313.013672	-329.533020
19489.902713	16909.562500	311.719727	182.083313
19489.902713	16909.562500	310.425781	157.304947
19489.902713	16909.562500	309.130859	235.988129
19489.902713	16909.562500	307.835938	221.767578
19489.902713	16909.562500	306.541016	210.056519
19489.902713	16909.562500	305.245117	365.138123
19489.902713	16909.562500	303.949219	734.658020
19489.902713	16909.562500	302.653320	515.733826
19489.902713	16909.562500	301.356445	739.398926
19489.902713	16909.562500	300.060547	1191.527100
19489.902713	16909.562500	298.763672	1584.524048
