#X		#Y		#Wave		#Intensity
19416.225851	16899.251500	2000.043945	-160.255798
19416.225851	16899.251500	1999.080078	140.907471
19416.225851	16899.251500	1998.116211	20.973816
19416.225851	16899.251500	1997.151367	74.322090
19416.225851	16899.251500	1996.186523	-358.219177
19416.225851	16899.251500	1995.222656	-322.652557
19416.225851	16899.251500	1994.256836	210.530746
19416.225851	16899.251500	1993.291992	27.622950
19416.225851	16899.251500	1992.327148	250.607346
19416.225851	16899.251500	1991.361328	37.638149
19416.225851	16899.251500	1990.395508	121.529091
19416.225851	16899.251500	1989.429688	39.399002
19416.225851	16899.251500	1988.463867	117.913460
19416.225851	16899.251500	1987.497070	164.065308
19416.225851	16899.251500	1986.531250	271.825958
19416.225851	16899.251500	1985.564453	-110.203476
19416.225851	16899.251500	1984.597656	-126.388306
19416.225851	16899.251500	1983.630859	12.979564
19416.225851	16899.251500	1982.664063	110.119843
19416.225851	16899.251500	1981.696289	16.820635
19416.225851	16899.251500	1980.728516	37.033432
19416.225851	16899.251500	1979.761719	-86.180328
19416.225851	16899.251500	1978.792969	398.005554
19416.225851	16899.251500	1977.825195	74.500366
19416.225851	16899.251500	1976.857422	106.439117
19416.225851	16899.251500	1975.888672	-32.051666
19416.225851	16899.251500	1974.919922	-20.102091
19416.225851	16899.251500	1973.951172	82.998955
19416.225851	16899.251500	1972.982422	18.200794
19416.225851	16899.251500	1972.013672	175.269058
19416.225851	16899.251500	1971.043945	-175.776230
19416.225851	16899.251500	1970.075195	67.325272
19416.225851	16899.251500	1969.105469	-89.070190
19416.225851	16899.251500	1968.135742	8.321675
19416.225851	16899.251500	1967.165039	278.055328
19416.225851	16899.251500	1966.195313	286.454132
19416.225851	16899.251500	1965.224609	-3.263490
19416.225851	16899.251500	1964.253906	467.964233
19416.225851	16899.251500	1963.283203	266.773315
19416.225851	16899.251500	1962.312500	309.272400
19416.225851	16899.251500	1961.341797	100.636467
19416.225851	16899.251500	1960.370117	51.946144
19416.225851	16899.251500	1959.399414	79.463104
19416.225851	16899.251500	1958.427734	3.587595
19416.225851	16899.251500	1957.455078	55.560490
19416.225851	16899.251500	1956.483398	564.796082
19416.225851	16899.251500	1955.511719	395.245544
19416.225851	16899.251500	1954.539063	46.266098
19416.225851	16899.251500	1953.566406	230.642334
19416.225851	16899.251500	1952.593750	591.798584
19416.225851	16899.251500	1951.621094	414.760742
19416.225851	16899.251500	1950.647461	299.151093
19416.225851	16899.251500	1949.674805	-155.365646
19416.225851	16899.251500	1948.701172	-49.957588
19416.225851	16899.251500	1947.727539	99.546593
19416.225851	16899.251500	1946.753906	-133.925217
19416.225851	16899.251500	1945.780273	329.547028
19416.225851	16899.251500	1944.805664	257.967834
19416.225851	16899.251500	1943.831055	358.082611
19416.225851	16899.251500	1942.856445	222.678482
19416.225851	16899.251500	1941.881836	141.237717
19416.225851	16899.251500	1940.907227	25.469149
19416.225851	16899.251500	1939.932617	44.522938
19416.225851	16899.251500	1938.957031	210.586624
19416.225851	16899.251500	1937.981445	369.206390
19416.225851	16899.251500	1937.005859	140.676773
19416.225851	16899.251500	1936.030273	115.499290
19416.225851	16899.251500	1935.054688	207.851212
19416.225851	16899.251500	1934.078125	520.509521
19416.225851	16899.251500	1933.101563	397.293793
19416.225851	16899.251500	1932.125000	203.123230
19416.225851	16899.251500	1931.148438	-260.164886
19416.225851	16899.251500	1930.171875	223.524414
19416.225851	16899.251500	1929.194336	413.491241
19416.225851	16899.251500	1928.217773	251.185806
19416.225851	16899.251500	1927.240234	191.632767
19416.225851	16899.251500	1926.262695	151.643646
19416.225851	16899.251500	1925.284180	-20.325397
19416.225851	16899.251500	1924.306641	250.081985
19416.225851	16899.251500	1923.328125	254.058197
19416.225851	16899.251500	1922.350586	155.412704
19416.225851	16899.251500	1921.372070	-133.709122
19416.225851	16899.251500	1920.392578	129.166199
19416.225851	16899.251500	1919.414063	-196.483978
19416.225851	16899.251500	1918.434570	-43.561314
19416.225851	16899.251500	1917.456055	333.837311
19416.225851	16899.251500	1916.476563	69.321869
19416.225851	16899.251500	1915.497070	83.031693
19416.225851	16899.251500	1914.516602	77.223183
19416.225851	16899.251500	1913.537109	61.650913
19416.225851	16899.251500	1912.556641	311.869995
19416.225851	16899.251500	1911.576172	232.875076
19416.225851	16899.251500	1910.595703	95.404953
19416.225851	16899.251500	1909.615234	-90.750916
19416.225851	16899.251500	1908.633789	-55.109772
19416.225851	16899.251500	1907.653320	-314.257050
19416.225851	16899.251500	1906.671875	11.252754
19416.225851	16899.251500	1905.690430	54.156349
19416.225851	16899.251500	1904.708984	-80.686623
19416.225851	16899.251500	1903.727539	135.052231
19416.225851	16899.251500	1902.745117	443.203094
19416.225851	16899.251500	1901.762695	-153.973953
19416.225851	16899.251500	1900.780273	-86.740486
19416.225851	16899.251500	1899.797852	-51.154972
19416.225851	16899.251500	1898.815430	329.763184
19416.225851	16899.251500	1897.832031	-228.030930
19416.225851	16899.251500	1896.849609	374.009766
19416.225851	16899.251500	1895.866211	302.545319
19416.225851	16899.251500	1894.882813	158.202789
19416.225851	16899.251500	1893.898438	-3.090183
19416.225851	16899.251500	1892.915039	-161.895996
19416.225851	16899.251500	1891.930664	-211.335922
19416.225851	16899.251500	1890.947266	30.636969
19416.225851	16899.251500	1889.962891	49.163071
19416.225851	16899.251500	1888.977539	91.961021
19416.225851	16899.251500	1887.993164	-214.754349
19416.225851	16899.251500	1887.007813	165.368240
19416.225851	16899.251500	1886.023438	-24.788458
19416.225851	16899.251500	1885.038086	-110.568497
19416.225851	16899.251500	1884.051758	240.223206
19416.225851	16899.251500	1883.066406	91.383438
19416.225851	16899.251500	1882.081055	168.058350
19416.225851	16899.251500	1881.094727	-31.609783
19416.225851	16899.251500	1880.108398	-97.920029
19416.225851	16899.251500	1879.122070	36.900764
19416.225851	16899.251500	1878.135742	-167.479752
19416.225851	16899.251500	1877.148438	-83.560028
19416.225851	16899.251500	1876.162109	215.835526
19416.225851	16899.251500	1875.174805	156.800156
19416.225851	16899.251500	1874.187500	211.558167
19416.225851	16899.251500	1873.199219	65.415733
19416.225851	16899.251500	1872.211914	-167.787521
19416.225851	16899.251500	1871.223633	32.147026
19416.225851	16899.251500	1870.236328	-106.640221
19416.225851	16899.251500	1869.248047	-349.364746
19416.225851	16899.251500	1868.258789	-205.132462
19416.225851	16899.251500	1867.270508	-162.498306
19416.225851	16899.251500	1866.282227	37.222713
19416.225851	16899.251500	1865.292969	384.274109
19416.225851	16899.251500	1864.303711	233.470016
19416.225851	16899.251500	1863.314453	131.024734
19416.225851	16899.251500	1862.324219	21.373178
19416.225851	16899.251500	1861.334961	-1.324697
19416.225851	16899.251500	1860.344727	161.883377
19416.225851	16899.251500	1859.354492	-34.641613
19416.225851	16899.251500	1858.364258	403.619324
19416.225851	16899.251500	1857.374023	151.603119
19416.225851	16899.251500	1856.383789	-146.171204
19416.225851	16899.251500	1855.392578	-84.444672
19416.225851	16899.251500	1854.401367	-63.750843
19416.225851	16899.251500	1853.410156	169.101135
19416.225851	16899.251500	1852.418945	69.177094
19416.225851	16899.251500	1851.426758	391.071869
19416.225851	16899.251500	1850.435547	409.191711
19416.225851	16899.251500	1849.443359	138.176086
19416.225851	16899.251500	1848.451172	199.671158
19416.225851	16899.251500	1847.458984	44.367748
19416.225851	16899.251500	1846.466797	462.198853
19416.225851	16899.251500	1845.473633	157.606888
19416.225851	16899.251500	1844.480469	-154.109604
19416.225851	16899.251500	1843.487305	-71.044960
19416.225851	16899.251500	1842.494141	418.604919
19416.225851	16899.251500	1841.500977	181.530823
19416.225851	16899.251500	1840.506836	105.682838
19416.225851	16899.251500	1839.513672	-116.856636
19416.225851	16899.251500	1838.519531	247.328735
19416.225851	16899.251500	1837.525391	385.385345
19416.225851	16899.251500	1836.530273	-99.115730
19416.225851	16899.251500	1835.536133	67.744003
19416.225851	16899.251500	1834.541016	-17.744276
19416.225851	16899.251500	1833.545898	-88.816917
19416.225851	16899.251500	1832.550781	56.259853
19416.225851	16899.251500	1831.555664	59.583092
19416.225851	16899.251500	1830.560547	293.351410
19416.225851	16899.251500	1829.564453	-166.672867
19416.225851	16899.251500	1828.568359	275.777924
19416.225851	16899.251500	1827.572266	780.414124
19416.225851	16899.251500	1826.576172	375.649261
19416.225851	16899.251500	1825.580078	165.275665
19416.225851	16899.251500	1824.583008	29.293798
19416.225851	16899.251500	1823.585938	-41.934746
19416.225851	16899.251500	1822.588867	121.749619
19416.225851	16899.251500	1821.591797	364.424438
19416.225851	16899.251500	1820.594727	-214.918686
19416.225851	16899.251500	1819.596680	-288.572388
19416.225851	16899.251500	1818.599609	653.367188
19416.225851	16899.251500	1817.601563	318.471588
19416.225851	16899.251500	1816.603516	26.762737
19416.225851	16899.251500	1815.604492	266.584625
19416.225851	16899.251500	1814.606445	733.657837
19416.225851	16899.251500	1813.607422	535.256653
19416.225851	16899.251500	1812.608398	71.317421
19416.225851	16899.251500	1811.609375	234.249680
19416.225851	16899.251500	1810.610352	126.822456
19416.225851	16899.251500	1809.610352	174.828720
19416.225851	16899.251500	1808.611328	375.782532
19416.225851	16899.251500	1807.611328	77.047607
19416.225851	16899.251500	1806.611328	535.970642
19416.225851	16899.251500	1805.610352	-70.999306
19416.225851	16899.251500	1804.610352	96.242012
19416.225851	16899.251500	1803.609375	270.542419
19416.225851	16899.251500	1802.608398	60.256588
19416.225851	16899.251500	1801.607422	14.751222
19416.225851	16899.251500	1800.606445	81.412590
19416.225851	16899.251500	1799.605469	427.251984
19416.225851	16899.251500	1798.603516	228.850983
19416.225851	16899.251500	1797.601563	214.185638
19416.225851	16899.251500	1796.599609	359.298492
19416.225851	16899.251500	1795.597656	251.505493
19416.225851	16899.251500	1794.595703	-63.736702
19416.225851	16899.251500	1793.592773	314.836945
19416.225851	16899.251500	1792.589844	314.237854
19416.225851	16899.251500	1791.587891	177.747147
19416.225851	16899.251500	1790.583984	-135.046509
19416.225851	16899.251500	1789.581055	-190.502029
19416.225851	16899.251500	1788.577148	144.625610
19416.225851	16899.251500	1787.574219	562.915039
19416.225851	16899.251500	1786.570313	450.071960
19416.225851	16899.251500	1785.566406	430.057465
19416.225851	16899.251500	1784.561523	588.495605
19416.225851	16899.251500	1783.557617	454.145111
19416.225851	16899.251500	1782.552734	526.770020
19416.225851	16899.251500	1781.547852	301.991638
19416.225851	16899.251500	1780.542969	-32.151115
19416.225851	16899.251500	1779.538086	114.075806
19416.225851	16899.251500	1778.532227	184.124344
19416.225851	16899.251500	1777.527344	166.148392
19416.225851	16899.251500	1776.521484	554.477844
19416.225851	16899.251500	1775.515625	643.246216
19416.225851	16899.251500	1774.508789	199.834991
19416.225851	16899.251500	1773.502930	-65.343735
19416.225851	16899.251500	1772.496094	358.137268
19416.225851	16899.251500	1771.489258	555.868713
19416.225851	16899.251500	1770.482422	150.565384
19416.225851	16899.251500	1769.475586	590.211365
19416.225851	16899.251500	1768.467773	358.156738
19416.225851	16899.251500	1767.460938	237.626755
19416.225851	16899.251500	1766.453125	340.040253
19416.225851	16899.251500	1765.445313	183.878998
19416.225851	16899.251500	1764.437500	267.185883
19416.225851	16899.251500	1763.428711	348.033264
19416.225851	16899.251500	1762.420898	177.569000
19416.225851	16899.251500	1761.412109	319.894989
19416.225851	16899.251500	1760.403320	208.618317
19416.225851	16899.251500	1759.393555	379.197968
19416.225851	16899.251500	1758.384766	125.743141
19416.225851	16899.251500	1757.375000	279.585846
19416.225851	16899.251500	1756.366211	-66.191811
19416.225851	16899.251500	1755.356445	-85.269745
19416.225851	16899.251500	1754.345703	92.019844
19416.225851	16899.251500	1753.335938	-47.861652
19416.225851	16899.251500	1752.325195	363.421173
19416.225851	16899.251500	1751.315430	301.478363
19416.225851	16899.251500	1750.304688	369.551422
19416.225851	16899.251500	1749.292969	250.776947
19416.225851	16899.251500	1748.282227	-97.289345
19416.225851	16899.251500	1747.270508	384.218719
19416.225851	16899.251500	1746.259766	255.884491
19416.225851	16899.251500	1745.248047	536.230164
19416.225851	16899.251500	1744.235352	32.259613
19416.225851	16899.251500	1743.223633	-155.142715
19416.225851	16899.251500	1742.211914	35.227665
19416.225851	16899.251500	1741.199219	-20.026539
19416.225851	16899.251500	1740.186523	61.570278
19416.225851	16899.251500	1739.173828	-97.606720
19416.225851	16899.251500	1738.160156	-167.130722
19416.225851	16899.251500	1737.147461	-151.768906
19416.225851	16899.251500	1736.133789	49.836033
19416.225851	16899.251500	1735.120117	100.406113
19416.225851	16899.251500	1734.106445	14.172031
19416.225851	16899.251500	1733.091797	-131.006027
19416.225851	16899.251500	1732.078125	192.753799
19416.225851	16899.251500	1731.063477	285.445038
19416.225851	16899.251500	1730.048828	173.106445
19416.225851	16899.251500	1729.034180	176.156281
19416.225851	16899.251500	1728.019531	-6.866107
19416.225851	16899.251500	1727.003906	-20.370304
19416.225851	16899.251500	1725.988281	-5.676685
19416.225851	16899.251500	1724.972656	1.894757
19416.225851	16899.251500	1723.957031	218.817017
19416.225851	16899.251500	1722.941406	-288.948639
19416.225851	16899.251500	1721.924805	14.867727
19416.225851	16899.251500	1720.909180	-346.975830
19416.225851	16899.251500	1719.892578	-50.424232
19416.225851	16899.251500	1718.875977	-339.352112
19416.225851	16899.251500	1717.858398	-85.325676
19416.225851	16899.251500	1716.841797	126.261269
19416.225851	16899.251500	1715.824219	-367.079529
19416.225851	16899.251500	1714.806641	-310.648254
19416.225851	16899.251500	1713.789063	194.254745
19416.225851	16899.251500	1712.770508	100.188126
19416.225851	16899.251500	1711.752930	191.559341
19416.225851	16899.251500	1710.734375	172.535980
19416.225851	16899.251500	1709.715820	-128.119354
19416.225851	16899.251500	1708.697266	-102.597572
19416.225851	16899.251500	1707.678711	274.726837
19416.225851	16899.251500	1706.659180	103.068527
19416.225851	16899.251500	1705.640625	-61.535519
19416.225851	16899.251500	1704.621094	-141.726761
19416.225851	16899.251500	1703.600586	-107.082901
19416.225851	16899.251500	1702.581055	243.866867
19416.225851	16899.251500	1701.561523	-382.389343
19416.225851	16899.251500	1700.541016	-36.293304
19416.225851	16899.251500	1699.520508	157.386887
19416.225851	16899.251500	1698.500000	161.276810
19416.225851	16899.251500	1697.478516	122.981514
19416.225851	16899.251500	1696.458008	307.034821
19416.225851	16899.251500	1695.436523	-68.361549
19416.225851	16899.251500	1694.415039	335.516663
19416.225851	16899.251500	1693.393555	353.197449
19416.225851	16899.251500	1692.372070	132.259537
19416.225851	16899.251500	1691.349609	-27.828844
19416.225851	16899.251500	1690.327148	92.668465
19416.225851	16899.251500	1689.304688	-39.380672
19416.225851	16899.251500	1688.282227	130.079102
19416.225851	16899.251500	1687.259766	49.411758
19416.225851	16899.251500	1686.236328	214.042374
19416.225851	16899.251500	1685.213867	39.884560
19416.225851	16899.251500	1684.190430	-24.477850
19416.225851	16899.251500	1683.166016	100.276085
19416.225851	16899.251500	1682.142578	98.888298
19416.225851	16899.251500	1681.119141	272.518219
19416.225851	16899.251500	1680.094727	338.708008
19416.225851	16899.251500	1679.070313	89.870079
19416.225851	16899.251500	1678.045898	225.985641
19416.225851	16899.251500	1677.020508	37.842892
19416.225851	16899.251500	1675.996094	362.730988
19416.225851	16899.251500	1674.970703	507.956024
19416.225851	16899.251500	1673.945313	-22.854563
19416.225851	16899.251500	1672.919922	287.796082
19416.225851	16899.251500	1671.893555	95.024193
19416.225851	16899.251500	1670.868164	254.060623
19416.225851	16899.251500	1669.841797	650.574524
19416.225851	16899.251500	1668.815430	308.740417
19416.225851	16899.251500	1667.789063	272.008240
19416.225851	16899.251500	1666.761719	102.584084
19416.225851	16899.251500	1665.735352	184.554443
19416.225851	16899.251500	1664.708008	275.775879
19416.225851	16899.251500	1663.680664	518.161194
19416.225851	16899.251500	1662.653320	330.137024
19416.225851	16899.251500	1661.625000	844.456238
19416.225851	16899.251500	1660.597656	777.311096
19416.225851	16899.251500	1659.569336	652.053955
19416.225851	16899.251500	1658.541016	473.383026
19416.225851	16899.251500	1657.512695	534.099915
19416.225851	16899.251500	1656.483398	406.598114
19416.225851	16899.251500	1655.455078	539.288635
19416.225851	16899.251500	1654.425781	332.852142
19416.225851	16899.251500	1653.396484	470.127319
19416.225851	16899.251500	1652.366211	242.870987
19416.225851	16899.251500	1651.336914	872.134827
19416.225851	16899.251500	1650.306641	361.771332
19416.225851	16899.251500	1649.276367	257.607574
19416.225851	16899.251500	1648.246094	691.636658
19416.225851	16899.251500	1647.215820	997.933777
19416.225851	16899.251500	1646.185547	861.234192
19416.225851	16899.251500	1645.154297	757.036926
19416.225851	16899.251500	1644.123047	1213.790161
19416.225851	16899.251500	1643.091797	894.045593
19416.225851	16899.251500	1642.060547	618.444885
19416.225851	16899.251500	1641.028320	898.908813
19416.225851	16899.251500	1639.997070	866.602539
19416.225851	16899.251500	1638.964844	806.519043
19416.225851	16899.251500	1637.931641	1005.760986
19416.225851	16899.251500	1636.899414	1218.817505
19416.225851	16899.251500	1635.867188	1091.601929
19416.225851	16899.251500	1634.833984	1096.327759
19416.225851	16899.251500	1633.800781	730.924011
19416.225851	16899.251500	1632.767578	684.852417
19416.225851	16899.251500	1631.734375	754.426575
19416.225851	16899.251500	1630.700195	606.657227
19416.225851	16899.251500	1629.666016	849.609802
19416.225851	16899.251500	1628.631836	900.656372
19416.225851	16899.251500	1627.597656	912.419067
19416.225851	16899.251500	1626.563477	1379.297241
19416.225851	16899.251500	1625.528320	1524.954102
19416.225851	16899.251500	1624.493164	818.439453
19416.225851	16899.251500	1623.458008	1215.848022
19416.225851	16899.251500	1622.422852	1190.680786
19416.225851	16899.251500	1621.387695	1670.989502
19416.225851	16899.251500	1620.351563	1207.355591
19416.225851	16899.251500	1619.315430	1242.250366
19416.225851	16899.251500	1618.279297	1512.425049
19416.225851	16899.251500	1617.243164	1372.025024
19416.225851	16899.251500	1616.207031	1081.832642
19416.225851	16899.251500	1615.169922	1494.882324
19416.225851	16899.251500	1614.132813	1195.606445
19416.225851	16899.251500	1613.095703	1302.049072
19416.225851	16899.251500	1612.058594	1141.218994
19416.225851	16899.251500	1611.020508	1058.799316
19416.225851	16899.251500	1609.983398	1395.598633
19416.225851	16899.251500	1608.945313	1499.732300
19416.225851	16899.251500	1607.907227	1237.819946
19416.225851	16899.251500	1606.868164	1583.685425
19416.225851	16899.251500	1605.830078	1303.520020
19416.225851	16899.251500	1604.791016	1039.603271
19416.225851	16899.251500	1603.751953	1716.660156
19416.225851	16899.251500	1602.712891	1687.430054
19416.225851	16899.251500	1601.673828	1993.964722
19416.225851	16899.251500	1600.633789	1498.072510
19416.225851	16899.251500	1599.594727	1570.159180
19416.225851	16899.251500	1598.554688	1922.617920
19416.225851	16899.251500	1597.513672	1220.371826
19416.225851	16899.251500	1596.473633	1223.677734
19416.225851	16899.251500	1595.433594	1530.199829
19416.225851	16899.251500	1594.392578	1671.312988
19416.225851	16899.251500	1593.351563	1380.800537
19416.225851	16899.251500	1592.310547	1409.507202
19416.225851	16899.251500	1591.268555	1445.136230
19416.225851	16899.251500	1590.227539	1499.159058
19416.225851	16899.251500	1589.185547	1527.977539
19416.225851	16899.251500	1588.143555	1559.132202
19416.225851	16899.251500	1587.100586	2051.248779
19416.225851	16899.251500	1586.058594	1775.169189
19416.225851	16899.251500	1585.015625	1490.088379
19416.225851	16899.251500	1583.972656	1677.281616
19416.225851	16899.251500	1582.929688	1490.972290
19416.225851	16899.251500	1581.886719	1268.138062
19416.225851	16899.251500	1580.843750	1423.377441
19416.225851	16899.251500	1579.799805	1548.843628
19416.225851	16899.251500	1578.755859	1140.854126
19416.225851	16899.251500	1577.711914	1225.245850
19416.225851	16899.251500	1576.666992	1575.152710
19416.225851	16899.251500	1575.623047	1405.563721
19416.225851	16899.251500	1574.578125	1151.456665
19416.225851	16899.251500	1573.533203	1581.426025
19416.225851	16899.251500	1572.488281	1524.187622
19416.225851	16899.251500	1571.443359	1000.609619
19416.225851	16899.251500	1570.397461	1441.990112
19416.225851	16899.251500	1569.351563	1044.474365
19416.225851	16899.251500	1568.305664	1248.164673
19416.225851	16899.251500	1567.259766	1179.975952
19416.225851	16899.251500	1566.213867	986.257019
19416.225851	16899.251500	1565.166992	1009.642151
19416.225851	16899.251500	1564.120117	1503.447998
19416.225851	16899.251500	1563.073242	1177.601318
19416.225851	16899.251500	1562.026367	1290.173096
19416.225851	16899.251500	1560.978516	1297.809937
19416.225851	16899.251500	1559.930664	942.769592
19416.225851	16899.251500	1558.883789	1103.457764
19416.225851	16899.251500	1557.834961	1097.683960
19416.225851	16899.251500	1556.787109	1021.308350
19416.225851	16899.251500	1555.739258	840.176819
19416.225851	16899.251500	1554.690430	1101.373779
19416.225851	16899.251500	1553.641602	1025.293213
19416.225851	16899.251500	1552.592773	985.779602
19416.225851	16899.251500	1551.542969	934.976257
19416.225851	16899.251500	1550.494141	770.407715
19416.225851	16899.251500	1549.444336	904.277771
19416.225851	16899.251500	1548.394531	596.534546
19416.225851	16899.251500	1547.344727	568.960083
19416.225851	16899.251500	1546.293945	443.635559
19416.225851	16899.251500	1545.244141	352.576782
19416.225851	16899.251500	1544.193359	395.859467
19416.225851	16899.251500	1543.142578	812.204773
19416.225851	16899.251500	1542.090820	848.748779
19416.225851	16899.251500	1541.040039	723.952026
19416.225851	16899.251500	1539.988281	512.929932
19416.225851	16899.251500	1538.936523	740.684387
19416.225851	16899.251500	1537.884766	650.352966
19416.225851	16899.251500	1536.833008	371.612061
19416.225851	16899.251500	1535.780273	565.485107
19416.225851	16899.251500	1534.727539	482.352600
19416.225851	16899.251500	1533.674805	515.133179
19416.225851	16899.251500	1532.622070	250.655670
19416.225851	16899.251500	1531.569336	242.823090
19416.225851	16899.251500	1530.515625	26.354528
19416.225851	16899.251500	1529.461914	524.653442
19416.225851	16899.251500	1528.408203	689.454956
19416.225851	16899.251500	1527.354492	496.009521
19416.225851	16899.251500	1526.299805	552.138306
19416.225851	16899.251500	1525.246094	624.216797
19416.225851	16899.251500	1524.191406	433.484161
19416.225851	16899.251500	1523.136719	616.796326
19416.225851	16899.251500	1522.081055	573.611511
19416.225851	16899.251500	1521.026367	403.710571
19416.225851	16899.251500	1519.970703	406.087372
19416.225851	16899.251500	1518.915039	494.609192
19416.225851	16899.251500	1517.859375	365.897644
19416.225851	16899.251500	1516.802734	366.352722
19416.225851	16899.251500	1515.747070	647.488708
19416.225851	16899.251500	1514.690430	114.222260
19416.225851	16899.251500	1513.633789	271.127136
19416.225851	16899.251500	1512.577148	514.008545
19416.225851	16899.251500	1511.519531	354.477844
19416.225851	16899.251500	1510.461914	366.920959
19416.225851	16899.251500	1509.405273	456.301453
19416.225851	16899.251500	1508.346680	48.675797
19416.225851	16899.251500	1507.289063	481.707214
19416.225851	16899.251500	1506.231445	356.796295
19416.225851	16899.251500	1505.172852	390.129303
19416.225851	16899.251500	1504.114258	-93.455482
19416.225851	16899.251500	1503.055664	238.151733
19416.225851	16899.251500	1501.996094	260.567169
19416.225851	16899.251500	1500.937500	377.852722
19416.225851	16899.251500	1499.877930	357.603729
19416.225851	16899.251500	1498.818359	120.954796
19416.225851	16899.251500	1497.757813	26.596748
19416.225851	16899.251500	1496.698242	288.617920
19416.225851	16899.251500	1495.637695	219.298080
19416.225851	16899.251500	1494.577148	-57.213013
19416.225851	16899.251500	1493.516602	-306.450195
19416.225851	16899.251500	1492.456055	32.516567
19416.225851	16899.251500	1491.394531	110.206795
19416.225851	16899.251500	1490.333008	-183.581802
19416.225851	16899.251500	1489.271484	-29.083321
19416.225851	16899.251500	1488.209961	-169.406845
19416.225851	16899.251500	1487.148438	57.291626
19416.225851	16899.251500	1486.085938	-276.249054
19416.225851	16899.251500	1485.023438	-125.849052
19416.225851	16899.251500	1483.960938	-225.047150
19416.225851	16899.251500	1482.898438	-67.718124
19416.225851	16899.251500	1481.834961	-252.064163
19416.225851	16899.251500	1480.772461	-186.715302
19416.225851	16899.251500	1479.708984	123.697403
19416.225851	16899.251500	1478.644531	-167.997360
19416.225851	16899.251500	1477.581055	70.612564
19416.225851	16899.251500	1476.517578	33.067387
19416.225851	16899.251500	1475.453125	56.278851
19416.225851	16899.251500	1474.388672	189.523239
19416.225851	16899.251500	1473.323242	15.564077
19416.225851	16899.251500	1472.258789	223.202942
19416.225851	16899.251500	1471.193359	372.459045
19416.225851	16899.251500	1470.127930	205.526093
19416.225851	16899.251500	1469.062500	-62.248127
19416.225851	16899.251500	1467.997070	134.913788
19416.225851	16899.251500	1466.930664	497.080658
19416.225851	16899.251500	1465.865234	657.982361
19416.225851	16899.251500	1464.798828	614.990906
19416.225851	16899.251500	1463.731445	294.688782
19416.225851	16899.251500	1462.665039	471.140961
19416.225851	16899.251500	1461.597656	583.782715
19416.225851	16899.251500	1460.530273	641.802734
19416.225851	16899.251500	1459.462891	262.361145
19416.225851	16899.251500	1458.395508	573.446228
19416.225851	16899.251500	1457.327148	629.034058
19416.225851	16899.251500	1456.259766	561.731140
19416.225851	16899.251500	1455.191406	1046.106812
19416.225851	16899.251500	1454.123047	966.802246
19416.225851	16899.251500	1453.053711	389.817261
19416.225851	16899.251500	1451.985352	429.929321
19416.225851	16899.251500	1450.916016	499.118835
19416.225851	16899.251500	1449.846680	622.678772
19416.225851	16899.251500	1448.776367	445.589813
19416.225851	16899.251500	1447.707031	605.690979
19416.225851	16899.251500	1446.636719	525.643311
19416.225851	16899.251500	1445.566406	415.567230
19416.225851	16899.251500	1444.496094	592.064209
19416.225851	16899.251500	1443.425781	503.809845
19416.225851	16899.251500	1442.354492	413.371521
19416.225851	16899.251500	1441.283203	321.173889
19416.225851	16899.251500	1440.211914	467.494141
19416.225851	16899.251500	1439.140625	658.035095
19416.225851	16899.251500	1438.069336	405.390411
19416.225851	16899.251500	1436.997070	158.151321
19416.225851	16899.251500	1435.924805	381.573944
19416.225851	16899.251500	1434.852539	268.349426
19416.225851	16899.251500	1433.780273	309.282196
19416.225851	16899.251500	1432.707031	55.284328
19416.225851	16899.251500	1431.633789	-33.849564
19416.225851	16899.251500	1430.560547	99.196640
19416.225851	16899.251500	1429.487305	82.453888
19416.225851	16899.251500	1428.413086	505.854187
19416.225851	16899.251500	1427.339844	-101.701683
19416.225851	16899.251500	1426.265625	-128.177444
19416.225851	16899.251500	1425.191406	-200.486221
19416.225851	16899.251500	1424.116211	-13.047162
19416.225851	16899.251500	1423.041992	50.648918
19416.225851	16899.251500	1421.966797	-13.708453
19416.225851	16899.251500	1420.891602	-202.017303
19416.225851	16899.251500	1419.816406	-434.539734
19416.225851	16899.251500	1418.740234	-95.499062
19416.225851	16899.251500	1417.665039	108.237717
19416.225851	16899.251500	1416.588867	-19.724752
19416.225851	16899.251500	1415.512695	141.921951
19416.225851	16899.251500	1414.435547	-13.506035
19416.225851	16899.251500	1413.359375	101.721046
19416.225851	16899.251500	1412.282227	139.087570
19416.225851	16899.251500	1411.205078	-126.016472
19416.225851	16899.251500	1410.127930	12.810753
19416.225851	16899.251500	1409.049805	55.276520
19416.225851	16899.251500	1407.972656	405.976624
19416.225851	16899.251500	1406.894531	95.572289
19416.225851	16899.251500	1405.816406	-41.590096
19416.225851	16899.251500	1404.737305	24.970562
19416.225851	16899.251500	1403.659180	-219.467224
19416.225851	16899.251500	1402.580078	34.340584
19416.225851	16899.251500	1401.500977	12.439155
19416.225851	16899.251500	1400.421875	193.097443
19416.225851	16899.251500	1399.341797	173.769684
19416.225851	16899.251500	1398.262695	-26.598745
19416.225851	16899.251500	1397.182617	73.729378
19416.225851	16899.251500	1396.102539	230.388504
19416.225851	16899.251500	1395.021484	-153.408966
19416.225851	16899.251500	1393.941406	-161.464600
19416.225851	16899.251500	1392.860352	-47.063808
19416.225851	16899.251500	1391.779297	-75.568703
19416.225851	16899.251500	1390.698242	-91.737747
19416.225851	16899.251500	1389.616211	30.329422
19416.225851	16899.251500	1388.535156	247.701309
19416.225851	16899.251500	1387.453125	94.691071
19416.225851	16899.251500	1386.371094	284.455597
19416.225851	16899.251500	1385.288086	69.606575
19416.225851	16899.251500	1384.206055	-161.761002
19416.225851	16899.251500	1383.123047	-210.348831
19416.225851	16899.251500	1382.040039	-13.723092
19416.225851	16899.251500	1380.957031	31.045174
19416.225851	16899.251500	1379.873047	-174.068680
19416.225851	16899.251500	1378.789063	91.134499
19416.225851	16899.251500	1377.705078	160.775055
19416.225851	16899.251500	1376.621094	340.695984
19416.225851	16899.251500	1375.537109	100.810585
19416.225851	16899.251500	1374.452148	28.082907
19416.225851	16899.251500	1373.367188	45.707695
19416.225851	16899.251500	1372.282227	251.750565
19416.225851	16899.251500	1371.197266	42.784962
19416.225851	16899.251500	1370.112305	371.317902
19416.225851	16899.251500	1369.026367	213.903641
19416.225851	16899.251500	1367.940430	71.716934
19416.225851	16899.251500	1366.854492	526.729614
19416.225851	16899.251500	1365.767578	178.765778
19416.225851	16899.251500	1364.681641	-132.590759
19416.225851	16899.251500	1363.594727	159.750443
19416.225851	16899.251500	1362.507813	-1.317623
19416.225851	16899.251500	1361.419922	321.865356
19416.225851	16899.251500	1360.333008	126.866943
19416.225851	16899.251500	1359.245117	21.344578
19416.225851	16899.251500	1358.157227	132.862793
19416.225851	16899.251500	1357.069336	107.889488
19416.225851	16899.251500	1355.981445	-111.377022
19416.225851	16899.251500	1354.892578	-10.240852
19416.225851	16899.251500	1353.803711	240.553619
19416.225851	16899.251500	1352.714844	31.103136
19416.225851	16899.251500	1351.625000	74.556915
19416.225851	16899.251500	1350.536133	472.637329
19416.225851	16899.251500	1349.446289	247.315643
19416.225851	16899.251500	1348.356445	239.835342
19416.225851	16899.251500	1347.266602	148.078308
19416.225851	16899.251500	1346.175781	312.072998
19416.225851	16899.251500	1345.085938	224.459015
19416.225851	16899.251500	1343.995117	652.958252
19416.225851	16899.251500	1342.903320	300.839569
19416.225851	16899.251500	1341.812500	334.933502
19416.225851	16899.251500	1340.720703	255.009277
19416.225851	16899.251500	1339.629883	217.576874
19416.225851	16899.251500	1338.538086	56.999500
19416.225851	16899.251500	1337.445313	168.350601
19416.225851	16899.251500	1336.353516	290.530396
19416.225851	16899.251500	1335.260742	121.414200
19416.225851	16899.251500	1334.167969	133.459381
19416.225851	16899.251500	1333.075195	445.614166
19416.225851	16899.251500	1331.981445	354.357025
19416.225851	16899.251500	1330.888672	527.407837
19416.225851	16899.251500	1329.794922	614.259644
19416.225851	16899.251500	1328.701172	308.978973
19416.225851	16899.251500	1327.606445	584.747498
19416.225851	16899.251500	1326.512695	245.019119
19416.225851	16899.251500	1325.417969	469.189606
19416.225851	16899.251500	1324.323242	577.188477
19416.225851	16899.251500	1323.227539	705.982849
19416.225851	16899.251500	1322.132813	479.526123
19416.225851	16899.251500	1321.037109	420.952820
19416.225851	16899.251500	1319.941406	405.145294
19416.225851	16899.251500	1318.845703	564.411133
19416.225851	16899.251500	1317.750000	299.784515
19416.225851	16899.251500	1316.653320	463.224945
19416.225851	16899.251500	1315.556641	516.325623
19416.225851	16899.251500	1314.459961	165.612762
19416.225851	16899.251500	1313.363281	204.433060
19416.225851	16899.251500	1312.265625	563.496216
19416.225851	16899.251500	1311.167969	-7.249296
19416.225851	16899.251500	1310.070313	193.994247
19416.225851	16899.251500	1308.972656	320.885956
19416.225851	16899.251500	1307.874023	222.678741
19416.225851	16899.251500	1306.776367	152.617630
19416.225851	16899.251500	1305.677734	-53.440945
19416.225851	16899.251500	1304.579102	-8.970691
19416.225851	16899.251500	1303.479492	208.384903
19416.225851	16899.251500	1302.380859	182.878433
19416.225851	16899.251500	1301.281250	156.233780
19416.225851	16899.251500	1300.181641	5.768094
19416.225851	16899.251500	1299.081055	50.588024
19416.225851	16899.251500	1297.981445	75.258400
19416.225851	16899.251500	1296.880859	17.157648
19416.225851	16899.251500	1295.780273	132.134048
19416.225851	16899.251500	1294.679688	59.178722
19416.225851	16899.251500	1293.578125	27.353535
19416.225851	16899.251500	1292.476563	101.037926
19416.225851	16899.251500	1291.375000	-31.407845
19416.225851	16899.251500	1290.273438	111.735878
19416.225851	16899.251500	1289.171875	125.542252
19416.225851	16899.251500	1288.069336	350.641602
19416.225851	16899.251500	1286.966797	217.926956
19416.225851	16899.251500	1285.864258	250.156967
19416.225851	16899.251500	1284.761719	172.717346
19416.225851	16899.251500	1283.658203	130.341995
19416.225851	16899.251500	1282.554688	101.453117
19416.225851	16899.251500	1281.451172	99.739128
19416.225851	16899.251500	1280.347656	266.398193
19416.225851	16899.251500	1279.244141	279.733948
19416.225851	16899.251500	1278.139648	-101.017662
19416.225851	16899.251500	1277.035156	-44.034088
19416.225851	16899.251500	1275.930664	82.009781
19416.225851	16899.251500	1274.825195	-53.341454
19416.225851	16899.251500	1273.720703	-124.307060
19416.225851	16899.251500	1272.615234	134.759857
19416.225851	16899.251500	1271.508789	-15.860464
19416.225851	16899.251500	1270.403320	108.694695
19416.225851	16899.251500	1269.297852	123.585190
19416.225851	16899.251500	1268.191406	38.297085
19416.225851	16899.251500	1267.084961	85.010246
19416.225851	16899.251500	1265.977539	-80.988480
19416.225851	16899.251500	1264.871094	192.353043
19416.225851	16899.251500	1263.763672	65.873230
19416.225851	16899.251500	1262.656250	42.496059
19416.225851	16899.251500	1261.548828	213.993973
19416.225851	16899.251500	1260.440430	244.812027
19416.225851	16899.251500	1259.333008	204.320724
19416.225851	16899.251500	1258.224609	22.338966
19416.225851	16899.251500	1257.115234	-17.376446
19416.225851	16899.251500	1256.006836	167.400467
19416.225851	16899.251500	1254.897461	239.555023
19416.225851	16899.251500	1253.788086	-126.553238
19416.225851	16899.251500	1252.678711	-98.269035
19416.225851	16899.251500	1251.569336	75.947670
19416.225851	16899.251500	1250.458984	-134.481522
19416.225851	16899.251500	1249.349609	220.378494
19416.225851	16899.251500	1248.239258	-142.368332
19416.225851	16899.251500	1247.127930	152.515289
19416.225851	16899.251500	1246.017578	233.952805
19416.225851	16899.251500	1244.906250	159.893814
19416.225851	16899.251500	1243.794922	182.838654
19416.225851	16899.251500	1242.683594	-157.682388
19416.225851	16899.251500	1241.571289	21.355772
19416.225851	16899.251500	1240.459961	1.685300
19416.225851	16899.251500	1239.347656	83.493988
19416.225851	16899.251500	1238.234375	165.025009
19416.225851	16899.251500	1237.122070	81.444237
19416.225851	16899.251500	1236.008789	-20.152416
19416.225851	16899.251500	1234.896484	123.113922
19416.225851	16899.251500	1233.782227	69.669647
19416.225851	16899.251500	1232.668945	-58.348999
19416.225851	16899.251500	1231.555664	-83.395515
19416.225851	16899.251500	1230.441406	-130.159836
19416.225851	16899.251500	1229.327148	-133.803467
19416.225851	16899.251500	1228.211914	-238.531998
19416.225851	16899.251500	1227.097656	-103.294312
19416.225851	16899.251500	1225.982422	162.434799
19416.225851	16899.251500	1224.867188	-1.644695
19416.225851	16899.251500	1223.751953	144.325714
19416.225851	16899.251500	1222.635742	-80.340149
19416.225851	16899.251500	1221.520508	-207.903351
19416.225851	16899.251500	1220.404297	-213.167068
19416.225851	16899.251500	1219.287109	-18.098993
19416.225851	16899.251500	1218.170898	-149.979553
19416.225851	16899.251500	1217.053711	28.803957
19416.225851	16899.251500	1215.936523	59.986919
19416.225851	16899.251500	1214.819336	7.865405
19416.225851	16899.251500	1213.702148	-14.594579
19416.225851	16899.251500	1212.583984	-162.204437
19416.225851	16899.251500	1211.465820	-80.777458
19416.225851	16899.251500	1210.347656	-176.476517
19416.225851	16899.251500	1209.229492	45.521843
19416.225851	16899.251500	1208.110352	-2.648599
19416.225851	16899.251500	1206.992188	-431.249908
19416.225851	16899.251500	1205.873047	208.204971
19416.225851	16899.251500	1204.752930	-115.491852
19416.225851	16899.251500	1203.633789	-235.789673
19416.225851	16899.251500	1202.513672	33.593254
19416.225851	16899.251500	1201.393555	54.090160
19416.225851	16899.251500	1200.273438	73.772598
19416.225851	16899.251500	1199.152344	-150.311859
19416.225851	16899.251500	1198.032227	52.921162
19416.225851	16899.251500	1196.911133	31.579191
19416.225851	16899.251500	1195.790039	-31.611332
19416.225851	16899.251500	1194.667969	-153.071716
19416.225851	16899.251500	1193.545898	128.114014
19416.225851	16899.251500	1192.424805	-282.573486
19416.225851	16899.251500	1191.301758	43.638073
19416.225851	16899.251500	1190.179688	-86.931129
19416.225851	16899.251500	1189.056641	-150.590149
19416.225851	16899.251500	1187.933594	-430.323090
19416.225851	16899.251500	1186.810547	55.295177
19416.225851	16899.251500	1185.687500	-22.226135
19416.225851	16899.251500	1184.563477	3.763535
19416.225851	16899.251500	1183.440430	-82.273163
19416.225851	16899.251500	1182.316406	4.813143
19416.225851	16899.251500	1181.191406	95.568611
19416.225851	16899.251500	1180.067383	-142.223465
19416.225851	16899.251500	1178.942383	-93.687439
19416.225851	16899.251500	1177.817383	-137.551041
19416.225851	16899.251500	1176.692383	69.775055
19416.225851	16899.251500	1175.566406	-103.890961
19416.225851	16899.251500	1174.440430	-140.780548
19416.225851	16899.251500	1173.314453	-363.903961
19416.225851	16899.251500	1172.188477	-131.990234
19416.225851	16899.251500	1171.062500	-67.022247
19416.225851	16899.251500	1169.935547	41.038643
19416.225851	16899.251500	1168.808594	-46.966415
19416.225851	16899.251500	1167.681641	-39.842567
19416.225851	16899.251500	1166.553711	-40.758335
19416.225851	16899.251500	1165.426758	-188.079254
19416.225851	16899.251500	1164.298828	-49.225929
19416.225851	16899.251500	1163.170898	-225.694778
19416.225851	16899.251500	1162.041992	58.240005
19416.225851	16899.251500	1160.914063	117.559105
19416.225851	16899.251500	1159.785156	-44.674145
19416.225851	16899.251500	1158.656250	105.264801
19416.225851	16899.251500	1157.526367	188.246094
19416.225851	16899.251500	1156.397461	-27.030323
19416.225851	16899.251500	1155.267578	-128.608994
19416.225851	16899.251500	1154.137695	-3.544370
19416.225851	16899.251500	1153.006836	-100.859100
19416.225851	16899.251500	1151.876953	-235.169128
19416.225851	16899.251500	1150.746094	-149.011612
19416.225851	16899.251500	1149.615234	6.049475
19416.225851	16899.251500	1148.484375	-109.747864
19416.225851	16899.251500	1147.352539	-120.811310
19416.225851	16899.251500	1146.220703	88.139160
19416.225851	16899.251500	1145.088867	-145.699463
19416.225851	16899.251500	1143.957031	-57.587204
19416.225851	16899.251500	1142.825195	-151.735260
19416.225851	16899.251500	1141.692383	-148.971481
19416.225851	16899.251500	1140.559570	144.349716
19416.225851	16899.251500	1139.426758	-362.283569
19416.225851	16899.251500	1138.292969	-20.523623
19416.225851	16899.251500	1137.159180	18.685570
19416.225851	16899.251500	1136.025391	38.998108
19416.225851	16899.251500	1134.891602	60.810287
19416.225851	16899.251500	1133.757813	-176.796036
19416.225851	16899.251500	1132.623047	-111.473404
19416.225851	16899.251500	1131.488281	-223.901764
19416.225851	16899.251500	1130.353516	-212.145721
19416.225851	16899.251500	1129.217773	172.290436
19416.225851	16899.251500	1128.083008	36.756611
19416.225851	16899.251500	1126.947266	149.211121
19416.225851	16899.251500	1125.811523	-111.248268
19416.225851	16899.251500	1124.674805	32.830990
19416.225851	16899.251500	1123.539063	254.885254
19416.225851	16899.251500	1122.402344	138.360672
19416.225851	16899.251500	1121.265625	-28.207201
19416.225851	16899.251500	1120.127930	-144.399261
19416.225851	16899.251500	1118.990234	-138.517685
19416.225851	16899.251500	1117.853516	157.120041
19416.225851	16899.251500	1116.714844	-0.334536
19416.225851	16899.251500	1115.577148	48.070480
19416.225851	16899.251500	1114.439453	178.439636
19416.225851	16899.251500	1113.300781	273.617462
19416.225851	16899.251500	1112.162109	240.829590
19416.225851	16899.251500	1111.022461	31.682133
19416.225851	16899.251500	1109.883789	224.066345
19416.225851	16899.251500	1108.744141	127.559647
19416.225851	16899.251500	1107.604492	148.425095
19416.225851	16899.251500	1106.463867	171.860367
19416.225851	16899.251500	1105.324219	41.130325
19416.225851	16899.251500	1104.183594	139.583374
19416.225851	16899.251500	1103.042969	221.762161
19416.225851	16899.251500	1101.902344	471.405060
19416.225851	16899.251500	1100.760742	460.242676
19416.225851	16899.251500	1099.619141	307.585449
19416.225851	16899.251500	1098.477539	290.913971
19416.225851	16899.251500	1097.335938	339.273285
19416.225851	16899.251500	1096.193359	403.139801
19416.225851	16899.251500	1095.051758	378.887146
19416.225851	16899.251500	1093.909180	344.452362
19416.225851	16899.251500	1092.765625	339.253418
19416.225851	16899.251500	1091.623047	333.857666
19416.225851	16899.251500	1090.479492	257.854156
19416.225851	16899.251500	1089.335938	65.831398
19416.225851	16899.251500	1088.192383	165.359863
19416.225851	16899.251500	1087.047852	192.573761
19416.225851	16899.251500	1085.903320	412.995392
19416.225851	16899.251500	1084.758789	23.578064
19416.225851	16899.251500	1083.614258	224.886475
19416.225851	16899.251500	1082.469727	143.067291
19416.225851	16899.251500	1081.324219	200.133347
19416.225851	16899.251500	1080.178711	111.978386
19416.225851	16899.251500	1079.033203	128.674927
19416.225851	16899.251500	1077.886719	186.874283
19416.225851	16899.251500	1076.740234	237.628632
19416.225851	16899.251500	1075.593750	115.918694
19416.225851	16899.251500	1074.447266	308.940063
19416.225851	16899.251500	1073.300781	441.345367
19416.225851	16899.251500	1072.153320	326.953583
19416.225851	16899.251500	1071.005859	391.094604
19416.225851	16899.251500	1069.858398	256.030457
19416.225851	16899.251500	1068.709961	249.611191
19416.225851	16899.251500	1067.561523	313.713806
19416.225851	16899.251500	1066.413086	-203.415329
19416.225851	16899.251500	1065.264648	186.075714
19416.225851	16899.251500	1064.116211	171.726318
19416.225851	16899.251500	1062.966797	87.548370
19416.225851	16899.251500	1061.817383	28.411386
19416.225851	16899.251500	1060.667969	336.710266
19416.225851	16899.251500	1059.517578	210.097321
19416.225851	16899.251500	1058.368164	200.479813
19416.225851	16899.251500	1057.217773	351.253845
19416.225851	16899.251500	1056.067383	143.281464
19416.225851	16899.251500	1054.916016	28.929642
19416.225851	16899.251500	1053.764648	120.740234
19416.225851	16899.251500	1052.613281	125.621841
19416.225851	16899.251500	1051.461914	508.811188
19416.225851	16899.251500	1050.310547	299.740295
19416.225851	16899.251500	1049.158203	242.574722
19416.225851	16899.251500	1048.005859	372.141785
19416.225851	16899.251500	1046.853516	216.455612
19416.225851	16899.251500	1045.700195	395.277252
19416.225851	16899.251500	1044.547852	422.954895
19416.225851	16899.251500	1043.394531	152.461395
19416.225851	16899.251500	1042.240234	105.804863
19416.225851	16899.251500	1041.086914	328.333801
19416.225851	16899.251500	1039.932617	257.397705
19416.225851	16899.251500	1038.778320	470.021698
19416.225851	16899.251500	1037.624023	396.337067
19416.225851	16899.251500	1036.469727	159.283737
19416.225851	16899.251500	1035.314453	693.528564
19416.225851	16899.251500	1034.159180	368.561798
19416.225851	16899.251500	1033.003906	569.520508
19416.225851	16899.251500	1031.847656	608.102783
19416.225851	16899.251500	1030.692383	715.548706
19416.225851	16899.251500	1029.536133	379.667847
19416.225851	16899.251500	1028.378906	594.222168
19416.225851	16899.251500	1027.222656	669.848694
19416.225851	16899.251500	1026.065430	567.216003
19416.225851	16899.251500	1024.908203	688.740479
19416.225851	16899.251500	1023.750977	338.735138
19416.225851	16899.251500	1022.593750	613.884094
19416.225851	16899.251500	1021.435547	584.275391
19416.225851	16899.251500	1020.277344	317.179352
19416.225851	16899.251500	1019.119141	477.121704
19416.225851	16899.251500	1017.959961	397.311676
19416.225851	16899.251500	1016.800781	270.861328
19416.225851	16899.251500	1015.641602	308.411804
19416.225851	16899.251500	1014.482422	326.059265
19416.225851	16899.251500	1013.323242	352.425354
19416.225851	16899.251500	1012.163086	365.201385
19416.225851	16899.251500	1011.002930	220.558304
19416.225851	16899.251500	1009.842773	193.678238
19416.225851	16899.251500	1008.681641	16.560989
19416.225851	16899.251500	1007.520508	221.457703
19416.225851	16899.251500	1006.359375	410.904053
19416.225851	16899.251500	1005.198242	276.470856
19416.225851	16899.251500	1004.037109	229.049255
19416.225851	16899.251500	1002.875000	179.043137
19416.225851	16899.251500	1001.712891	283.965576
19416.225851	16899.251500	1000.550781	253.252640
19416.225851	16899.251500	999.387695	342.136230
19416.225851	16899.251500	998.224609	234.397095
19416.225851	16899.251500	997.061523	-87.743523
19416.225851	16899.251500	995.898438	118.255913
19416.225851	16899.251500	994.734375	214.470856
19416.225851	16899.251500	993.571289	24.800711
19416.225851	16899.251500	992.407227	-126.414680
19416.225851	16899.251500	991.242188	78.961792
19416.225851	16899.251500	990.078125	313.991852
19416.225851	16899.251500	988.913086	178.237793
19416.225851	16899.251500	987.748047	108.033447
19416.225851	16899.251500	986.583008	260.818817
19416.225851	16899.251500	985.416992	48.188560
19416.225851	16899.251500	984.250977	268.039185
19416.225851	16899.251500	983.084961	284.927826
19416.225851	16899.251500	981.918945	118.921379
19416.225851	16899.251500	980.751953	190.688629
19416.225851	16899.251500	979.584961	401.622284
19416.225851	16899.251500	978.417969	44.062687
19416.225851	16899.251500	977.250977	-401.954529
19416.225851	16899.251500	976.083008	126.375992
19416.225851	16899.251500	974.915039	72.609192
19416.225851	16899.251500	973.747070	5.093214
19416.225851	16899.251500	972.579102	68.092209
19416.225851	16899.251500	971.410156	206.298111
19416.225851	16899.251500	970.242188	28.174152
19416.225851	16899.251500	969.072266	-94.919754
19416.225851	16899.251500	967.903320	455.188690
19416.225851	16899.251500	966.733398	-8.783342
19416.225851	16899.251500	965.563477	-153.022842
19416.225851	16899.251500	964.393555	-23.498098
19416.225851	16899.251500	963.223633	157.469055
19416.225851	16899.251500	962.052734	-123.498039
19416.225851	16899.251500	960.881836	-44.348057
19416.225851	16899.251500	959.710938	95.718300
19416.225851	16899.251500	958.540039	187.906525
19416.225851	16899.251500	957.368164	167.630844
19416.225851	16899.251500	956.196289	87.151680
19416.225851	16899.251500	955.024414	-32.309841
19416.225851	16899.251500	953.851563	131.115479
19416.225851	16899.251500	952.679688	214.600632
19416.225851	16899.251500	951.506836	-85.007072
19416.225851	16899.251500	950.333984	137.896667
19416.225851	16899.251500	949.160156	-64.143318
19416.225851	16899.251500	947.986328	146.213638
19416.225851	16899.251500	946.812500	-80.758629
19416.225851	16899.251500	945.638672	-62.102711
19416.225851	16899.251500	944.464844	140.677856
19416.225851	16899.251500	943.290039	89.717644
19416.225851	16899.251500	942.115234	135.337845
19416.225851	16899.251500	940.940430	76.019302
19416.225851	16899.251500	939.764648	210.773438
19416.225851	16899.251500	938.588867	62.013306
19416.225851	16899.251500	937.413086	236.096680
19416.225851	16899.251500	936.237305	-141.855011
19416.225851	16899.251500	935.060547	267.386322
19416.225851	16899.251500	933.883789	-145.006409
19416.225851	16899.251500	932.707031	117.972961
19416.225851	16899.251500	931.530273	84.742714
19416.225851	16899.251500	930.352539	-92.365639
19416.225851	16899.251500	929.175781	240.259186
19416.225851	16899.251500	927.998047	128.479095
19416.225851	16899.251500	926.819336	-42.109978
19416.225851	16899.251500	925.641602	72.566231
19416.225851	16899.251500	924.462891	67.476929
19416.225851	16899.251500	923.284180	108.084183
19416.225851	16899.251500	922.104492	33.322834
19416.225851	16899.251500	920.924805	-84.952438
19416.225851	16899.251500	919.746094	-71.984566
19416.225851	16899.251500	919.551758	-77.071236
19416.225851	16899.251500	918.386719	130.776596
19416.225851	16899.251500	917.220703	62.364616
19416.225851	16899.251500	916.054688	-38.649738
19416.225851	16899.251500	914.887695	-356.995850
19416.225851	16899.251500	913.721680	-210.167511
19416.225851	16899.251500	912.554688	-26.467464
19416.225851	16899.251500	911.387695	-60.093704
19416.225851	16899.251500	910.220703	66.998856
19416.225851	16899.251500	909.052734	-20.942715
19416.225851	16899.251500	907.885742	-128.412109
19416.225851	16899.251500	906.717773	-25.296240
19416.225851	16899.251500	905.548828	38.707706
19416.225851	16899.251500	904.380859	-170.722000
19416.225851	16899.251500	903.211914	-254.253677
19416.225851	16899.251500	902.042969	-131.729736
19416.225851	16899.251500	900.874023	-230.445038
19416.225851	16899.251500	899.704102	-192.545273
19416.225851	16899.251500	898.535156	36.052216
19416.225851	16899.251500	897.365234	143.198502
19416.225851	16899.251500	896.194336	20.633814
19416.225851	16899.251500	895.024414	-127.898941
19416.225851	16899.251500	893.853516	35.488266
19416.225851	16899.251500	892.682617	257.257721
19416.225851	16899.251500	891.511719	-274.444031
19416.225851	16899.251500	890.340820	280.584137
19416.225851	16899.251500	889.168945	179.702240
19416.225851	16899.251500	887.997070	91.827629
19416.225851	16899.251500	886.825195	164.042328
19416.225851	16899.251500	885.653320	-217.940765
19416.225851	16899.251500	884.480469	-11.658309
19416.225851	16899.251500	883.307617	-82.177254
19416.225851	16899.251500	882.134766	-10.036706
19416.225851	16899.251500	880.961914	-108.648819
19416.225851	16899.251500	879.788086	-209.388214
19416.225851	16899.251500	878.614258	-299.300354
19416.225851	16899.251500	877.440430	-45.822803
19416.225851	16899.251500	876.266602	231.282639
19416.225851	16899.251500	875.091797	87.334595
19416.225851	16899.251500	873.916992	206.729065
19416.225851	16899.251500	872.742188	-49.393452
19416.225851	16899.251500	871.567383	-117.738136
19416.225851	16899.251500	870.391602	33.941273
19416.225851	16899.251500	869.215820	-81.855690
19416.225851	16899.251500	868.040039	-102.760040
19416.225851	16899.251500	866.864258	78.952698
19416.225851	16899.251500	865.687500	-123.029915
19416.225851	16899.251500	864.510742	-223.675110
19416.225851	16899.251500	863.333984	95.780594
19416.225851	16899.251500	862.157227	-157.823135
19416.225851	16899.251500	860.979492	-25.878904
19416.225851	16899.251500	859.802734	50.007256
19416.225851	16899.251500	858.625000	209.802246
19416.225851	16899.251500	857.446289	139.253860
19416.225851	16899.251500	856.268555	100.980736
19416.225851	16899.251500	855.089844	-188.970261
19416.225851	16899.251500	853.911133	-5.665913
19416.225851	16899.251500	852.731445	164.651398
19416.225851	16899.251500	851.552734	-45.647625
19416.225851	16899.251500	850.373047	120.270821
19416.225851	16899.251500	849.193359	-38.388519
19416.225851	16899.251500	848.013672	-93.875931
19416.225851	16899.251500	846.833008	-74.170265
19416.225851	16899.251500	845.652344	-166.170273
19416.225851	16899.251500	844.471680	297.967529
19416.225851	16899.251500	843.291016	111.430260
19416.225851	16899.251500	842.110352	266.207886
19416.225851	16899.251500	840.928711	-44.741131
19416.225851	16899.251500	839.747070	28.444330
19416.225851	16899.251500	838.564453	-14.242136
19416.225851	16899.251500	837.382813	206.832291
19416.225851	16899.251500	836.200195	110.477386
19416.225851	16899.251500	835.017578	-103.762100
19416.225851	16899.251500	833.834961	192.142761
19416.225851	16899.251500	832.651367	87.214699
19416.225851	16899.251500	831.467773	-81.966324
19416.225851	16899.251500	830.284180	250.097351
19416.225851	16899.251500	829.100586	57.344753
19416.225851	16899.251500	827.916992	-92.537010
19416.225851	16899.251500	826.732422	-30.456982
19416.225851	16899.251500	825.547852	277.682434
19416.225851	16899.251500	824.363281	408.072266
19416.225851	16899.251500	823.177734	277.404877
19416.225851	16899.251500	821.992188	99.707649
19416.225851	16899.251500	820.806641	326.200836
19416.225851	16899.251500	819.621094	139.956284
19416.225851	16899.251500	818.434570	107.664307
19416.225851	16899.251500	817.249023	107.401810
19416.225851	16899.251500	816.062500	-63.811424
19416.225851	16899.251500	814.875000	149.531860
19416.225851	16899.251500	813.688477	416.135681
19416.225851	16899.251500	812.500977	424.240295
19416.225851	16899.251500	811.313477	-7.466522
19416.225851	16899.251500	810.125977	171.403366
19416.225851	16899.251500	808.937500	-161.969727
19416.225851	16899.251500	807.749023	44.533646
19416.225851	16899.251500	806.560547	103.737183
19416.225851	16899.251500	805.372070	169.275162
19416.225851	16899.251500	804.182617	394.673462
19416.225851	16899.251500	802.994141	417.417816
19416.225851	16899.251500	801.803711	205.690308
19416.225851	16899.251500	800.614258	183.647690
19416.225851	16899.251500	799.424805	366.097046
19416.225851	16899.251500	798.234375	-11.742563
19416.225851	16899.251500	797.043945	-153.089355
19416.225851	16899.251500	795.852539	135.668228
19416.225851	16899.251500	794.662109	-50.432796
19416.225851	16899.251500	793.470703	-174.772369
19416.225851	16899.251500	792.279297	34.958790
19416.225851	16899.251500	791.087891	-57.521099
19416.225851	16899.251500	789.895508	32.914951
19416.225851	16899.251500	788.703125	-72.363129
19416.225851	16899.251500	787.510742	-143.625412
19416.225851	16899.251500	786.318359	25.283834
19416.225851	16899.251500	785.125000	-201.184341
19416.225851	16899.251500	783.931641	271.414337
19416.225851	16899.251500	782.738281	55.514912
19416.225851	16899.251500	781.544922	81.773094
19416.225851	16899.251500	780.350586	-55.518436
19416.225851	16899.251500	779.156250	-88.778496
19416.225851	16899.251500	777.961914	482.832245
19416.225851	16899.251500	776.767578	277.490967
19416.225851	16899.251500	775.572266	74.314438
19416.225851	16899.251500	774.376953	204.192596
19416.225851	16899.251500	773.181641	276.706940
19416.225851	16899.251500	771.986328	612.054260
19416.225851	16899.251500	770.790039	16.608871
19416.225851	16899.251500	769.593750	118.639877
19416.225851	16899.251500	768.397461	31.988541
19416.225851	16899.251500	767.201172	8.873114
19416.225851	16899.251500	766.003906	-54.521637
19416.225851	16899.251500	764.806641	-228.061249
19416.225851	16899.251500	763.609375	-242.796997
19416.225851	16899.251500	762.412109	227.155411
19416.225851	16899.251500	761.213867	279.949310
19416.225851	16899.251500	760.015625	167.625610
19416.225851	16899.251500	758.817383	230.871353
19416.225851	16899.251500	757.618164	78.312424
19416.225851	16899.251500	756.419922	18.791334
19416.225851	16899.251500	755.220703	261.560242
19416.225851	16899.251500	754.021484	34.933815
19416.225851	16899.251500	752.821289	133.785767
19416.225851	16899.251500	751.621094	340.288269
19416.225851	16899.251500	750.420898	65.028763
19416.225851	16899.251500	749.220703	17.907269
19416.225851	16899.251500	748.020508	-75.707504
19416.225851	16899.251500	746.819336	-84.899055
19416.225851	16899.251500	745.618164	-75.153130
19416.225851	16899.251500	744.416992	-29.602922
19416.225851	16899.251500	743.214844	-85.394569
19416.225851	16899.251500	742.012695	-46.308556
19416.225851	16899.251500	740.810547	199.359848
19416.225851	16899.251500	739.608398	132.819290
19416.225851	16899.251500	738.406250	209.583084
19416.225851	16899.251500	737.203125	429.565460
19416.225851	16899.251500	736.000000	187.941299
19416.225851	16899.251500	734.795898	449.843475
19416.225851	16899.251500	733.592773	517.792419
19416.225851	16899.251500	732.388672	307.694794
19416.225851	16899.251500	731.184570	377.622192
19416.225851	16899.251500	729.979492	329.586243
19416.225851	16899.251500	728.775391	296.228973
19416.225851	16899.251500	727.570313	98.710495
19416.225851	16899.251500	726.365234	332.434784
19416.225851	16899.251500	725.160156	128.546188
19416.225851	16899.251500	723.954102	191.716187
19416.225851	16899.251500	722.748047	-323.318970
19416.225851	16899.251500	721.541992	73.963997
19416.225851	16899.251500	720.334961	134.802872
19416.225851	16899.251500	719.128906	44.276272
19416.225851	16899.251500	717.921875	-241.620544
19416.225851	16899.251500	716.714844	8.038451
19416.225851	16899.251500	715.506836	-17.518885
19416.225851	16899.251500	714.298828	173.076981
19416.225851	16899.251500	713.090820	-159.054855
19416.225851	16899.251500	711.882813	-98.742554
19416.225851	16899.251500	710.674805	146.082245
19416.225851	16899.251500	709.465820	208.266312
19416.225851	16899.251500	708.256836	-75.642685
19416.225851	16899.251500	707.047852	152.042770
19416.225851	16899.251500	705.837891	84.022896
19416.225851	16899.251500	704.627930	-369.634918
19416.225851	16899.251500	703.417969	-81.477486
19416.225851	16899.251500	702.208008	-214.553482
19416.225851	16899.251500	700.998047	-102.612793
19416.225851	16899.251500	699.787109	-185.514008
19416.225851	16899.251500	698.576172	-232.863190
19416.225851	16899.251500	697.364258	-165.142029
19416.225851	16899.251500	696.153320	23.841921
19416.225851	16899.251500	694.941406	135.273483
19416.225851	16899.251500	693.729492	307.246124
19416.225851	16899.251500	692.516602	257.410797
19416.225851	16899.251500	691.304688	25.626526
19416.225851	16899.251500	690.091797	119.966415
19416.225851	16899.251500	688.878906	220.469574
19416.225851	16899.251500	687.665039	220.569992
19416.225851	16899.251500	686.451172	-101.107101
19416.225851	16899.251500	685.237305	-130.315247
19416.225851	16899.251500	684.023438	164.084656
19416.225851	16899.251500	682.809570	157.663361
19416.225851	16899.251500	681.594727	293.116425
19416.225851	16899.251500	680.379883	374.188599
19416.225851	16899.251500	679.165039	-43.486855
19416.225851	16899.251500	677.949219	-148.155823
19416.225851	16899.251500	676.733398	164.256714
19416.225851	16899.251500	675.517578	132.436859
19416.225851	16899.251500	674.301758	317.369598
19416.225851	16899.251500	673.084961	341.679993
19416.225851	16899.251500	671.869141	351.326752
19416.225851	16899.251500	670.651367	48.418118
19416.225851	16899.251500	669.434570	320.446838
19416.225851	16899.251500	668.216797	52.951290
19416.225851	16899.251500	667.000000	249.791122
19416.225851	16899.251500	665.781250	473.554504
19416.225851	16899.251500	664.563477	397.480988
19416.225851	16899.251500	663.344727	404.612549
19416.225851	16899.251500	662.125977	434.566132
19416.225851	16899.251500	660.907227	164.957825
19416.225851	16899.251500	659.688477	63.837303
19416.225851	16899.251500	658.468750	52.100838
19416.225851	16899.251500	657.249023	331.305084
19416.225851	16899.251500	656.029297	288.240021
19416.225851	16899.251500	654.808594	22.840908
19416.225851	16899.251500	653.587891	141.777893
19416.225851	16899.251500	652.367188	169.239487
19416.225851	16899.251500	651.146484	82.443512
19416.225851	16899.251500	649.924805	178.315399
19416.225851	16899.251500	648.704102	388.243774
19416.225851	16899.251500	647.482422	87.596001
19416.225851	16899.251500	646.259766	305.668060
19416.225851	16899.251500	645.037109	171.005463
19416.225851	16899.251500	643.815430	318.374664
19416.225851	16899.251500	642.591797	208.565079
19416.225851	16899.251500	641.369141	256.289673
19416.225851	16899.251500	640.145508	216.919495
19416.225851	16899.251500	638.921875	171.312836
19416.225851	16899.251500	637.698242	-182.960632
19416.225851	16899.251500	636.474609	127.680435
19416.225851	16899.251500	635.250000	115.147682
19416.225851	16899.251500	634.025391	193.672684
19416.225851	16899.251500	632.800781	48.604458
19416.225851	16899.251500	631.575195	46.350712
19416.225851	16899.251500	630.349609	170.268158
19416.225851	16899.251500	629.124023	145.178528
19416.225851	16899.251500	627.898438	194.522690
19416.225851	16899.251500	626.671875	82.555992
19416.225851	16899.251500	625.445313	-74.862717
19416.225851	16899.251500	624.218750	148.027786
19416.225851	16899.251500	622.992188	31.943851
19416.225851	16899.251500	621.764648	-408.431427
19416.225851	16899.251500	620.537109	136.524536
19416.225851	16899.251500	619.309570	-155.046036
19416.225851	16899.251500	618.081055	181.086792
19416.225851	16899.251500	616.852539	-11.323387
19416.225851	16899.251500	615.624023	50.158581
19416.225851	16899.251500	614.395508	-28.690332
19416.225851	16899.251500	613.166992	395.787720
19416.225851	16899.251500	611.937500	1.361784
19416.225851	16899.251500	610.708008	-48.577740
19416.225851	16899.251500	609.477539	-310.818420
19416.225851	16899.251500	608.248047	-274.114258
19416.225851	16899.251500	607.017578	-72.581032
19416.225851	16899.251500	605.787109	93.845490
19416.225851	16899.251500	604.555664	-135.243317
19416.225851	16899.251500	603.325195	12.603644
19416.225851	16899.251500	602.093750	61.573345
19416.225851	16899.251500	600.861328	-27.373560
19416.225851	16899.251500	599.629883	-13.379772
19416.225851	16899.251500	598.397461	-205.123505
19416.225851	16899.251500	597.165039	-65.593239
19416.225851	16899.251500	595.932617	-129.709229
19416.225851	16899.251500	594.699219	110.530151
19416.225851	16899.251500	593.465820	-259.857819
19416.225851	16899.251500	592.232422	-73.090210
19416.225851	16899.251500	590.999023	-69.261154
19416.225851	16899.251500	589.764648	39.363434
19416.225851	16899.251500	588.530273	-49.208992
19416.225851	16899.251500	587.295898	-78.166306
19416.225851	16899.251500	586.061523	-183.047943
19416.225851	16899.251500	584.826172	-109.274101
19416.225851	16899.251500	583.590820	-78.595276
19416.225851	16899.251500	582.355469	-52.000187
19416.225851	16899.251500	581.119141	-64.354301
19416.225851	16899.251500	579.882813	-132.043030
19416.225851	16899.251500	578.646484	-8.973101
19416.225851	16899.251500	577.410156	-121.668488
19416.225851	16899.251500	576.172852	5.528796
19416.225851	16899.251500	574.935547	341.723358
19416.225851	16899.251500	573.698242	104.182205
19416.225851	16899.251500	572.460938	354.273804
19416.225851	16899.251500	571.222656	233.650299
19416.225851	16899.251500	569.984375	360.857452
19416.225851	16899.251500	568.746094	160.548782
19416.225851	16899.251500	567.506836	136.376480
19416.225851	16899.251500	566.267578	167.509079
19416.225851	16899.251500	565.028320	489.162506
19416.225851	16899.251500	563.789063	557.124878
19416.225851	16899.251500	562.548828	310.220215
19416.225851	16899.251500	561.309570	594.998718
19416.225851	16899.251500	560.068359	538.387512
19416.225851	16899.251500	558.828125	396.029541
19416.225851	16899.251500	557.586914	409.062012
19416.225851	16899.251500	556.345703	211.760178
19416.225851	16899.251500	555.104492	449.577789
19416.225851	16899.251500	553.863281	150.384491
19416.225851	16899.251500	552.621094	465.804993
19416.225851	16899.251500	551.378906	526.045654
19416.225851	16899.251500	550.136719	388.403748
19416.225851	16899.251500	548.893555	787.394409
19416.225851	16899.251500	547.650391	435.729523
19416.225851	16899.251500	546.407227	775.528320
19416.225851	16899.251500	545.164063	583.156006
19416.225851	16899.251500	543.919922	556.024170
19416.225851	16899.251500	542.675781	541.191711
19416.225851	16899.251500	541.431641	722.013855
19416.225851	16899.251500	540.186523	772.458557
19416.225851	16899.251500	538.941406	556.164429
19416.225851	16899.251500	537.696289	561.951233
19416.225851	16899.251500	536.451172	834.456909
19416.225851	16899.251500	535.205078	742.613953
19416.225851	16899.251500	533.959961	1021.183594
19416.225851	16899.251500	532.712891	610.074463
19416.225851	16899.251500	531.466797	756.469299
19416.225851	16899.251500	530.219727	813.386169
19416.225851	16899.251500	528.972656	862.200684
19416.225851	16899.251500	527.725586	1039.094727
19416.225851	16899.251500	526.478516	632.746216
19416.225851	16899.251500	525.230469	1069.766724
19416.225851	16899.251500	523.982422	1149.148071
19416.225851	16899.251500	522.734375	1029.519043
19416.225851	16899.251500	521.485352	909.986816
19416.225851	16899.251500	520.236328	800.693176
19416.225851	16899.251500	518.987305	1196.824707
19416.225851	16899.251500	517.737305	943.523499
19416.225851	16899.251500	516.488281	966.250549
19416.225851	16899.251500	515.238281	1212.097046
19416.225851	16899.251500	513.988281	1372.695801
19416.225851	16899.251500	512.737305	1176.440063
19416.225851	16899.251500	511.486328	1091.763062
19416.225851	16899.251500	510.235352	1424.580688
19416.225851	16899.251500	508.984375	1607.335815
19416.225851	16899.251500	507.732422	1469.979370
19416.225851	16899.251500	506.480469	1401.533569
19416.225851	16899.251500	505.228516	1857.507080
19416.225851	16899.251500	503.976563	1918.539063
19416.225851	16899.251500	502.723633	1989.650024
19416.225851	16899.251500	501.470703	1898.833618
19416.225851	16899.251500	500.217773	2040.667969
19416.225851	16899.251500	498.963867	2475.674561
19416.225851	16899.251500	497.709961	2360.439941
19416.225851	16899.251500	496.456055	2366.506348
19416.225851	16899.251500	495.202148	2679.737793
19416.225851	16899.251500	493.947266	2422.914063
19416.225851	16899.251500	492.692383	2657.070068
19416.225851	16899.251500	491.437500	2386.069336
19416.225851	16899.251500	490.181641	2785.565430
19416.225851	16899.251500	488.926758	2877.895264
19416.225851	16899.251500	487.670898	3000.360596
19416.225851	16899.251500	486.414063	3094.406738
19416.225851	16899.251500	485.158203	3198.370361
19416.225851	16899.251500	483.901367	3175.069092
19416.225851	16899.251500	482.644531	3030.617676
19416.225851	16899.251500	481.386719	3444.629639
19416.225851	16899.251500	480.128906	3555.891357
19416.225851	16899.251500	478.871094	3584.290039
19416.225851	16899.251500	477.613281	3630.620361
19416.225851	16899.251500	476.355469	3660.608154
19416.225851	16899.251500	475.096680	3940.137939
19416.225851	16899.251500	473.837891	4070.293457
19416.225851	16899.251500	472.578125	3857.873779
19416.225851	16899.251500	471.319336	4142.485840
19416.225851	16899.251500	470.059570	3955.775391
19416.225851	16899.251500	468.799805	4348.338867
19416.225851	16899.251500	467.539063	4171.132324
19416.225851	16899.251500	466.278320	4601.070313
19416.225851	16899.251500	465.017578	4185.957520
19416.225851	16899.251500	463.756836	4267.227539
19416.225851	16899.251500	462.495117	4655.611816
19416.225851	16899.251500	461.233398	4484.800293
19416.225851	16899.251500	459.971680	4171.015625
19416.225851	16899.251500	458.709961	4429.392578
19416.225851	16899.251500	457.447266	4719.344727
19416.225851	16899.251500	456.184570	4538.891602
19416.225851	16899.251500	454.921875	4875.915039
19416.225851	16899.251500	453.658203	4726.618164
19416.225851	16899.251500	452.394531	4895.879395
19416.225851	16899.251500	451.130859	4952.175781
19416.225851	16899.251500	449.867188	5007.872070
19416.225851	16899.251500	448.602539	5105.047852
19416.225851	16899.251500	447.337891	5199.550781
19416.225851	16899.251500	446.073242	5082.913086
19416.225851	16899.251500	444.807617	4829.380859
19416.225851	16899.251500	443.542969	5044.058105
19416.225851	16899.251500	442.276367	5045.584473
19416.225851	16899.251500	441.010742	4950.232910
19416.225851	16899.251500	439.744141	4832.104492
19416.225851	16899.251500	438.478516	5201.628418
19416.225851	16899.251500	437.210938	5550.110840
19416.225851	16899.251500	435.944336	5259.315918
19416.225851	16899.251500	434.676758	5353.795898
19416.225851	16899.251500	433.409180	5099.299805
19416.225851	16899.251500	432.141602	5331.817871
19416.225851	16899.251500	430.873047	5207.371582
19416.225851	16899.251500	429.604492	5433.694824
19416.225851	16899.251500	428.335938	5389.073242
19416.225851	16899.251500	427.067383	5505.172363
19416.225851	16899.251500	425.797852	5550.137695
19416.225851	16899.251500	424.528320	5406.172852
19416.225851	16899.251500	423.258789	5109.300781
19416.225851	16899.251500	421.988281	5068.747559
19416.225851	16899.251500	420.717773	5451.956543
19416.225851	16899.251500	419.447266	5482.481934
19416.225851	16899.251500	418.175781	5633.245117
19416.225851	16899.251500	416.905273	5541.196777
19416.225851	16899.251500	415.633789	5563.312500
19416.225851	16899.251500	414.362305	5444.328613
19416.225851	16899.251500	413.089844	5594.826172
19416.225851	16899.251500	411.817383	5614.095703
19416.225851	16899.251500	410.544922	5528.068848
19416.225851	16899.251500	409.272461	5358.674316
19416.225851	16899.251500	407.999023	5577.813965
19416.225851	16899.251500	406.725586	5390.862793
19416.225851	16899.251500	405.452148	5427.002441
19416.225851	16899.251500	404.177734	5516.845215
19416.225851	16899.251500	402.903320	5499.179199
19416.225851	16899.251500	401.628906	5513.253906
19416.225851	16899.251500	400.354492	5393.927246
19416.225851	16899.251500	399.079102	5419.541504
19416.225851	16899.251500	397.803711	5510.461914
19416.225851	16899.251500	396.528320	5877.251465
19416.225851	16899.251500	395.251953	5712.903320
19416.225851	16899.251500	393.976563	5534.294434
19416.225851	16899.251500	392.700195	5641.168457
19416.225851	16899.251500	391.422852	5524.930664
19416.225851	16899.251500	390.145508	5527.167969
19416.225851	16899.251500	388.869141	5242.890137
19416.225851	16899.251500	387.590820	5428.081055
19416.225851	16899.251500	386.313477	5493.302246
19416.225851	16899.251500	385.035156	5176.606934
19416.225851	16899.251500	383.756836	5128.678711
19416.225851	16899.251500	382.478516	5057.812012
19416.225851	16899.251500	381.199219	4971.797852
19416.225851	16899.251500	379.919922	5126.281250
19416.225851	16899.251500	378.640625	4793.856445
19416.225851	16899.251500	377.360352	4745.261230
19416.225851	16899.251500	376.080078	4714.907715
19416.225851	16899.251500	374.799805	4843.277832
19416.225851	16899.251500	373.519531	4777.799805
19416.225851	16899.251500	372.238281	4607.479492
19416.225851	16899.251500	370.957031	4637.108398
19416.225851	16899.251500	369.675781	4439.134277
19416.225851	16899.251500	368.394531	4628.734863
19416.225851	16899.251500	367.112305	4533.111816
19416.225851	16899.251500	365.830078	4326.420410
19416.225851	16899.251500	364.546875	4429.543945
19416.225851	16899.251500	363.264648	4004.476807
19416.225851	16899.251500	361.981445	4606.162598
19416.225851	16899.251500	360.698242	4051.181396
19416.225851	16899.251500	359.414063	3732.357422
19416.225851	16899.251500	358.129883	3801.572266
19416.225851	16899.251500	356.845703	3909.046631
19416.225851	16899.251500	355.561523	3807.936523
19416.225851	16899.251500	354.276367	4040.739258
19416.225851	16899.251500	352.991211	3701.747070
19416.225851	16899.251500	351.706055	3601.833740
19416.225851	16899.251500	350.420898	3519.859619
19416.225851	16899.251500	349.134766	3384.549316
19416.225851	16899.251500	347.848633	3284.649414
19416.225851	16899.251500	346.561523	3121.302734
19416.225851	16899.251500	345.275391	3117.367432
19416.225851	16899.251500	343.988281	2935.435547
19416.225851	16899.251500	342.700195	2415.943359
19416.225851	16899.251500	341.413086	2356.727539
19416.225851	16899.251500	340.125000	2410.515137
19416.225851	16899.251500	338.836914	2061.637939
19416.225851	16899.251500	337.548828	2150.368408
19416.225851	16899.251500	336.259766	2319.996338
19416.225851	16899.251500	334.970703	2539.035400
19416.225851	16899.251500	333.681641	2101.385986
19416.225851	16899.251500	332.391602	1877.966431
19416.225851	16899.251500	331.101563	1707.513306
19416.225851	16899.251500	329.811523	1420.826904
19416.225851	16899.251500	328.521484	1408.763550
19416.225851	16899.251500	327.230469	1325.015137
19416.225851	16899.251500	325.939453	1191.291260
19416.225851	16899.251500	324.648438	1101.669434
19416.225851	16899.251500	323.356445	859.382568
19416.225851	16899.251500	322.064453	1035.657959
19416.225851	16899.251500	320.772461	870.731445
19416.225851	16899.251500	319.480469	558.820374
19416.225851	16899.251500	318.187500	513.326721
19416.225851	16899.251500	316.894531	410.629150
19416.225851	16899.251500	315.601563	181.950470
19416.225851	16899.251500	314.307617	122.776276
19416.225851	16899.251500	313.013672	13.626255
19416.225851	16899.251500	311.719727	-220.131104
19416.225851	16899.251500	310.425781	112.748123
19416.225851	16899.251500	309.130859	16.561338
19416.225851	16899.251500	307.835938	28.111605
19416.225851	16899.251500	306.541016	-89.739357
19416.225851	16899.251500	305.245117	-102.701004
19416.225851	16899.251500	303.949219	-292.455902
19416.225851	16899.251500	302.653320	152.619492
19416.225851	16899.251500	301.356445	-18.181480
19416.225851	16899.251500	300.060547	283.173676
19416.225851	16899.251500	298.763672	115.051811
