#X		#Y		#Wave		#Intensity
19350.834947	16851.252500	2000.043945	112.371964
19350.834947	16851.252500	1999.080078	282.492920
19350.834947	16851.252500	1998.116211	-18.910334
19350.834947	16851.252500	1997.151367	14.378969
19350.834947	16851.252500	1996.186523	203.773300
19350.834947	16851.252500	1995.222656	-156.834473
19350.834947	16851.252500	1994.256836	-286.934875
19350.834947	16851.252500	1993.291992	226.869171
19350.834947	16851.252500	1992.327148	304.749542
19350.834947	16851.252500	1991.361328	-57.994812
19350.834947	16851.252500	1990.395508	106.575821
19350.834947	16851.252500	1989.429688	-35.734669
19350.834947	16851.252500	1988.463867	151.067062
19350.834947	16851.252500	1987.497070	-117.311768
19350.834947	16851.252500	1986.531250	165.917145
19350.834947	16851.252500	1985.564453	409.497162
19350.834947	16851.252500	1984.597656	217.897247
19350.834947	16851.252500	1983.630859	236.475998
19350.834947	16851.252500	1982.664063	-9.366955
19350.834947	16851.252500	1981.696289	325.540527
19350.834947	16851.252500	1980.728516	-154.885330
19350.834947	16851.252500	1979.761719	288.611481
19350.834947	16851.252500	1978.792969	10.888817
19350.834947	16851.252500	1977.825195	-22.301332
19350.834947	16851.252500	1976.857422	144.478836
19350.834947	16851.252500	1975.888672	444.483582
19350.834947	16851.252500	1974.919922	310.086090
19350.834947	16851.252500	1973.951172	170.807175
19350.834947	16851.252500	1972.982422	293.052338
19350.834947	16851.252500	1972.013672	217.957581
19350.834947	16851.252500	1971.043945	56.597504
19350.834947	16851.252500	1970.075195	-190.993637
19350.834947	16851.252500	1969.105469	392.171936
19350.834947	16851.252500	1968.135742	245.658890
19350.834947	16851.252500	1967.165039	205.155060
19350.834947	16851.252500	1966.195313	-20.102123
19350.834947	16851.252500	1965.224609	249.796997
19350.834947	16851.252500	1964.253906	115.733482
19350.834947	16851.252500	1963.283203	223.003540
19350.834947	16851.252500	1962.312500	59.446354
19350.834947	16851.252500	1961.341797	321.733124
19350.834947	16851.252500	1960.370117	-11.573271
19350.834947	16851.252500	1959.399414	245.696320
19350.834947	16851.252500	1958.427734	-6.310226
19350.834947	16851.252500	1957.455078	789.463074
19350.834947	16851.252500	1956.483398	357.933472
19350.834947	16851.252500	1955.511719	96.189240
19350.834947	16851.252500	1954.539063	21.345949
19350.834947	16851.252500	1953.566406	376.591431
19350.834947	16851.252500	1952.593750	336.102783
19350.834947	16851.252500	1951.621094	425.818817
19350.834947	16851.252500	1950.647461	365.671539
19350.834947	16851.252500	1949.674805	298.160370
19350.834947	16851.252500	1948.701172	-73.781776
19350.834947	16851.252500	1947.727539	30.630634
19350.834947	16851.252500	1946.753906	49.086468
19350.834947	16851.252500	1945.780273	148.501144
19350.834947	16851.252500	1944.805664	419.607330
19350.834947	16851.252500	1943.831055	354.542206
19350.834947	16851.252500	1942.856445	103.092354
19350.834947	16851.252500	1941.881836	209.720032
19350.834947	16851.252500	1940.907227	61.325077
19350.834947	16851.252500	1939.932617	-28.208334
19350.834947	16851.252500	1938.957031	56.280117
19350.834947	16851.252500	1937.981445	248.527374
19350.834947	16851.252500	1937.005859	-157.062805
19350.834947	16851.252500	1936.030273	145.331253
19350.834947	16851.252500	1935.054688	-88.708961
19350.834947	16851.252500	1934.078125	247.799042
19350.834947	16851.252500	1933.101563	-213.868607
19350.834947	16851.252500	1932.125000	171.441864
19350.834947	16851.252500	1931.148438	-23.359953
19350.834947	16851.252500	1930.171875	-254.813644
19350.834947	16851.252500	1929.194336	166.916702
19350.834947	16851.252500	1928.217773	-59.643131
19350.834947	16851.252500	1927.240234	281.149872
19350.834947	16851.252500	1926.262695	-33.404476
19350.834947	16851.252500	1925.284180	-42.323925
19350.834947	16851.252500	1924.306641	241.987885
19350.834947	16851.252500	1923.328125	298.935486
19350.834947	16851.252500	1922.350586	35.804794
19350.834947	16851.252500	1921.372070	249.031494
19350.834947	16851.252500	1920.392578	269.236115
19350.834947	16851.252500	1919.414063	11.060191
19350.834947	16851.252500	1918.434570	104.474426
19350.834947	16851.252500	1917.456055	22.089268
19350.834947	16851.252500	1916.476563	654.687744
19350.834947	16851.252500	1915.497070	123.261459
19350.834947	16851.252500	1914.516602	-22.584600
19350.834947	16851.252500	1913.537109	12.057190
19350.834947	16851.252500	1912.556641	107.618073
19350.834947	16851.252500	1911.576172	264.058502
19350.834947	16851.252500	1910.595703	18.223686
19350.834947	16851.252500	1909.615234	120.937431
19350.834947	16851.252500	1908.633789	-268.599701
19350.834947	16851.252500	1907.653320	72.797691
19350.834947	16851.252500	1906.671875	319.044830
19350.834947	16851.252500	1905.690430	87.867973
19350.834947	16851.252500	1904.708984	-187.084824
19350.834947	16851.252500	1903.727539	-70.054230
19350.834947	16851.252500	1902.745117	-28.548861
19350.834947	16851.252500	1901.762695	224.606964
19350.834947	16851.252500	1900.780273	217.305420
19350.834947	16851.252500	1899.797852	278.077332
19350.834947	16851.252500	1898.815430	61.539524
19350.834947	16851.252500	1897.832031	110.085526
19350.834947	16851.252500	1896.849609	340.899658
19350.834947	16851.252500	1895.866211	-133.295013
19350.834947	16851.252500	1894.882813	141.144241
19350.834947	16851.252500	1893.898438	315.825714
19350.834947	16851.252500	1892.915039	-116.925339
19350.834947	16851.252500	1891.930664	-73.503372
19350.834947	16851.252500	1890.947266	253.973755
19350.834947	16851.252500	1889.962891	-13.548797
19350.834947	16851.252500	1888.977539	70.971481
19350.834947	16851.252500	1887.993164	-164.952164
19350.834947	16851.252500	1887.007813	254.340073
19350.834947	16851.252500	1886.023438	260.988586
19350.834947	16851.252500	1885.038086	-103.528641
19350.834947	16851.252500	1884.051758	271.733246
19350.834947	16851.252500	1883.066406	-153.360489
19350.834947	16851.252500	1882.081055	15.608648
19350.834947	16851.252500	1881.094727	-307.566071
19350.834947	16851.252500	1880.108398	76.960014
19350.834947	16851.252500	1879.122070	-28.135641
19350.834947	16851.252500	1878.135742	360.941589
19350.834947	16851.252500	1877.148438	69.246498
19350.834947	16851.252500	1876.162109	77.879478
19350.834947	16851.252500	1875.174805	120.360588
19350.834947	16851.252500	1874.187500	-55.080410
19350.834947	16851.252500	1873.199219	-41.726761
19350.834947	16851.252500	1872.211914	-4.233552
19350.834947	16851.252500	1871.223633	-95.024445
19350.834947	16851.252500	1870.236328	-246.305099
19350.834947	16851.252500	1869.248047	61.916637
19350.834947	16851.252500	1868.258789	268.423584
19350.834947	16851.252500	1867.270508	366.010376
19350.834947	16851.252500	1866.282227	26.028410
19350.834947	16851.252500	1865.292969	169.440155
19350.834947	16851.252500	1864.303711	271.673187
19350.834947	16851.252500	1863.314453	108.090576
19350.834947	16851.252500	1862.324219	16.978891
19350.834947	16851.252500	1861.334961	-231.114624
19350.834947	16851.252500	1860.344727	387.568939
19350.834947	16851.252500	1859.354492	153.879242
19350.834947	16851.252500	1858.364258	219.486084
19350.834947	16851.252500	1857.374023	256.057190
19350.834947	16851.252500	1856.383789	-204.409531
19350.834947	16851.252500	1855.392578	-30.391533
19350.834947	16851.252500	1854.401367	-189.288788
19350.834947	16851.252500	1853.410156	109.931740
19350.834947	16851.252500	1852.418945	37.740597
19350.834947	16851.252500	1851.426758	237.880859
19350.834947	16851.252500	1850.435547	-53.704453
19350.834947	16851.252500	1849.443359	1.707255
19350.834947	16851.252500	1848.451172	114.856987
19350.834947	16851.252500	1847.458984	239.949692
19350.834947	16851.252500	1846.466797	401.059448
19350.834947	16851.252500	1845.473633	239.448593
19350.834947	16851.252500	1844.480469	212.639603
19350.834947	16851.252500	1843.487305	392.749573
19350.834947	16851.252500	1842.494141	382.651428
19350.834947	16851.252500	1841.500977	-43.686176
19350.834947	16851.252500	1840.506836	569.147278
19350.834947	16851.252500	1839.513672	251.037460
19350.834947	16851.252500	1838.519531	-204.053909
19350.834947	16851.252500	1837.525391	83.769096
19350.834947	16851.252500	1836.530273	147.909012
19350.834947	16851.252500	1835.536133	291.263672
19350.834947	16851.252500	1834.541016	492.169373
19350.834947	16851.252500	1833.545898	231.744980
19350.834947	16851.252500	1832.550781	252.349808
19350.834947	16851.252500	1831.555664	256.079498
19350.834947	16851.252500	1830.560547	372.586426
19350.834947	16851.252500	1829.564453	-118.276154
19350.834947	16851.252500	1828.568359	149.331665
19350.834947	16851.252500	1827.572266	203.236038
19350.834947	16851.252500	1826.576172	247.466232
19350.834947	16851.252500	1825.580078	-123.309784
19350.834947	16851.252500	1824.583008	124.681007
19350.834947	16851.252500	1823.585938	175.921341
19350.834947	16851.252500	1822.588867	-125.289940
19350.834947	16851.252500	1821.591797	-160.417664
19350.834947	16851.252500	1820.594727	317.196411
19350.834947	16851.252500	1819.596680	-29.563643
19350.834947	16851.252500	1818.599609	409.403198
19350.834947	16851.252500	1817.601563	524.843506
19350.834947	16851.252500	1816.603516	134.967072
19350.834947	16851.252500	1815.604492	293.392120
19350.834947	16851.252500	1814.606445	363.140106
19350.834947	16851.252500	1813.607422	162.390732
19350.834947	16851.252500	1812.608398	14.295462
19350.834947	16851.252500	1811.609375	81.489113
19350.834947	16851.252500	1810.610352	313.624115
19350.834947	16851.252500	1809.610352	165.412170
19350.834947	16851.252500	1808.611328	17.195711
19350.834947	16851.252500	1807.611328	198.841385
19350.834947	16851.252500	1806.611328	294.327118
19350.834947	16851.252500	1805.610352	583.260925
19350.834947	16851.252500	1804.610352	191.173218
19350.834947	16851.252500	1803.609375	-64.679199
19350.834947	16851.252500	1802.608398	-21.986086
19350.834947	16851.252500	1801.607422	366.838623
19350.834947	16851.252500	1800.606445	94.215012
19350.834947	16851.252500	1799.605469	36.442036
19350.834947	16851.252500	1798.603516	157.601974
19350.834947	16851.252500	1797.601563	-29.107941
19350.834947	16851.252500	1796.599609	-91.767616
19350.834947	16851.252500	1795.597656	260.511780
19350.834947	16851.252500	1794.595703	-74.119156
19350.834947	16851.252500	1793.592773	263.607117
19350.834947	16851.252500	1792.589844	188.796371
19350.834947	16851.252500	1791.587891	25.783062
19350.834947	16851.252500	1790.583984	265.439575
19350.834947	16851.252500	1789.581055	52.335316
19350.834947	16851.252500	1788.577148	451.362366
19350.834947	16851.252500	1787.574219	588.240540
19350.834947	16851.252500	1786.570313	184.562881
19350.834947	16851.252500	1785.566406	157.081985
19350.834947	16851.252500	1784.561523	308.051361
19350.834947	16851.252500	1783.557617	408.941254
19350.834947	16851.252500	1782.552734	202.840408
19350.834947	16851.252500	1781.547852	213.216522
19350.834947	16851.252500	1780.542969	66.575706
19350.834947	16851.252500	1779.538086	10.289330
19350.834947	16851.252500	1778.532227	301.044220
19350.834947	16851.252500	1777.527344	220.860062
19350.834947	16851.252500	1776.521484	119.266449
19350.834947	16851.252500	1775.515625	428.682617
19350.834947	16851.252500	1774.508789	70.433823
19350.834947	16851.252500	1773.502930	28.141815
19350.834947	16851.252500	1772.496094	-54.556801
19350.834947	16851.252500	1771.489258	233.081635
19350.834947	16851.252500	1770.482422	31.592581
19350.834947	16851.252500	1769.475586	205.089661
19350.834947	16851.252500	1768.467773	354.741669
19350.834947	16851.252500	1767.460938	271.803741
19350.834947	16851.252500	1766.453125	229.165848
19350.834947	16851.252500	1765.445313	333.521179
19350.834947	16851.252500	1764.437500	44.213879
19350.834947	16851.252500	1763.428711	56.014072
19350.834947	16851.252500	1762.420898	496.734039
19350.834947	16851.252500	1761.412109	363.802368
19350.834947	16851.252500	1760.403320	41.344170
19350.834947	16851.252500	1759.393555	131.104065
19350.834947	16851.252500	1758.384766	-127.341637
19350.834947	16851.252500	1757.375000	388.517365
19350.834947	16851.252500	1756.366211	248.392365
19350.834947	16851.252500	1755.356445	70.400902
19350.834947	16851.252500	1754.345703	95.939735
19350.834947	16851.252500	1753.335938	121.423538
19350.834947	16851.252500	1752.325195	2.555576
19350.834947	16851.252500	1751.315430	-42.993454
19350.834947	16851.252500	1750.304688	-19.998959
19350.834947	16851.252500	1749.292969	97.506172
19350.834947	16851.252500	1748.282227	11.646019
19350.834947	16851.252500	1747.270508	-15.146063
19350.834947	16851.252500	1746.259766	293.551056
19350.834947	16851.252500	1745.248047	-42.839195
19350.834947	16851.252500	1744.235352	67.253853
19350.834947	16851.252500	1743.223633	-278.496490
19350.834947	16851.252500	1742.211914	-109.455452
19350.834947	16851.252500	1741.199219	68.917816
19350.834947	16851.252500	1740.186523	-170.555344
19350.834947	16851.252500	1739.173828	-8.835388
19350.834947	16851.252500	1738.160156	-288.391327
19350.834947	16851.252500	1737.147461	-70.180199
19350.834947	16851.252500	1736.133789	-64.341705
19350.834947	16851.252500	1735.120117	-53.827732
19350.834947	16851.252500	1734.106445	-175.370193
19350.834947	16851.252500	1733.091797	75.491440
19350.834947	16851.252500	1732.078125	-128.580368
19350.834947	16851.252500	1731.063477	67.913040
19350.834947	16851.252500	1730.048828	163.006302
19350.834947	16851.252500	1729.034180	-88.180916
19350.834947	16851.252500	1728.019531	-84.997688
19350.834947	16851.252500	1727.003906	-67.729736
19350.834947	16851.252500	1725.988281	-66.977051
19350.834947	16851.252500	1724.972656	6.694513
19350.834947	16851.252500	1723.957031	-178.513336
19350.834947	16851.252500	1722.941406	8.003486
19350.834947	16851.252500	1721.924805	185.006012
19350.834947	16851.252500	1720.909180	-89.582855
19350.834947	16851.252500	1719.892578	-121.938850
19350.834947	16851.252500	1718.875977	50.193733
19350.834947	16851.252500	1717.858398	250.429352
19350.834947	16851.252500	1716.841797	-132.176025
19350.834947	16851.252500	1715.824219	18.625492
19350.834947	16851.252500	1714.806641	84.783073
19350.834947	16851.252500	1713.789063	71.041458
19350.834947	16851.252500	1712.770508	266.241577
19350.834947	16851.252500	1711.752930	-106.749817
19350.834947	16851.252500	1710.734375	74.275902
19350.834947	16851.252500	1709.715820	-195.339371
19350.834947	16851.252500	1708.697266	32.508469
19350.834947	16851.252500	1707.678711	96.044662
19350.834947	16851.252500	1706.659180	133.731125
19350.834947	16851.252500	1705.640625	370.692719
19350.834947	16851.252500	1704.621094	284.018646
19350.834947	16851.252500	1703.600586	68.436104
19350.834947	16851.252500	1702.581055	131.790710
19350.834947	16851.252500	1701.561523	218.530716
19350.834947	16851.252500	1700.541016	455.135529
19350.834947	16851.252500	1699.520508	258.343781
19350.834947	16851.252500	1698.500000	417.538940
19350.834947	16851.252500	1697.478516	515.780457
19350.834947	16851.252500	1696.458008	323.718842
19350.834947	16851.252500	1695.436523	676.999817
19350.834947	16851.252500	1694.415039	433.465515
19350.834947	16851.252500	1693.393555	126.847115
19350.834947	16851.252500	1692.372070	283.446045
19350.834947	16851.252500	1691.349609	128.942795
19350.834947	16851.252500	1690.327148	292.462860
19350.834947	16851.252500	1689.304688	441.881927
19350.834947	16851.252500	1688.282227	436.977966
19350.834947	16851.252500	1687.259766	490.484070
19350.834947	16851.252500	1686.236328	417.795624
19350.834947	16851.252500	1685.213867	256.368042
19350.834947	16851.252500	1684.190430	328.526550
19350.834947	16851.252500	1683.166016	409.982697
19350.834947	16851.252500	1682.142578	264.961548
19350.834947	16851.252500	1681.119141	297.374084
19350.834947	16851.252500	1680.094727	28.732815
19350.834947	16851.252500	1679.070313	476.456268
19350.834947	16851.252500	1678.045898	44.588100
19350.834947	16851.252500	1677.020508	538.763916
19350.834947	16851.252500	1675.996094	573.394287
19350.834947	16851.252500	1674.970703	155.728210
19350.834947	16851.252500	1673.945313	565.678406
19350.834947	16851.252500	1672.919922	220.413483
19350.834947	16851.252500	1671.893555	543.977295
19350.834947	16851.252500	1670.868164	550.604675
19350.834947	16851.252500	1669.841797	505.985962
19350.834947	16851.252500	1668.815430	410.156952
19350.834947	16851.252500	1667.789063	239.866425
19350.834947	16851.252500	1666.761719	751.660095
19350.834947	16851.252500	1665.735352	455.700562
19350.834947	16851.252500	1664.708008	439.074707
19350.834947	16851.252500	1663.680664	689.992126
19350.834947	16851.252500	1662.653320	384.922302
19350.834947	16851.252500	1661.625000	712.500854
19350.834947	16851.252500	1660.597656	635.409790
19350.834947	16851.252500	1659.569336	374.710785
19350.834947	16851.252500	1658.541016	397.664093
19350.834947	16851.252500	1657.512695	232.399399
19350.834947	16851.252500	1656.483398	601.546509
19350.834947	16851.252500	1655.455078	791.711182
19350.834947	16851.252500	1654.425781	582.369263
19350.834947	16851.252500	1653.396484	196.657913
19350.834947	16851.252500	1652.366211	280.033234
19350.834947	16851.252500	1651.336914	265.911438
19350.834947	16851.252500	1650.306641	395.678558
19350.834947	16851.252500	1649.276367	680.854553
19350.834947	16851.252500	1648.246094	615.672668
19350.834947	16851.252500	1647.215820	520.383545
19350.834947	16851.252500	1646.185547	596.732056
19350.834947	16851.252500	1645.154297	478.330688
19350.834947	16851.252500	1644.123047	709.988403
19350.834947	16851.252500	1643.091797	932.303528
19350.834947	16851.252500	1642.060547	871.886230
19350.834947	16851.252500	1641.028320	686.421326
19350.834947	16851.252500	1639.997070	797.504211
19350.834947	16851.252500	1638.964844	1038.236328
19350.834947	16851.252500	1637.931641	626.024597
19350.834947	16851.252500	1636.899414	1095.898071
19350.834947	16851.252500	1635.867188	952.338318
19350.834947	16851.252500	1634.833984	894.466064
19350.834947	16851.252500	1633.800781	931.490234
19350.834947	16851.252500	1632.767578	836.690979
19350.834947	16851.252500	1631.734375	1294.631470
19350.834947	16851.252500	1630.700195	901.604187
19350.834947	16851.252500	1629.666016	980.314270
19350.834947	16851.252500	1628.631836	802.489014
19350.834947	16851.252500	1627.597656	1440.425903
19350.834947	16851.252500	1626.563477	886.078918
19350.834947	16851.252500	1625.528320	1232.781616
19350.834947	16851.252500	1624.493164	1112.903198
19350.834947	16851.252500	1623.458008	1062.367920
19350.834947	16851.252500	1622.422852	1129.618164
19350.834947	16851.252500	1621.387695	1222.261841
19350.834947	16851.252500	1620.351563	1277.982544
19350.834947	16851.252500	1619.315430	1442.151123
19350.834947	16851.252500	1618.279297	1311.045410
19350.834947	16851.252500	1617.243164	1535.177979
19350.834947	16851.252500	1616.207031	1046.795654
19350.834947	16851.252500	1615.169922	980.501953
19350.834947	16851.252500	1614.132813	1024.907715
19350.834947	16851.252500	1613.095703	1410.382690
19350.834947	16851.252500	1612.058594	1406.386597
19350.834947	16851.252500	1611.020508	1314.898315
19350.834947	16851.252500	1609.983398	1191.249390
19350.834947	16851.252500	1608.945313	1231.174194
19350.834947	16851.252500	1607.907227	1027.099609
19350.834947	16851.252500	1606.868164	813.943848
19350.834947	16851.252500	1605.830078	1049.655640
19350.834947	16851.252500	1604.791016	1029.934448
19350.834947	16851.252500	1603.751953	1116.083740
19350.834947	16851.252500	1602.712891	917.061401
19350.834947	16851.252500	1601.673828	929.713745
19350.834947	16851.252500	1600.633789	1144.719238
19350.834947	16851.252500	1599.594727	1198.795410
19350.834947	16851.252500	1598.554688	1193.147949
19350.834947	16851.252500	1597.513672	989.957397
19350.834947	16851.252500	1596.473633	1012.023071
19350.834947	16851.252500	1595.433594	912.406250
19350.834947	16851.252500	1594.392578	1212.434082
19350.834947	16851.252500	1593.351563	1248.378418
19350.834947	16851.252500	1592.310547	1412.906128
19350.834947	16851.252500	1591.268555	939.426331
19350.834947	16851.252500	1590.227539	1278.444824
19350.834947	16851.252500	1589.185547	1195.279419
19350.834947	16851.252500	1588.143555	1022.754761
19350.834947	16851.252500	1587.100586	1125.532227
19350.834947	16851.252500	1586.058594	1021.986145
19350.834947	16851.252500	1585.015625	957.507202
19350.834947	16851.252500	1583.972656	1248.345459
19350.834947	16851.252500	1582.929688	1316.868652
19350.834947	16851.252500	1581.886719	1309.827393
19350.834947	16851.252500	1580.843750	1337.208618
19350.834947	16851.252500	1579.799805	1149.379272
19350.834947	16851.252500	1578.755859	1270.778564
19350.834947	16851.252500	1577.711914	1213.643311
19350.834947	16851.252500	1576.666992	1124.555664
19350.834947	16851.252500	1575.623047	989.802490
19350.834947	16851.252500	1574.578125	1038.191895
19350.834947	16851.252500	1573.533203	1223.867676
19350.834947	16851.252500	1572.488281	1160.267944
19350.834947	16851.252500	1571.443359	785.809326
19350.834947	16851.252500	1570.397461	1412.824097
19350.834947	16851.252500	1569.351563	1107.166748
19350.834947	16851.252500	1568.305664	1430.095703
19350.834947	16851.252500	1567.259766	1072.148682
19350.834947	16851.252500	1566.213867	1173.537109
19350.834947	16851.252500	1565.166992	873.017578
19350.834947	16851.252500	1564.120117	1040.764404
19350.834947	16851.252500	1563.073242	1135.465698
19350.834947	16851.252500	1562.026367	844.481506
19350.834947	16851.252500	1560.978516	1135.582031
19350.834947	16851.252500	1559.930664	990.877197
19350.834947	16851.252500	1558.883789	987.730164
19350.834947	16851.252500	1557.834961	870.631287
19350.834947	16851.252500	1556.787109	1227.927246
19350.834947	16851.252500	1555.739258	778.144531
19350.834947	16851.252500	1554.690430	939.458130
19350.834947	16851.252500	1553.641602	1100.786011
19350.834947	16851.252500	1552.592773	1009.234070
19350.834947	16851.252500	1551.542969	931.464050
19350.834947	16851.252500	1550.494141	689.827881
19350.834947	16851.252500	1549.444336	830.908386
19350.834947	16851.252500	1548.394531	785.333862
19350.834947	16851.252500	1547.344727	844.561829
19350.834947	16851.252500	1546.293945	853.787598
19350.834947	16851.252500	1545.244141	667.420898
19350.834947	16851.252500	1544.193359	665.469055
19350.834947	16851.252500	1543.142578	761.397949
19350.834947	16851.252500	1542.090820	705.026123
19350.834947	16851.252500	1541.040039	735.151367
19350.834947	16851.252500	1539.988281	440.314941
19350.834947	16851.252500	1538.936523	727.449036
19350.834947	16851.252500	1537.884766	835.061890
19350.834947	16851.252500	1536.833008	483.851227
19350.834947	16851.252500	1535.780273	709.749390
19350.834947	16851.252500	1534.727539	522.371948
19350.834947	16851.252500	1533.674805	578.076599
19350.834947	16851.252500	1532.622070	384.168610
19350.834947	16851.252500	1531.569336	451.406097
19350.834947	16851.252500	1530.515625	319.042114
19350.834947	16851.252500	1529.461914	515.754272
19350.834947	16851.252500	1528.408203	444.849579
19350.834947	16851.252500	1527.354492	501.049133
19350.834947	16851.252500	1526.299805	348.744965
19350.834947	16851.252500	1525.246094	396.058441
19350.834947	16851.252500	1524.191406	293.876923
19350.834947	16851.252500	1523.136719	475.057129
19350.834947	16851.252500	1522.081055	545.257019
19350.834947	16851.252500	1521.026367	629.110962
19350.834947	16851.252500	1519.970703	153.706177
19350.834947	16851.252500	1518.915039	106.484924
19350.834947	16851.252500	1517.859375	111.437790
19350.834947	16851.252500	1516.802734	-114.349113
19350.834947	16851.252500	1515.747070	316.220581
19350.834947	16851.252500	1514.690430	-36.009270
19350.834947	16851.252500	1513.633789	238.510620
19350.834947	16851.252500	1512.577148	49.444595
19350.834947	16851.252500	1511.519531	104.730766
19350.834947	16851.252500	1510.461914	243.728638
19350.834947	16851.252500	1509.405273	-42.110863
19350.834947	16851.252500	1508.346680	67.688683
19350.834947	16851.252500	1507.289063	238.536148
19350.834947	16851.252500	1506.231445	29.961596
19350.834947	16851.252500	1505.172852	171.595062
19350.834947	16851.252500	1504.114258	60.404823
19350.834947	16851.252500	1503.055664	46.422382
19350.834947	16851.252500	1501.996094	-179.593079
19350.834947	16851.252500	1500.937500	-103.065422
19350.834947	16851.252500	1499.877930	282.605621
19350.834947	16851.252500	1498.818359	-109.926620
19350.834947	16851.252500	1497.757813	-85.010002
19350.834947	16851.252500	1496.698242	-123.133636
19350.834947	16851.252500	1495.637695	-95.764885
19350.834947	16851.252500	1494.577148	-93.096504
19350.834947	16851.252500	1493.516602	-157.923233
19350.834947	16851.252500	1492.456055	-107.727356
19350.834947	16851.252500	1491.394531	185.815674
19350.834947	16851.252500	1490.333008	-88.141602
19350.834947	16851.252500	1489.271484	189.727112
19350.834947	16851.252500	1488.209961	51.146591
19350.834947	16851.252500	1487.148438	-224.558838
19350.834947	16851.252500	1486.085938	-45.517315
19350.834947	16851.252500	1485.023438	113.311844
19350.834947	16851.252500	1483.960938	63.002983
19350.834947	16851.252500	1482.898438	64.540573
19350.834947	16851.252500	1481.834961	162.863220
19350.834947	16851.252500	1480.772461	-309.698883
19350.834947	16851.252500	1479.708984	-190.911087
19350.834947	16851.252500	1478.644531	213.307007
19350.834947	16851.252500	1477.581055	-87.933716
19350.834947	16851.252500	1476.517578	-36.227711
19350.834947	16851.252500	1475.453125	28.885654
19350.834947	16851.252500	1474.388672	47.035889
19350.834947	16851.252500	1473.323242	-230.964630
19350.834947	16851.252500	1472.258789	265.206818
19350.834947	16851.252500	1471.193359	460.745361
19350.834947	16851.252500	1470.127930	443.508575
19350.834947	16851.252500	1469.062500	315.984772
19350.834947	16851.252500	1467.997070	505.031403
19350.834947	16851.252500	1466.930664	479.461304
19350.834947	16851.252500	1465.865234	419.623444
19350.834947	16851.252500	1464.798828	617.766724
19350.834947	16851.252500	1463.731445	316.592560
19350.834947	16851.252500	1462.665039	557.386780
19350.834947	16851.252500	1461.597656	386.334442
19350.834947	16851.252500	1460.530273	365.819489
19350.834947	16851.252500	1459.462891	398.402496
19350.834947	16851.252500	1458.395508	301.806061
19350.834947	16851.252500	1457.327148	515.648499
19350.834947	16851.252500	1456.259766	622.417664
19350.834947	16851.252500	1455.191406	563.912842
19350.834947	16851.252500	1454.123047	493.853485
19350.834947	16851.252500	1453.053711	206.686401
19350.834947	16851.252500	1451.985352	454.607544
19350.834947	16851.252500	1450.916016	439.495178
19350.834947	16851.252500	1449.846680	492.482330
19350.834947	16851.252500	1448.776367	210.139267
19350.834947	16851.252500	1447.707031	169.991150
19350.834947	16851.252500	1446.636719	333.751038
19350.834947	16851.252500	1445.566406	347.030029
19350.834947	16851.252500	1444.496094	448.519348
19350.834947	16851.252500	1443.425781	323.812592
19350.834947	16851.252500	1442.354492	266.566559
19350.834947	16851.252500	1441.283203	522.411438
19350.834947	16851.252500	1440.211914	486.530609
19350.834947	16851.252500	1439.140625	471.060638
19350.834947	16851.252500	1438.069336	212.216187
19350.834947	16851.252500	1436.997070	256.595825
19350.834947	16851.252500	1435.924805	408.884003
19350.834947	16851.252500	1434.852539	-12.249645
19350.834947	16851.252500	1433.780273	483.997437
19350.834947	16851.252500	1432.707031	-26.787519
19350.834947	16851.252500	1431.633789	453.679077
19350.834947	16851.252500	1430.560547	-64.810066
19350.834947	16851.252500	1429.487305	-63.309864
19350.834947	16851.252500	1428.413086	79.046555
19350.834947	16851.252500	1427.339844	63.417343
19350.834947	16851.252500	1426.265625	235.940887
19350.834947	16851.252500	1425.191406	75.009537
19350.834947	16851.252500	1424.116211	-114.679398
19350.834947	16851.252500	1423.041992	0.080292
19350.834947	16851.252500	1421.966797	106.138634
19350.834947	16851.252500	1420.891602	-64.504982
19350.834947	16851.252500	1419.816406	-38.716099
19350.834947	16851.252500	1418.740234	151.546753
19350.834947	16851.252500	1417.665039	80.301338
19350.834947	16851.252500	1416.588867	-163.837753
19350.834947	16851.252500	1415.512695	140.841248
19350.834947	16851.252500	1414.435547	484.184845
19350.834947	16851.252500	1413.359375	319.786255
19350.834947	16851.252500	1412.282227	324.807556
19350.834947	16851.252500	1411.205078	40.473904
19350.834947	16851.252500	1410.127930	108.431358
19350.834947	16851.252500	1409.049805	107.716301
19350.834947	16851.252500	1407.972656	99.493256
19350.834947	16851.252500	1406.894531	136.614685
19350.834947	16851.252500	1405.816406	358.982910
19350.834947	16851.252500	1404.737305	295.622894
19350.834947	16851.252500	1403.659180	364.329346
19350.834947	16851.252500	1402.580078	104.416267
19350.834947	16851.252500	1401.500977	533.240723
19350.834947	16851.252500	1400.421875	447.532776
19350.834947	16851.252500	1399.341797	419.198608
19350.834947	16851.252500	1398.262695	476.891388
19350.834947	16851.252500	1397.182617	660.908447
19350.834947	16851.252500	1396.102539	432.037994
19350.834947	16851.252500	1395.021484	369.346680
19350.834947	16851.252500	1393.941406	410.055359
19350.834947	16851.252500	1392.860352	634.713928
19350.834947	16851.252500	1391.779297	233.953995
19350.834947	16851.252500	1390.698242	287.505554
19350.834947	16851.252500	1389.616211	401.834106
19350.834947	16851.252500	1388.535156	127.130333
19350.834947	16851.252500	1387.453125	478.222260
19350.834947	16851.252500	1386.371094	391.662933
19350.834947	16851.252500	1385.288086	360.273621
19350.834947	16851.252500	1384.206055	639.484558
19350.834947	16851.252500	1383.123047	621.374390
19350.834947	16851.252500	1382.040039	534.763489
19350.834947	16851.252500	1380.957031	479.891418
19350.834947	16851.252500	1379.873047	332.767395
19350.834947	16851.252500	1378.789063	370.625519
19350.834947	16851.252500	1377.705078	747.885132
19350.834947	16851.252500	1376.621094	656.510498
19350.834947	16851.252500	1375.537109	519.665222
19350.834947	16851.252500	1374.452148	767.386047
19350.834947	16851.252500	1373.367188	448.750397
19350.834947	16851.252500	1372.282227	455.974579
19350.834947	16851.252500	1371.197266	663.686829
19350.834947	16851.252500	1370.112305	572.826111
19350.834947	16851.252500	1369.026367	655.468567
19350.834947	16851.252500	1367.940430	407.499908
19350.834947	16851.252500	1366.854492	805.536682
19350.834947	16851.252500	1365.767578	547.534180
19350.834947	16851.252500	1364.681641	495.322266
19350.834947	16851.252500	1363.594727	714.421570
19350.834947	16851.252500	1362.507813	620.529907
19350.834947	16851.252500	1361.419922	379.835297
19350.834947	16851.252500	1360.333008	595.428589
19350.834947	16851.252500	1359.245117	661.334961
19350.834947	16851.252500	1358.157227	684.503845
19350.834947	16851.252500	1357.069336	562.333008
19350.834947	16851.252500	1355.981445	732.866760
19350.834947	16851.252500	1354.892578	688.510193
19350.834947	16851.252500	1353.803711	760.632507
19350.834947	16851.252500	1352.714844	979.730957
19350.834947	16851.252500	1351.625000	783.478516
19350.834947	16851.252500	1350.536133	898.920044
19350.834947	16851.252500	1349.446289	971.079712
19350.834947	16851.252500	1348.356445	824.451355
19350.834947	16851.252500	1347.266602	1080.833130
19350.834947	16851.252500	1346.175781	1061.999634
19350.834947	16851.252500	1345.085938	824.264771
19350.834947	16851.252500	1343.995117	1191.348633
19350.834947	16851.252500	1342.903320	1150.168823
19350.834947	16851.252500	1341.812500	1163.311890
19350.834947	16851.252500	1340.720703	1229.484863
19350.834947	16851.252500	1339.629883	1069.578857
19350.834947	16851.252500	1338.538086	1100.133057
19350.834947	16851.252500	1337.445313	1160.541504
19350.834947	16851.252500	1336.353516	1129.355103
19350.834947	16851.252500	1335.260742	1102.279419
19350.834947	16851.252500	1334.167969	1065.780029
19350.834947	16851.252500	1333.075195	998.643188
19350.834947	16851.252500	1331.981445	840.810486
19350.834947	16851.252500	1330.888672	988.480713
19350.834947	16851.252500	1329.794922	1067.039673
19350.834947	16851.252500	1328.701172	1114.673340
19350.834947	16851.252500	1327.606445	952.053711
19350.834947	16851.252500	1326.512695	1135.225098
19350.834947	16851.252500	1325.417969	1072.858643
19350.834947	16851.252500	1324.323242	1261.724121
19350.834947	16851.252500	1323.227539	1174.958740
19350.834947	16851.252500	1322.132813	1397.586670
19350.834947	16851.252500	1321.037109	1084.365479
19350.834947	16851.252500	1319.941406	1295.162354
19350.834947	16851.252500	1318.845703	1141.507813
19350.834947	16851.252500	1317.750000	1318.481201
19350.834947	16851.252500	1316.653320	1074.397461
19350.834947	16851.252500	1315.556641	1223.815308
19350.834947	16851.252500	1314.459961	1097.585327
19350.834947	16851.252500	1313.363281	672.243896
19350.834947	16851.252500	1312.265625	725.971619
19350.834947	16851.252500	1311.167969	845.854004
19350.834947	16851.252500	1310.070313	870.581665
19350.834947	16851.252500	1308.972656	867.034729
19350.834947	16851.252500	1307.874023	620.313782
19350.834947	16851.252500	1306.776367	696.764160
19350.834947	16851.252500	1305.677734	888.455017
19350.834947	16851.252500	1304.579102	539.864319
19350.834947	16851.252500	1303.479492	428.754944
19350.834947	16851.252500	1302.380859	496.739380
19350.834947	16851.252500	1301.281250	530.381348
19350.834947	16851.252500	1300.181641	582.982788
19350.834947	16851.252500	1299.081055	357.134796
19350.834947	16851.252500	1297.981445	400.100067
19350.834947	16851.252500	1296.880859	665.315613
19350.834947	16851.252500	1295.780273	423.934784
19350.834947	16851.252500	1294.679688	572.823975
19350.834947	16851.252500	1293.578125	418.771667
19350.834947	16851.252500	1292.476563	260.329681
19350.834947	16851.252500	1291.375000	402.329163
19350.834947	16851.252500	1290.273438	262.708832
19350.834947	16851.252500	1289.171875	386.876007
19350.834947	16851.252500	1288.069336	185.455383
19350.834947	16851.252500	1286.966797	-70.226112
19350.834947	16851.252500	1285.864258	100.350235
19350.834947	16851.252500	1284.761719	45.404339
19350.834947	16851.252500	1283.658203	452.498413
19350.834947	16851.252500	1282.554688	138.494446
19350.834947	16851.252500	1281.451172	40.167053
19350.834947	16851.252500	1280.347656	-67.484589
19350.834947	16851.252500	1279.244141	192.267227
19350.834947	16851.252500	1278.139648	187.426239
19350.834947	16851.252500	1277.035156	47.037937
19350.834947	16851.252500	1275.930664	262.392517
19350.834947	16851.252500	1274.825195	195.685181
19350.834947	16851.252500	1273.720703	77.821976
19350.834947	16851.252500	1272.615234	-46.259022
19350.834947	16851.252500	1271.508789	-30.939434
19350.834947	16851.252500	1270.403320	79.155472
19350.834947	16851.252500	1269.297852	174.781448
19350.834947	16851.252500	1268.191406	117.827148
19350.834947	16851.252500	1267.084961	78.705078
19350.834947	16851.252500	1265.977539	54.120300
19350.834947	16851.252500	1264.871094	127.478683
19350.834947	16851.252500	1263.763672	-53.396748
19350.834947	16851.252500	1262.656250	68.535408
19350.834947	16851.252500	1261.548828	-92.104553
19350.834947	16851.252500	1260.440430	9.904096
19350.834947	16851.252500	1259.333008	-83.075836
19350.834947	16851.252500	1258.224609	-45.508335
19350.834947	16851.252500	1257.115234	36.881222
19350.834947	16851.252500	1256.006836	3.699739
19350.834947	16851.252500	1254.897461	-50.044071
19350.834947	16851.252500	1253.788086	295.001678
19350.834947	16851.252500	1252.678711	-154.814194
19350.834947	16851.252500	1251.569336	-50.445580
19350.834947	16851.252500	1250.458984	80.132980
19350.834947	16851.252500	1249.349609	154.444382
19350.834947	16851.252500	1248.239258	24.688772
19350.834947	16851.252500	1247.127930	-123.718590
19350.834947	16851.252500	1246.017578	-59.403248
19350.834947	16851.252500	1244.906250	-176.096680
19350.834947	16851.252500	1243.794922	46.668224
19350.834947	16851.252500	1242.683594	-263.035065
19350.834947	16851.252500	1241.571289	58.703667
19350.834947	16851.252500	1240.459961	-19.311384
19350.834947	16851.252500	1239.347656	159.592590
19350.834947	16851.252500	1238.234375	39.412846
19350.834947	16851.252500	1237.122070	-205.214355
19350.834947	16851.252500	1236.008789	14.848596
19350.834947	16851.252500	1234.896484	-109.830376
19350.834947	16851.252500	1233.782227	73.180107
19350.834947	16851.252500	1232.668945	96.890533
19350.834947	16851.252500	1231.555664	-25.556456
19350.834947	16851.252500	1230.441406	-29.059254
19350.834947	16851.252500	1229.327148	-164.263931
19350.834947	16851.252500	1228.211914	100.956497
19350.834947	16851.252500	1227.097656	-185.199066
19350.834947	16851.252500	1225.982422	-18.462250
19350.834947	16851.252500	1224.867188	91.753342
19350.834947	16851.252500	1223.751953	-244.824493
19350.834947	16851.252500	1222.635742	-67.217285
19350.834947	16851.252500	1221.520508	230.840469
19350.834947	16851.252500	1220.404297	77.517365
19350.834947	16851.252500	1219.287109	-140.658051
19350.834947	16851.252500	1218.170898	60.062225
19350.834947	16851.252500	1217.053711	-178.465790
19350.834947	16851.252500	1215.936523	-59.862549
19350.834947	16851.252500	1214.819336	-2.081886
19350.834947	16851.252500	1213.702148	24.285667
19350.834947	16851.252500	1212.583984	-47.556931
19350.834947	16851.252500	1211.465820	90.225021
19350.834947	16851.252500	1210.347656	159.861313
19350.834947	16851.252500	1209.229492	85.892273
19350.834947	16851.252500	1208.110352	239.630188
19350.834947	16851.252500	1206.992188	-26.662844
19350.834947	16851.252500	1205.873047	86.257507
19350.834947	16851.252500	1204.752930	104.796761
19350.834947	16851.252500	1203.633789	46.527744
19350.834947	16851.252500	1202.513672	114.100883
19350.834947	16851.252500	1201.393555	106.300331
19350.834947	16851.252500	1200.273438	51.256313
19350.834947	16851.252500	1199.152344	132.501617
19350.834947	16851.252500	1198.032227	235.058578
19350.834947	16851.252500	1196.911133	104.323471
19350.834947	16851.252500	1195.790039	-93.704552
19350.834947	16851.252500	1194.667969	44.077526
19350.834947	16851.252500	1193.545898	-95.501007
19350.834947	16851.252500	1192.424805	97.719353
19350.834947	16851.252500	1191.301758	107.742050
19350.834947	16851.252500	1190.179688	213.232361
19350.834947	16851.252500	1189.056641	-22.044687
19350.834947	16851.252500	1187.933594	-96.480316
19350.834947	16851.252500	1186.810547	114.008865
19350.834947	16851.252500	1185.687500	93.121506
19350.834947	16851.252500	1184.563477	-169.076736
19350.834947	16851.252500	1183.440430	183.384583
19350.834947	16851.252500	1182.316406	130.865845
19350.834947	16851.252500	1181.191406	261.782410
19350.834947	16851.252500	1180.067383	245.477982
19350.834947	16851.252500	1178.942383	248.931900
19350.834947	16851.252500	1177.817383	119.450546
19350.834947	16851.252500	1176.692383	86.781433
19350.834947	16851.252500	1175.566406	133.140335
19350.834947	16851.252500	1174.440430	162.175583
19350.834947	16851.252500	1173.314453	171.263596
19350.834947	16851.252500	1172.188477	220.974182
19350.834947	16851.252500	1171.062500	-88.226387
19350.834947	16851.252500	1169.935547	24.025965
19350.834947	16851.252500	1168.808594	-166.958130
19350.834947	16851.252500	1167.681641	79.734901
19350.834947	16851.252500	1166.553711	15.217052
19350.834947	16851.252500	1165.426758	155.835098
19350.834947	16851.252500	1164.298828	224.805679
19350.834947	16851.252500	1163.170898	13.453353
19350.834947	16851.252500	1162.041992	-251.369812
19350.834947	16851.252500	1160.914063	-93.285423
19350.834947	16851.252500	1159.785156	-9.053723
19350.834947	16851.252500	1158.656250	127.107063
19350.834947	16851.252500	1157.526367	-107.263641
19350.834947	16851.252500	1156.397461	-253.121048
19350.834947	16851.252500	1155.267578	-105.592934
19350.834947	16851.252500	1154.137695	-106.221527
19350.834947	16851.252500	1153.006836	277.401581
19350.834947	16851.252500	1151.876953	-297.938232
19350.834947	16851.252500	1150.746094	-70.497932
19350.834947	16851.252500	1149.615234	-143.600845
19350.834947	16851.252500	1148.484375	-387.311798
19350.834947	16851.252500	1147.352539	-139.126907
19350.834947	16851.252500	1146.220703	-98.797005
19350.834947	16851.252500	1145.088867	-222.619354
19350.834947	16851.252500	1143.957031	-57.010323
19350.834947	16851.252500	1142.825195	-82.347244
19350.834947	16851.252500	1141.692383	-142.561951
19350.834947	16851.252500	1140.559570	-115.049591
19350.834947	16851.252500	1139.426758	147.437561
19350.834947	16851.252500	1138.292969	-286.395752
19350.834947	16851.252500	1137.159180	16.489088
19350.834947	16851.252500	1136.025391	-2.724632
19350.834947	16851.252500	1134.891602	-118.785278
19350.834947	16851.252500	1133.757813	119.931831
19350.834947	16851.252500	1132.623047	90.533562
19350.834947	16851.252500	1131.488281	-79.947029
19350.834947	16851.252500	1130.353516	283.390167
19350.834947	16851.252500	1129.217773	-116.609856
19350.834947	16851.252500	1128.083008	154.537796
19350.834947	16851.252500	1126.947266	237.052643
19350.834947	16851.252500	1125.811523	324.893829
19350.834947	16851.252500	1124.674805	31.330006
19350.834947	16851.252500	1123.539063	115.143387
19350.834947	16851.252500	1122.402344	90.039413
19350.834947	16851.252500	1121.265625	179.260696
19350.834947	16851.252500	1120.127930	-44.877472
19350.834947	16851.252500	1118.990234	-324.556183
19350.834947	16851.252500	1117.853516	83.028008
19350.834947	16851.252500	1116.714844	254.721634
19350.834947	16851.252500	1115.577148	215.273453
19350.834947	16851.252500	1114.439453	27.942093
19350.834947	16851.252500	1113.300781	277.968323
19350.834947	16851.252500	1112.162109	-65.328552
19350.834947	16851.252500	1111.022461	427.333130
19350.834947	16851.252500	1109.883789	63.307335
19350.834947	16851.252500	1108.744141	175.905685
19350.834947	16851.252500	1107.604492	412.797272
19350.834947	16851.252500	1106.463867	484.681641
19350.834947	16851.252500	1105.324219	161.655319
19350.834947	16851.252500	1104.183594	203.412354
19350.834947	16851.252500	1103.042969	255.815460
19350.834947	16851.252500	1101.902344	425.639923
19350.834947	16851.252500	1100.760742	606.040039
19350.834947	16851.252500	1099.619141	363.841553
19350.834947	16851.252500	1098.477539	259.579620
19350.834947	16851.252500	1097.335938	555.953247
19350.834947	16851.252500	1096.193359	549.138123
19350.834947	16851.252500	1095.051758	513.493591
19350.834947	16851.252500	1093.909180	-12.724747
19350.834947	16851.252500	1092.765625	220.504257
19350.834947	16851.252500	1091.623047	616.776794
19350.834947	16851.252500	1090.479492	375.310852
19350.834947	16851.252500	1089.335938	534.774658
19350.834947	16851.252500	1088.192383	504.633057
19350.834947	16851.252500	1087.047852	585.283813
19350.834947	16851.252500	1085.903320	546.994934
19350.834947	16851.252500	1084.758789	599.035950
19350.834947	16851.252500	1083.614258	441.381348
19350.834947	16851.252500	1082.469727	399.949158
19350.834947	16851.252500	1081.324219	581.685730
19350.834947	16851.252500	1080.178711	366.556702
19350.834947	16851.252500	1079.033203	537.249451
19350.834947	16851.252500	1077.886719	550.737671
19350.834947	16851.252500	1076.740234	477.776154
19350.834947	16851.252500	1075.593750	635.159851
19350.834947	16851.252500	1074.447266	451.056671
19350.834947	16851.252500	1073.300781	366.068268
19350.834947	16851.252500	1072.153320	539.369141
19350.834947	16851.252500	1071.005859	751.942932
19350.834947	16851.252500	1069.858398	228.973312
19350.834947	16851.252500	1068.709961	607.824036
19350.834947	16851.252500	1067.561523	748.191833
19350.834947	16851.252500	1066.413086	273.922485
19350.834947	16851.252500	1065.264648	326.721161
19350.834947	16851.252500	1064.116211	640.980469
19350.834947	16851.252500	1062.966797	565.808105
19350.834947	16851.252500	1061.817383	304.881622
19350.834947	16851.252500	1060.667969	242.464752
19350.834947	16851.252500	1059.517578	488.983337
19350.834947	16851.252500	1058.368164	420.138641
19350.834947	16851.252500	1057.217773	495.147491
19350.834947	16851.252500	1056.067383	244.377197
19350.834947	16851.252500	1054.916016	355.038544
19350.834947	16851.252500	1053.764648	207.594696
19350.834947	16851.252500	1052.613281	375.448120
19350.834947	16851.252500	1051.461914	389.759094
19350.834947	16851.252500	1050.310547	362.029694
19350.834947	16851.252500	1049.158203	398.232208
19350.834947	16851.252500	1048.005859	477.375031
19350.834947	16851.252500	1046.853516	545.639893
19350.834947	16851.252500	1045.700195	370.776337
19350.834947	16851.252500	1044.547852	542.899048
19350.834947	16851.252500	1043.394531	605.682617
19350.834947	16851.252500	1042.240234	863.914063
19350.834947	16851.252500	1041.086914	445.732025
19350.834947	16851.252500	1039.932617	641.496216
19350.834947	16851.252500	1038.778320	618.492798
19350.834947	16851.252500	1037.624023	763.665344
19350.834947	16851.252500	1036.469727	1068.967163
19350.834947	16851.252500	1035.314453	1193.641479
19350.834947	16851.252500	1034.159180	1402.478516
19350.834947	16851.252500	1033.003906	1568.304810
19350.834947	16851.252500	1031.847656	1980.247925
19350.834947	16851.252500	1030.692383	2246.943604
19350.834947	16851.252500	1029.536133	1928.752686
19350.834947	16851.252500	1028.378906	1626.475952
19350.834947	16851.252500	1027.222656	1388.413452
19350.834947	16851.252500	1026.065430	935.533081
19350.834947	16851.252500	1024.908203	591.641296
19350.834947	16851.252500	1023.750977	659.761719
19350.834947	16851.252500	1022.593750	558.080139
19350.834947	16851.252500	1021.435547	399.216064
19350.834947	16851.252500	1020.277344	713.657837
19350.834947	16851.252500	1019.119141	496.817841
19350.834947	16851.252500	1017.959961	607.325073
19350.834947	16851.252500	1016.800781	502.605682
19350.834947	16851.252500	1015.641602	567.741821
19350.834947	16851.252500	1014.482422	403.304199
19350.834947	16851.252500	1013.323242	480.544952
19350.834947	16851.252500	1012.163086	531.157410
19350.834947	16851.252500	1011.002930	305.821808
19350.834947	16851.252500	1009.842773	376.083252
19350.834947	16851.252500	1008.681641	373.043182
19350.834947	16851.252500	1007.520508	408.753052
19350.834947	16851.252500	1006.359375	547.574402
19350.834947	16851.252500	1005.198242	280.911926
19350.834947	16851.252500	1004.037109	748.902588
19350.834947	16851.252500	1002.875000	722.264648
19350.834947	16851.252500	1001.712891	879.081177
19350.834947	16851.252500	1000.550781	400.914856
19350.834947	16851.252500	999.387695	152.021088
19350.834947	16851.252500	998.224609	571.205566
19350.834947	16851.252500	997.061523	277.476471
19350.834947	16851.252500	995.898438	345.043060
19350.834947	16851.252500	994.734375	231.504211
19350.834947	16851.252500	993.571289	311.510742
19350.834947	16851.252500	992.407227	216.763931
19350.834947	16851.252500	991.242188	39.902618
19350.834947	16851.252500	990.078125	239.261536
19350.834947	16851.252500	988.913086	119.108063
19350.834947	16851.252500	987.748047	435.725006
19350.834947	16851.252500	986.583008	131.841171
19350.834947	16851.252500	985.416992	146.486710
19350.834947	16851.252500	984.250977	15.753161
19350.834947	16851.252500	983.084961	418.865448
19350.834947	16851.252500	981.918945	211.657913
19350.834947	16851.252500	980.751953	10.847980
19350.834947	16851.252500	979.584961	64.158241
19350.834947	16851.252500	978.417969	111.614418
19350.834947	16851.252500	977.250977	21.160219
19350.834947	16851.252500	976.083008	52.721889
19350.834947	16851.252500	974.915039	162.549545
19350.834947	16851.252500	973.747070	156.139618
19350.834947	16851.252500	972.579102	126.931908
19350.834947	16851.252500	971.410156	278.995056
19350.834947	16851.252500	970.242188	368.429077
19350.834947	16851.252500	969.072266	329.607117
19350.834947	16851.252500	967.903320	-35.837475
19350.834947	16851.252500	966.733398	336.316101
19350.834947	16851.252500	965.563477	444.517517
19350.834947	16851.252500	964.393555	228.550308
19350.834947	16851.252500	963.223633	77.268349
19350.834947	16851.252500	962.052734	214.562225
19350.834947	16851.252500	960.881836	182.235306
19350.834947	16851.252500	959.710938	431.561371
19350.834947	16851.252500	958.540039	298.513397
19350.834947	16851.252500	957.368164	214.483810
19350.834947	16851.252500	956.196289	116.412834
19350.834947	16851.252500	955.024414	497.244171
19350.834947	16851.252500	953.851563	365.284149
19350.834947	16851.252500	952.679688	262.296051
19350.834947	16851.252500	951.506836	346.339478
19350.834947	16851.252500	950.333984	237.634155
19350.834947	16851.252500	949.160156	269.804596
19350.834947	16851.252500	947.986328	-77.134438
19350.834947	16851.252500	946.812500	-11.415069
19350.834947	16851.252500	945.638672	103.507973
19350.834947	16851.252500	944.464844	-147.599365
19350.834947	16851.252500	943.290039	139.652893
19350.834947	16851.252500	942.115234	130.820679
19350.834947	16851.252500	940.940430	-5.835918
19350.834947	16851.252500	939.764648	8.197957
19350.834947	16851.252500	938.588867	-108.029480
19350.834947	16851.252500	937.413086	135.112961
19350.834947	16851.252500	936.237305	-60.245510
19350.834947	16851.252500	935.060547	-260.189789
19350.834947	16851.252500	933.883789	153.373428
19350.834947	16851.252500	932.707031	138.934662
19350.834947	16851.252500	931.530273	106.857491
19350.834947	16851.252500	930.352539	-6.925516
19350.834947	16851.252500	929.175781	-3.565674
19350.834947	16851.252500	927.998047	53.293945
19350.834947	16851.252500	926.819336	-17.192165
19350.834947	16851.252500	925.641602	281.219421
19350.834947	16851.252500	924.462891	131.844406
19350.834947	16851.252500	923.284180	330.903290
19350.834947	16851.252500	922.104492	79.763931
19350.834947	16851.252500	920.924805	-184.019150
19350.834947	16851.252500	919.746094	-174.207657
19350.834947	16851.252500	919.551758	258.010193
19350.834947	16851.252500	918.386719	-173.635986
19350.834947	16851.252500	917.220703	17.404291
19350.834947	16851.252500	916.054688	-71.115089
19350.834947	16851.252500	914.887695	28.329752
19350.834947	16851.252500	913.721680	-6.896081
19350.834947	16851.252500	912.554688	150.823227
19350.834947	16851.252500	911.387695	417.595184
19350.834947	16851.252500	910.220703	24.382904
19350.834947	16851.252500	909.052734	270.715973
19350.834947	16851.252500	907.885742	57.743015
19350.834947	16851.252500	906.717773	146.653717
19350.834947	16851.252500	905.548828	60.532215
19350.834947	16851.252500	904.380859	42.861259
19350.834947	16851.252500	903.211914	35.312809
19350.834947	16851.252500	902.042969	151.912537
19350.834947	16851.252500	900.874023	230.430191
19350.834947	16851.252500	899.704102	291.158783
19350.834947	16851.252500	898.535156	212.524628
19350.834947	16851.252500	897.365234	209.867401
19350.834947	16851.252500	896.194336	267.946991
19350.834947	16851.252500	895.024414	-111.925369
19350.834947	16851.252500	893.853516	110.628891
19350.834947	16851.252500	892.682617	345.711792
19350.834947	16851.252500	891.511719	203.759048
19350.834947	16851.252500	890.340820	165.524780
19350.834947	16851.252500	889.168945	61.543873
19350.834947	16851.252500	887.997070	-14.616702
19350.834947	16851.252500	886.825195	-153.962631
19350.834947	16851.252500	885.653320	55.447647
19350.834947	16851.252500	884.480469	34.840336
19350.834947	16851.252500	883.307617	47.050056
19350.834947	16851.252500	882.134766	-140.286316
19350.834947	16851.252500	880.961914	-155.877625
19350.834947	16851.252500	879.788086	-166.435287
19350.834947	16851.252500	878.614258	-131.585526
19350.834947	16851.252500	877.440430	72.290916
19350.834947	16851.252500	876.266602	43.950043
19350.834947	16851.252500	875.091797	-19.714230
19350.834947	16851.252500	873.916992	-116.163986
19350.834947	16851.252500	872.742188	-73.926445
19350.834947	16851.252500	871.567383	86.744591
19350.834947	16851.252500	870.391602	-216.409424
19350.834947	16851.252500	869.215820	-199.452042
19350.834947	16851.252500	868.040039	92.073860
19350.834947	16851.252500	866.864258	-64.888275
19350.834947	16851.252500	865.687500	12.391184
19350.834947	16851.252500	864.510742	127.378044
19350.834947	16851.252500	863.333984	53.500118
19350.834947	16851.252500	862.157227	-95.877289
19350.834947	16851.252500	860.979492	-252.761002
19350.834947	16851.252500	859.802734	-190.750488
19350.834947	16851.252500	858.625000	97.578011
19350.834947	16851.252500	857.446289	-134.761856
19350.834947	16851.252500	856.268555	-22.605757
19350.834947	16851.252500	855.089844	-63.844543
19350.834947	16851.252500	853.911133	-100.068886
19350.834947	16851.252500	852.731445	69.733734
19350.834947	16851.252500	851.552734	30.932890
19350.834947	16851.252500	850.373047	-22.942564
19350.834947	16851.252500	849.193359	-184.795715
19350.834947	16851.252500	848.013672	-173.384369
19350.834947	16851.252500	846.833008	16.212051
19350.834947	16851.252500	845.652344	-75.358719
19350.834947	16851.252500	844.471680	-41.469727
19350.834947	16851.252500	843.291016	67.630966
19350.834947	16851.252500	842.110352	-46.544930
19350.834947	16851.252500	840.928711	220.432755
19350.834947	16851.252500	839.747070	-19.122099
19350.834947	16851.252500	838.564453	-138.291107
19350.834947	16851.252500	837.382813	-194.797913
19350.834947	16851.252500	836.200195	-75.928757
19350.834947	16851.252500	835.017578	-385.461517
19350.834947	16851.252500	833.834961	-116.396210
19350.834947	16851.252500	832.651367	170.064301
19350.834947	16851.252500	831.467773	-36.769894
19350.834947	16851.252500	830.284180	141.880432
19350.834947	16851.252500	829.100586	-149.994553
19350.834947	16851.252500	827.916992	16.042572
19350.834947	16851.252500	826.732422	141.968506
19350.834947	16851.252500	825.547852	-54.777657
19350.834947	16851.252500	824.363281	-271.471405
19350.834947	16851.252500	823.177734	56.832634
19350.834947	16851.252500	821.992188	-17.393194
19350.834947	16851.252500	820.806641	-16.656815
19350.834947	16851.252500	819.621094	143.930328
19350.834947	16851.252500	818.434570	154.573273
19350.834947	16851.252500	817.249023	157.683838
19350.834947	16851.252500	816.062500	108.340118
19350.834947	16851.252500	814.875000	98.932541
19350.834947	16851.252500	813.688477	-7.833950
19350.834947	16851.252500	812.500977	97.499428
19350.834947	16851.252500	811.313477	160.352463
19350.834947	16851.252500	810.125977	21.133217
19350.834947	16851.252500	808.937500	6.624585
19350.834947	16851.252500	807.749023	-107.630531
19350.834947	16851.252500	806.560547	142.033722
19350.834947	16851.252500	805.372070	-101.843765
19350.834947	16851.252500	804.182617	38.035419
19350.834947	16851.252500	802.994141	147.929382
19350.834947	16851.252500	801.803711	118.294136
19350.834947	16851.252500	800.614258	81.165489
19350.834947	16851.252500	799.424805	-349.300781
19350.834947	16851.252500	798.234375	49.176022
19350.834947	16851.252500	797.043945	-70.120796
19350.834947	16851.252500	795.852539	-149.590302
19350.834947	16851.252500	794.662109	213.676361
19350.834947	16851.252500	793.470703	76.920258
19350.834947	16851.252500	792.279297	144.061539
19350.834947	16851.252500	791.087891	223.570679
19350.834947	16851.252500	789.895508	245.859024
19350.834947	16851.252500	788.703125	278.042084
19350.834947	16851.252500	787.510742	101.502441
19350.834947	16851.252500	786.318359	173.372696
19350.834947	16851.252500	785.125000	49.013245
19350.834947	16851.252500	783.931641	170.453781
19350.834947	16851.252500	782.738281	-90.442642
19350.834947	16851.252500	781.544922	-85.730957
19350.834947	16851.252500	780.350586	266.306519
19350.834947	16851.252500	779.156250	-123.542572
19350.834947	16851.252500	777.961914	59.637524
19350.834947	16851.252500	776.767578	98.889519
19350.834947	16851.252500	775.572266	276.921234
19350.834947	16851.252500	774.376953	-3.690583
19350.834947	16851.252500	773.181641	18.096817
19350.834947	16851.252500	771.986328	314.843719
19350.834947	16851.252500	770.790039	78.876900
19350.834947	16851.252500	769.593750	214.445175
19350.834947	16851.252500	768.397461	122.126381
19350.834947	16851.252500	767.201172	32.283550
19350.834947	16851.252500	766.003906	123.114433
19350.834947	16851.252500	764.806641	-194.413315
19350.834947	16851.252500	763.609375	-138.286285
19350.834947	16851.252500	762.412109	-87.168808
19350.834947	16851.252500	761.213867	-290.818359
19350.834947	16851.252500	760.015625	-247.185089
19350.834947	16851.252500	758.817383	-62.712673
19350.834947	16851.252500	757.618164	-73.592232
19350.834947	16851.252500	756.419922	-82.041939
19350.834947	16851.252500	755.220703	139.214340
19350.834947	16851.252500	754.021484	24.441442
19350.834947	16851.252500	752.821289	-11.301937
19350.834947	16851.252500	751.621094	184.989334
19350.834947	16851.252500	750.420898	176.291534
19350.834947	16851.252500	749.220703	278.602448
19350.834947	16851.252500	748.020508	326.546814
19350.834947	16851.252500	746.819336	253.563995
19350.834947	16851.252500	745.618164	173.167114
19350.834947	16851.252500	744.416992	420.695740
19350.834947	16851.252500	743.214844	268.722015
19350.834947	16851.252500	742.012695	47.757149
19350.834947	16851.252500	740.810547	179.211075
19350.834947	16851.252500	739.608398	500.263184
19350.834947	16851.252500	738.406250	313.733551
19350.834947	16851.252500	737.203125	937.436279
19350.834947	16851.252500	736.000000	1314.623047
19350.834947	16851.252500	734.795898	1452.834473
19350.834947	16851.252500	733.592773	1765.674072
19350.834947	16851.252500	732.388672	1945.469360
19350.834947	16851.252500	731.184570	1940.638306
19350.834947	16851.252500	729.979492	1925.924438
19350.834947	16851.252500	728.775391	1561.988159
19350.834947	16851.252500	727.570313	1126.861816
19350.834947	16851.252500	726.365234	1139.219360
19350.834947	16851.252500	725.160156	922.980408
19350.834947	16851.252500	723.954102	485.657959
19350.834947	16851.252500	722.748047	365.349823
19350.834947	16851.252500	721.541992	75.583130
19350.834947	16851.252500	720.334961	318.712494
19350.834947	16851.252500	719.128906	203.274109
19350.834947	16851.252500	717.921875	78.018356
19350.834947	16851.252500	716.714844	183.426178
19350.834947	16851.252500	715.506836	229.861755
19350.834947	16851.252500	714.298828	-35.283737
19350.834947	16851.252500	713.090820	-101.733147
19350.834947	16851.252500	711.882813	-322.670258
19350.834947	16851.252500	710.674805	103.576614
19350.834947	16851.252500	709.465820	49.240654
19350.834947	16851.252500	708.256836	-24.728167
19350.834947	16851.252500	707.047852	33.568432
19350.834947	16851.252500	705.837891	-60.062271
19350.834947	16851.252500	704.627930	-192.886948
19350.834947	16851.252500	703.417969	-51.509247
19350.834947	16851.252500	702.208008	-128.089478
19350.834947	16851.252500	700.998047	216.221832
19350.834947	16851.252500	699.787109	-472.154938
19350.834947	16851.252500	698.576172	-44.851448
19350.834947	16851.252500	697.364258	-126.472771
19350.834947	16851.252500	696.153320	-14.951697
19350.834947	16851.252500	694.941406	8.464574
19350.834947	16851.252500	693.729492	-53.726498
19350.834947	16851.252500	692.516602	267.697968
19350.834947	16851.252500	691.304688	63.668873
19350.834947	16851.252500	690.091797	201.632034
19350.834947	16851.252500	688.878906	254.008957
19350.834947	16851.252500	687.665039	240.389572
19350.834947	16851.252500	686.451172	253.572433
19350.834947	16851.252500	685.237305	47.047726
19350.834947	16851.252500	684.023438	201.672867
19350.834947	16851.252500	682.809570	-70.731873
19350.834947	16851.252500	681.594727	166.667419
19350.834947	16851.252500	680.379883	596.550415
19350.834947	16851.252500	679.165039	560.549927
19350.834947	16851.252500	677.949219	58.960701
19350.834947	16851.252500	676.733398	159.444977
19350.834947	16851.252500	675.517578	155.067261
19350.834947	16851.252500	674.301758	153.069778
19350.834947	16851.252500	673.084961	328.799866
19350.834947	16851.252500	671.869141	73.430183
19350.834947	16851.252500	670.651367	110.236855
19350.834947	16851.252500	669.434570	193.211517
19350.834947	16851.252500	668.216797	144.698944
19350.834947	16851.252500	667.000000	628.934753
19350.834947	16851.252500	665.781250	251.882004
19350.834947	16851.252500	664.563477	198.357162
19350.834947	16851.252500	663.344727	344.163696
19350.834947	16851.252500	662.125977	110.655930
19350.834947	16851.252500	660.907227	-3.726530
19350.834947	16851.252500	659.688477	20.379774
19350.834947	16851.252500	658.468750	161.024887
19350.834947	16851.252500	657.249023	160.688354
19350.834947	16851.252500	656.029297	-4.817118
19350.834947	16851.252500	654.808594	358.925598
19350.834947	16851.252500	653.587891	404.503662
19350.834947	16851.252500	652.367188	30.194637
19350.834947	16851.252500	651.146484	345.016357
19350.834947	16851.252500	649.924805	247.294037
19350.834947	16851.252500	648.704102	258.688538
19350.834947	16851.252500	647.482422	59.086380
19350.834947	16851.252500	646.259766	288.579498
19350.834947	16851.252500	645.037109	287.685120
19350.834947	16851.252500	643.815430	71.082680
19350.834947	16851.252500	642.591797	317.229218
19350.834947	16851.252500	641.369141	316.172333
19350.834947	16851.252500	640.145508	-36.059387
19350.834947	16851.252500	638.921875	151.696091
19350.834947	16851.252500	637.698242	133.575851
19350.834947	16851.252500	636.474609	1.675993
19350.834947	16851.252500	635.250000	89.952255
19350.834947	16851.252500	634.025391	197.494568
19350.834947	16851.252500	632.800781	355.729126
19350.834947	16851.252500	631.575195	288.978790
19350.834947	16851.252500	630.349609	367.255524
19350.834947	16851.252500	629.124023	353.606659
19350.834947	16851.252500	627.898438	23.368603
19350.834947	16851.252500	626.671875	466.307465
19350.834947	16851.252500	625.445313	140.919754
19350.834947	16851.252500	624.218750	344.481384
19350.834947	16851.252500	622.992188	313.717499
19350.834947	16851.252500	621.764648	145.333542
19350.834947	16851.252500	620.537109	474.121155
19350.834947	16851.252500	619.309570	16.145342
19350.834947	16851.252500	618.081055	14.248209
19350.834947	16851.252500	616.852539	60.541847
19350.834947	16851.252500	615.624023	249.040512
19350.834947	16851.252500	614.395508	111.963547
19350.834947	16851.252500	613.166992	148.440460
19350.834947	16851.252500	611.937500	78.832779
19350.834947	16851.252500	610.708008	211.588760
19350.834947	16851.252500	609.477539	339.431183
19350.834947	16851.252500	608.248047	57.785480
19350.834947	16851.252500	607.017578	-182.850662
19350.834947	16851.252500	605.787109	120.603981
19350.834947	16851.252500	604.555664	-416.039978
19350.834947	16851.252500	603.325195	-11.679131
19350.834947	16851.252500	602.093750	212.047318
19350.834947	16851.252500	600.861328	-6.903000
19350.834947	16851.252500	599.629883	-235.410873
19350.834947	16851.252500	598.397461	-117.666428
19350.834947	16851.252500	597.165039	348.521179
19350.834947	16851.252500	595.932617	168.043289
19350.834947	16851.252500	594.699219	54.880302
19350.834947	16851.252500	593.465820	-17.427254
19350.834947	16851.252500	592.232422	102.386978
19350.834947	16851.252500	590.999023	-152.439926
19350.834947	16851.252500	589.764648	-143.130783
19350.834947	16851.252500	588.530273	-100.254295
19350.834947	16851.252500	587.295898	-141.405441
19350.834947	16851.252500	586.061523	-60.218239
19350.834947	16851.252500	584.826172	11.314930
19350.834947	16851.252500	583.590820	-212.159729
19350.834947	16851.252500	582.355469	130.239380
19350.834947	16851.252500	581.119141	-6.925484
19350.834947	16851.252500	579.882813	-2.664313
19350.834947	16851.252500	578.646484	-43.949009
19350.834947	16851.252500	577.410156	87.230942
19350.834947	16851.252500	576.172852	98.588112
19350.834947	16851.252500	574.935547	-105.574936
19350.834947	16851.252500	573.698242	15.896848
19350.834947	16851.252500	572.460938	12.844043
19350.834947	16851.252500	571.222656	-205.587265
19350.834947	16851.252500	569.984375	238.743439
19350.834947	16851.252500	568.746094	80.120079
19350.834947	16851.252500	567.506836	-107.149200
19350.834947	16851.252500	566.267578	18.845640
19350.834947	16851.252500	565.028320	56.329922
19350.834947	16851.252500	563.789063	2.972299
19350.834947	16851.252500	562.548828	21.301548
19350.834947	16851.252500	561.309570	37.223064
19350.834947	16851.252500	560.068359	41.181156
19350.834947	16851.252500	558.828125	-33.667580
19350.834947	16851.252500	557.586914	-106.110107
19350.834947	16851.252500	556.345703	-32.939514
19350.834947	16851.252500	555.104492	21.100641
19350.834947	16851.252500	553.863281	-17.936323
19350.834947	16851.252500	552.621094	-14.029612
19350.834947	16851.252500	551.378906	-203.296585
19350.834947	16851.252500	550.136719	284.624603
19350.834947	16851.252500	548.893555	112.045662
19350.834947	16851.252500	547.650391	22.946869
19350.834947	16851.252500	546.407227	-197.167435
19350.834947	16851.252500	545.164063	-250.441360
19350.834947	16851.252500	543.919922	48.784382
19350.834947	16851.252500	542.675781	-80.726868
19350.834947	16851.252500	541.431641	-298.269684
19350.834947	16851.252500	540.186523	7.899105
19350.834947	16851.252500	538.941406	175.917755
19350.834947	16851.252500	537.696289	146.393936
19350.834947	16851.252500	536.451172	-42.484646
19350.834947	16851.252500	535.205078	-74.334343
19350.834947	16851.252500	533.959961	-189.386841
19350.834947	16851.252500	532.712891	37.900978
19350.834947	16851.252500	531.466797	60.706837
19350.834947	16851.252500	530.219727	-21.047997
19350.834947	16851.252500	528.972656	301.069366
19350.834947	16851.252500	527.725586	64.916229
19350.834947	16851.252500	526.478516	54.439751
19350.834947	16851.252500	525.230469	264.745880
19350.834947	16851.252500	523.982422	123.679375
19350.834947	16851.252500	522.734375	146.407944
19350.834947	16851.252500	521.485352	185.726807
19350.834947	16851.252500	520.236328	-0.312361
19350.834947	16851.252500	518.987305	46.123936
19350.834947	16851.252500	517.737305	97.278015
19350.834947	16851.252500	516.488281	48.845234
19350.834947	16851.252500	515.238281	-184.429626
19350.834947	16851.252500	513.988281	87.075104
19350.834947	16851.252500	512.737305	-41.892696
19350.834947	16851.252500	511.486328	96.815834
19350.834947	16851.252500	510.235352	-212.077591
19350.834947	16851.252500	508.984375	276.957214
19350.834947	16851.252500	507.732422	-67.371201
19350.834947	16851.252500	506.480469	-47.144779
19350.834947	16851.252500	505.228516	86.617630
19350.834947	16851.252500	503.976563	281.807251
19350.834947	16851.252500	502.723633	434.325500
19350.834947	16851.252500	501.470703	161.180069
19350.834947	16851.252500	500.217773	481.449341
19350.834947	16851.252500	498.963867	50.022720
19350.834947	16851.252500	497.709961	164.565796
19350.834947	16851.252500	496.456055	262.496521
19350.834947	16851.252500	495.202148	419.400726
19350.834947	16851.252500	493.947266	474.671234
19350.834947	16851.252500	492.692383	329.217377
19350.834947	16851.252500	491.437500	438.698853
19350.834947	16851.252500	490.181641	347.515839
19350.834947	16851.252500	488.926758	537.082947
19350.834947	16851.252500	487.670898	448.191101
19350.834947	16851.252500	486.414063	470.126251
19350.834947	16851.252500	485.158203	463.711090
19350.834947	16851.252500	483.901367	527.960449
19350.834947	16851.252500	482.644531	266.900116
19350.834947	16851.252500	481.386719	500.692688
19350.834947	16851.252500	480.128906	635.381287
19350.834947	16851.252500	478.871094	727.552002
19350.834947	16851.252500	477.613281	544.114990
19350.834947	16851.252500	476.355469	410.120880
19350.834947	16851.252500	475.096680	647.977356
19350.834947	16851.252500	473.837891	869.178223
19350.834947	16851.252500	472.578125	589.077820
19350.834947	16851.252500	471.319336	678.293213
19350.834947	16851.252500	470.059570	701.523804
19350.834947	16851.252500	468.799805	741.098816
19350.834947	16851.252500	467.539063	557.234924
19350.834947	16851.252500	466.278320	897.411560
19350.834947	16851.252500	465.017578	664.017578
19350.834947	16851.252500	463.756836	891.019714
19350.834947	16851.252500	462.495117	678.604248
19350.834947	16851.252500	461.233398	691.556702
19350.834947	16851.252500	459.971680	901.554199
19350.834947	16851.252500	458.709961	970.482544
19350.834947	16851.252500	457.447266	945.358765
19350.834947	16851.252500	456.184570	852.042053
19350.834947	16851.252500	454.921875	692.915710
19350.834947	16851.252500	453.658203	866.667419
19350.834947	16851.252500	452.394531	1072.978394
19350.834947	16851.252500	451.130859	1002.404907
19350.834947	16851.252500	449.867188	1344.114380
19350.834947	16851.252500	448.602539	1104.390503
19350.834947	16851.252500	447.337891	1140.958862
19350.834947	16851.252500	446.073242	856.425598
19350.834947	16851.252500	444.807617	831.668762
19350.834947	16851.252500	443.542969	1127.389648
19350.834947	16851.252500	442.276367	1153.552612
19350.834947	16851.252500	441.010742	1205.172729
19350.834947	16851.252500	439.744141	921.937378
19350.834947	16851.252500	438.478516	1008.087219
19350.834947	16851.252500	437.210938	1128.956055
19350.834947	16851.252500	435.944336	1053.071777
19350.834947	16851.252500	434.676758	1276.069946
19350.834947	16851.252500	433.409180	1164.448364
19350.834947	16851.252500	432.141602	1092.233521
19350.834947	16851.252500	430.873047	895.867737
19350.834947	16851.252500	429.604492	1152.270386
19350.834947	16851.252500	428.335938	1078.941406
19350.834947	16851.252500	427.067383	1371.732178
19350.834947	16851.252500	425.797852	1358.216797
19350.834947	16851.252500	424.528320	1313.931763
19350.834947	16851.252500	423.258789	1115.234741
19350.834947	16851.252500	421.988281	1268.326904
19350.834947	16851.252500	420.717773	1150.363403
19350.834947	16851.252500	419.447266	1314.038818
19350.834947	16851.252500	418.175781	1477.104370
19350.834947	16851.252500	416.905273	1383.226563
19350.834947	16851.252500	415.633789	1204.943359
19350.834947	16851.252500	414.362305	1240.456421
19350.834947	16851.252500	413.089844	1256.708862
19350.834947	16851.252500	411.817383	1197.828369
19350.834947	16851.252500	410.544922	1440.951538
19350.834947	16851.252500	409.272461	1206.206665
19350.834947	16851.252500	407.999023	1312.909668
19350.834947	16851.252500	406.725586	1500.284058
19350.834947	16851.252500	405.452148	1410.081543
19350.834947	16851.252500	404.177734	1051.741943
19350.834947	16851.252500	402.903320	1415.797119
19350.834947	16851.252500	401.628906	1434.905396
19350.834947	16851.252500	400.354492	1185.949219
19350.834947	16851.252500	399.079102	1561.199829
19350.834947	16851.252500	397.803711	1549.835571
19350.834947	16851.252500	396.528320	1330.897461
19350.834947	16851.252500	395.251953	1426.869385
19350.834947	16851.252500	393.976563	1384.914917
19350.834947	16851.252500	392.700195	1258.432251
19350.834947	16851.252500	391.422852	1379.239136
19350.834947	16851.252500	390.145508	1127.795532
19350.834947	16851.252500	388.869141	1367.099121
19350.834947	16851.252500	387.590820	1071.838135
19350.834947	16851.252500	386.313477	1095.518066
19350.834947	16851.252500	385.035156	1275.605713
19350.834947	16851.252500	383.756836	981.704529
19350.834947	16851.252500	382.478516	1071.279907
19350.834947	16851.252500	381.199219	835.250732
19350.834947	16851.252500	379.919922	943.070251
19350.834947	16851.252500	378.640625	1024.039673
19350.834947	16851.252500	377.360352	980.892639
19350.834947	16851.252500	376.080078	1112.233765
19350.834947	16851.252500	374.799805	895.014038
19350.834947	16851.252500	373.519531	623.201599
19350.834947	16851.252500	372.238281	662.157227
19350.834947	16851.252500	370.957031	720.339966
19350.834947	16851.252500	369.675781	880.916504
19350.834947	16851.252500	368.394531	526.687439
19350.834947	16851.252500	367.112305	688.470276
19350.834947	16851.252500	365.830078	896.959595
19350.834947	16851.252500	364.546875	787.101196
19350.834947	16851.252500	363.264648	705.524048
19350.834947	16851.252500	361.981445	804.445618
19350.834947	16851.252500	360.698242	822.919373
19350.834947	16851.252500	359.414063	433.211823
19350.834947	16851.252500	358.129883	659.965332
19350.834947	16851.252500	356.845703	554.692871
19350.834947	16851.252500	355.561523	539.584167
19350.834947	16851.252500	354.276367	609.858276
19350.834947	16851.252500	352.991211	528.028748
19350.834947	16851.252500	351.706055	506.168884
19350.834947	16851.252500	350.420898	574.138245
19350.834947	16851.252500	349.134766	549.765625
19350.834947	16851.252500	347.848633	502.209595
19350.834947	16851.252500	346.561523	265.566376
19350.834947	16851.252500	345.275391	341.902313
19350.834947	16851.252500	343.988281	360.248627
19350.834947	16851.252500	342.700195	541.479370
19350.834947	16851.252500	341.413086	119.462158
19350.834947	16851.252500	340.125000	621.663696
19350.834947	16851.252500	338.836914	7.712571
19350.834947	16851.252500	337.548828	248.624664
19350.834947	16851.252500	336.259766	-129.733475
19350.834947	16851.252500	334.970703	102.550682
19350.834947	16851.252500	333.681641	129.346512
19350.834947	16851.252500	332.391602	-86.127281
19350.834947	16851.252500	331.101563	-79.785324
19350.834947	16851.252500	329.811523	253.774811
19350.834947	16851.252500	328.521484	46.514755
19350.834947	16851.252500	327.230469	177.639313
19350.834947	16851.252500	325.939453	-96.515640
19350.834947	16851.252500	324.648438	-264.176361
19350.834947	16851.252500	323.356445	-80.189903
19350.834947	16851.252500	322.064453	-67.597633
19350.834947	16851.252500	320.772461	193.172455
19350.834947	16851.252500	319.480469	176.978012
19350.834947	16851.252500	318.187500	291.693939
19350.834947	16851.252500	316.894531	177.555893
19350.834947	16851.252500	315.601563	166.756577
19350.834947	16851.252500	314.307617	400.988281
19350.834947	16851.252500	313.013672	-24.276411
19350.834947	16851.252500	311.719727	-112.937675
19350.834947	16851.252500	310.425781	-36.965683
19350.834947	16851.252500	309.130859	-281.796387
19350.834947	16851.252500	307.835938	95.313171
19350.834947	16851.252500	306.541016	2.899273
19350.834947	16851.252500	305.245117	-113.111900
19350.834947	16851.252500	303.949219	245.713654
19350.834947	16851.252500	302.653320	29.855947
19350.834947	16851.252500	301.356445	-205.311752
19350.834947	16851.252500	300.060547	107.031143
19350.834947	16851.252500	298.763672	239.713303
