#X		#Y		#Wave		#Intensity
19512.557713	16884.099833	2000.043945	-40.241913
19512.557713	16884.099833	1999.080078	520.181702
19512.557713	16884.099833	1998.116211	126.893173
19512.557713	16884.099833	1997.151367	-388.221771
19512.557713	16884.099833	1996.186523	456.561920
19512.557713	16884.099833	1995.222656	79.182358
19512.557713	16884.099833	1994.256836	-164.784286
19512.557713	16884.099833	1993.291992	695.231750
19512.557713	16884.099833	1992.327148	21.871901
19512.557713	16884.099833	1991.361328	358.251892
19512.557713	16884.099833	1990.395508	399.509186
19512.557713	16884.099833	1989.429688	88.905449
19512.557713	16884.099833	1988.463867	-88.450272
19512.557713	16884.099833	1987.497070	-120.222160
19512.557713	16884.099833	1986.531250	33.041168
19512.557713	16884.099833	1985.564453	-63.895252
19512.557713	16884.099833	1984.597656	281.307129
19512.557713	16884.099833	1983.630859	435.651093
19512.557713	16884.099833	1982.664063	416.553284
19512.557713	16884.099833	1981.696289	122.834282
19512.557713	16884.099833	1980.728516	490.903992
19512.557713	16884.099833	1979.761719	487.966675
19512.557713	16884.099833	1978.792969	625.468567
19512.557713	16884.099833	1977.825195	88.521942
19512.557713	16884.099833	1976.857422	672.140991
19512.557713	16884.099833	1975.888672	480.260406
19512.557713	16884.099833	1974.919922	534.892944
19512.557713	16884.099833	1973.951172	298.067139
19512.557713	16884.099833	1972.982422	16.623816
19512.557713	16884.099833	1972.013672	186.309937
19512.557713	16884.099833	1971.043945	592.378174
19512.557713	16884.099833	1970.075195	610.942017
19512.557713	16884.099833	1969.105469	858.478210
19512.557713	16884.099833	1968.135742	445.199860
19512.557713	16884.099833	1967.165039	566.510315
19512.557713	16884.099833	1966.195313	677.661499
19512.557713	16884.099833	1965.224609	889.525818
19512.557713	16884.099833	1964.253906	601.180237
19512.557713	16884.099833	1963.283203	320.100800
19512.557713	16884.099833	1962.312500	523.849487
19512.557713	16884.099833	1961.341797	542.722473
19512.557713	16884.099833	1960.370117	349.776764
19512.557713	16884.099833	1959.399414	609.379700
19512.557713	16884.099833	1958.427734	310.325531
19512.557713	16884.099833	1957.455078	731.807617
19512.557713	16884.099833	1956.483398	223.475510
19512.557713	16884.099833	1955.511719	184.717178
19512.557713	16884.099833	1954.539063	364.587738
19512.557713	16884.099833	1953.566406	475.415070
19512.557713	16884.099833	1952.593750	286.279297
19512.557713	16884.099833	1951.621094	502.412781
19512.557713	16884.099833	1950.647461	514.467224
19512.557713	16884.099833	1949.674805	396.218506
19512.557713	16884.099833	1948.701172	567.608521
19512.557713	16884.099833	1947.727539	98.105865
19512.557713	16884.099833	1946.753906	634.934570
19512.557713	16884.099833	1945.780273	-1.509620
19512.557713	16884.099833	1944.805664	-183.935928
19512.557713	16884.099833	1943.831055	163.436935
19512.557713	16884.099833	1942.856445	74.031693
19512.557713	16884.099833	1941.881836	452.903778
19512.557713	16884.099833	1940.907227	-252.067276
19512.557713	16884.099833	1939.932617	447.638580
19512.557713	16884.099833	1938.957031	154.478882
19512.557713	16884.099833	1937.981445	187.231003
19512.557713	16884.099833	1937.005859	-179.421249
19512.557713	16884.099833	1936.030273	360.233154
19512.557713	16884.099833	1935.054688	22.928558
19512.557713	16884.099833	1934.078125	381.035736
19512.557713	16884.099833	1933.101563	604.312378
19512.557713	16884.099833	1932.125000	528.855896
19512.557713	16884.099833	1931.148438	252.712708
19512.557713	16884.099833	1930.171875	490.397980
19512.557713	16884.099833	1929.194336	123.769951
19512.557713	16884.099833	1928.217773	214.555527
19512.557713	16884.099833	1927.240234	92.545769
19512.557713	16884.099833	1926.262695	513.275513
19512.557713	16884.099833	1925.284180	303.196259
19512.557713	16884.099833	1924.306641	415.734039
19512.557713	16884.099833	1923.328125	388.937134
19512.557713	16884.099833	1922.350586	132.477646
19512.557713	16884.099833	1921.372070	73.934792
19512.557713	16884.099833	1920.392578	262.049255
19512.557713	16884.099833	1919.414063	137.536087
19512.557713	16884.099833	1918.434570	244.970154
19512.557713	16884.099833	1917.456055	235.183594
19512.557713	16884.099833	1916.476563	252.239304
19512.557713	16884.099833	1915.497070	113.136391
19512.557713	16884.099833	1914.516602	-89.338898
19512.557713	16884.099833	1913.537109	144.793823
19512.557713	16884.099833	1912.556641	532.460327
19512.557713	16884.099833	1911.576172	327.561798
19512.557713	16884.099833	1910.595703	203.174225
19512.557713	16884.099833	1909.615234	-23.524982
19512.557713	16884.099833	1908.633789	61.753864
19512.557713	16884.099833	1907.653320	8.131415
19512.557713	16884.099833	1906.671875	59.279060
19512.557713	16884.099833	1905.690430	171.289001
19512.557713	16884.099833	1904.708984	-42.989803
19512.557713	16884.099833	1903.727539	-356.985779
19512.557713	16884.099833	1902.745117	73.902885
19512.557713	16884.099833	1901.762695	-242.407684
19512.557713	16884.099833	1900.780273	-152.287521
19512.557713	16884.099833	1899.797852	-320.032501
19512.557713	16884.099833	1898.815430	-101.012756
19512.557713	16884.099833	1897.832031	149.560715
19512.557713	16884.099833	1896.849609	49.963993
19512.557713	16884.099833	1895.866211	-39.846920
19512.557713	16884.099833	1894.882813	8.910826
19512.557713	16884.099833	1893.898438	-284.911407
19512.557713	16884.099833	1892.915039	-129.205856
19512.557713	16884.099833	1891.930664	259.639618
19512.557713	16884.099833	1890.947266	-0.025194
19512.557713	16884.099833	1889.962891	255.150085
19512.557713	16884.099833	1888.977539	-21.353655
19512.557713	16884.099833	1887.993164	-96.304070
19512.557713	16884.099833	1887.007813	-28.026604
19512.557713	16884.099833	1886.023438	-49.535191
19512.557713	16884.099833	1885.038086	334.079071
19512.557713	16884.099833	1884.051758	-51.207035
19512.557713	16884.099833	1883.066406	167.424301
19512.557713	16884.099833	1882.081055	-280.687683
19512.557713	16884.099833	1881.094727	379.089172
19512.557713	16884.099833	1880.108398	-216.666382
19512.557713	16884.099833	1879.122070	-208.872406
19512.557713	16884.099833	1878.135742	-566.857117
19512.557713	16884.099833	1877.148438	-110.875214
19512.557713	16884.099833	1876.162109	-192.644485
19512.557713	16884.099833	1875.174805	-230.775635
19512.557713	16884.099833	1874.187500	108.751114
19512.557713	16884.099833	1873.199219	116.614662
19512.557713	16884.099833	1872.211914	66.405449
19512.557713	16884.099833	1871.223633	-126.491135
19512.557713	16884.099833	1870.236328	89.472260
19512.557713	16884.099833	1869.248047	58.708355
19512.557713	16884.099833	1868.258789	-59.060638
19512.557713	16884.099833	1867.270508	62.552273
19512.557713	16884.099833	1866.282227	-151.836700
19512.557713	16884.099833	1865.292969	334.689453
19512.557713	16884.099833	1864.303711	91.380524
19512.557713	16884.099833	1863.314453	53.505360
19512.557713	16884.099833	1862.324219	-56.784698
19512.557713	16884.099833	1861.334961	103.420464
19512.557713	16884.099833	1860.344727	-170.986008
19512.557713	16884.099833	1859.354492	-61.481102
19512.557713	16884.099833	1858.364258	-50.952343
19512.557713	16884.099833	1857.374023	169.509628
19512.557713	16884.099833	1856.383789	-333.853851
19512.557713	16884.099833	1855.392578	-238.821259
19512.557713	16884.099833	1854.401367	-98.002571
19512.557713	16884.099833	1853.410156	-19.914309
19512.557713	16884.099833	1852.418945	275.106659
19512.557713	16884.099833	1851.426758	-37.343231
19512.557713	16884.099833	1850.435547	-2.678483
19512.557713	16884.099833	1849.443359	458.439240
19512.557713	16884.099833	1848.451172	78.688889
19512.557713	16884.099833	1847.458984	-45.629799
19512.557713	16884.099833	1846.466797	82.935272
19512.557713	16884.099833	1845.473633	81.456985
19512.557713	16884.099833	1844.480469	236.434525
19512.557713	16884.099833	1843.487305	141.062134
19512.557713	16884.099833	1842.494141	55.342579
19512.557713	16884.099833	1841.500977	87.528671
19512.557713	16884.099833	1840.506836	37.927559
19512.557713	16884.099833	1839.513672	267.284790
19512.557713	16884.099833	1838.519531	-5.952179
19512.557713	16884.099833	1837.525391	47.829048
19512.557713	16884.099833	1836.530273	243.392563
19512.557713	16884.099833	1835.536133	176.933197
19512.557713	16884.099833	1834.541016	105.687286
19512.557713	16884.099833	1833.545898	94.509453
19512.557713	16884.099833	1832.550781	-34.367149
19512.557713	16884.099833	1831.555664	-95.974991
19512.557713	16884.099833	1830.560547	348.965942
19512.557713	16884.099833	1829.564453	20.848433
19512.557713	16884.099833	1828.568359	410.374817
19512.557713	16884.099833	1827.572266	-32.846767
19512.557713	16884.099833	1826.576172	219.756607
19512.557713	16884.099833	1825.580078	210.804794
19512.557713	16884.099833	1824.583008	84.342773
19512.557713	16884.099833	1823.585938	96.955765
19512.557713	16884.099833	1822.588867	143.091721
19512.557713	16884.099833	1821.591797	148.436859
19512.557713	16884.099833	1820.594727	285.536774
19512.557713	16884.099833	1819.596680	44.033924
19512.557713	16884.099833	1818.599609	-58.493294
19512.557713	16884.099833	1817.601563	334.721741
19512.557713	16884.099833	1816.603516	-62.399586
19512.557713	16884.099833	1815.604492	364.117065
19512.557713	16884.099833	1814.606445	-226.809799
19512.557713	16884.099833	1813.607422	-121.171646
19512.557713	16884.099833	1812.608398	180.574142
19512.557713	16884.099833	1811.609375	168.793488
19512.557713	16884.099833	1810.610352	-570.100830
19512.557713	16884.099833	1809.610352	87.724602
19512.557713	16884.099833	1808.611328	83.001419
19512.557713	16884.099833	1807.611328	197.753204
19512.557713	16884.099833	1806.611328	259.831451
19512.557713	16884.099833	1805.610352	178.483505
19512.557713	16884.099833	1804.610352	400.499939
19512.557713	16884.099833	1803.609375	302.325836
19512.557713	16884.099833	1802.608398	-10.792500
19512.557713	16884.099833	1801.607422	12.803810
19512.557713	16884.099833	1800.606445	41.105740
19512.557713	16884.099833	1799.605469	62.174561
19512.557713	16884.099833	1798.603516	138.069748
19512.557713	16884.099833	1797.601563	447.682404
19512.557713	16884.099833	1796.599609	322.983978
19512.557713	16884.099833	1795.597656	-180.936829
19512.557713	16884.099833	1794.595703	32.989067
19512.557713	16884.099833	1793.592773	5.988825
19512.557713	16884.099833	1792.589844	145.782059
19512.557713	16884.099833	1791.587891	776.358154
19512.557713	16884.099833	1790.583984	84.275551
19512.557713	16884.099833	1789.581055	-45.424896
19512.557713	16884.099833	1788.577148	103.520447
19512.557713	16884.099833	1787.574219	-85.818199
19512.557713	16884.099833	1786.570313	-39.450912
19512.557713	16884.099833	1785.566406	-183.606750
19512.557713	16884.099833	1784.561523	126.792435
19512.557713	16884.099833	1783.557617	420.325348
19512.557713	16884.099833	1782.552734	254.524277
19512.557713	16884.099833	1781.547852	174.336334
19512.557713	16884.099833	1780.542969	84.580788
19512.557713	16884.099833	1779.538086	75.616013
19512.557713	16884.099833	1778.532227	194.949432
19512.557713	16884.099833	1777.527344	214.317032
19512.557713	16884.099833	1776.521484	195.582260
19512.557713	16884.099833	1775.515625	157.755280
19512.557713	16884.099833	1774.508789	169.749481
19512.557713	16884.099833	1773.502930	-231.608582
19512.557713	16884.099833	1772.496094	27.223631
19512.557713	16884.099833	1771.489258	-115.352722
19512.557713	16884.099833	1770.482422	-267.463531
19512.557713	16884.099833	1769.475586	-234.500259
19512.557713	16884.099833	1768.467773	175.625809
19512.557713	16884.099833	1767.460938	201.183823
19512.557713	16884.099833	1766.453125	112.793411
19512.557713	16884.099833	1765.445313	145.282196
19512.557713	16884.099833	1764.437500	156.321259
19512.557713	16884.099833	1763.428711	217.045807
19512.557713	16884.099833	1762.420898	336.890076
19512.557713	16884.099833	1761.412109	60.879120
19512.557713	16884.099833	1760.403320	168.665283
19512.557713	16884.099833	1759.393555	219.469421
19512.557713	16884.099833	1758.384766	-369.273407
19512.557713	16884.099833	1757.375000	119.441605
19512.557713	16884.099833	1756.366211	96.522636
19512.557713	16884.099833	1755.356445	101.915497
19512.557713	16884.099833	1754.345703	-105.771332
19512.557713	16884.099833	1753.335938	24.839741
19512.557713	16884.099833	1752.325195	46.490856
19512.557713	16884.099833	1751.315430	-123.553215
19512.557713	16884.099833	1750.304688	432.300842
19512.557713	16884.099833	1749.292969	124.923332
19512.557713	16884.099833	1748.282227	120.099205
19512.557713	16884.099833	1747.270508	-36.074863
19512.557713	16884.099833	1746.259766	60.518597
19512.557713	16884.099833	1745.248047	206.573517
19512.557713	16884.099833	1744.235352	-212.024109
19512.557713	16884.099833	1743.223633	-99.253754
19512.557713	16884.099833	1742.211914	70.026138
19512.557713	16884.099833	1741.199219	-67.742485
19512.557713	16884.099833	1740.186523	-99.361824
19512.557713	16884.099833	1739.173828	29.370920
19512.557713	16884.099833	1738.160156	-295.020538
19512.557713	16884.099833	1737.147461	17.454500
19512.557713	16884.099833	1736.133789	60.851471
19512.557713	16884.099833	1735.120117	-86.865562
19512.557713	16884.099833	1734.106445	-112.056183
19512.557713	16884.099833	1733.091797	-325.908051
19512.557713	16884.099833	1732.078125	-216.956665
19512.557713	16884.099833	1731.063477	12.000907
19512.557713	16884.099833	1730.048828	-178.543289
19512.557713	16884.099833	1729.034180	-284.347168
19512.557713	16884.099833	1728.019531	-81.758499
19512.557713	16884.099833	1727.003906	-216.020142
19512.557713	16884.099833	1725.988281	85.102638
19512.557713	16884.099833	1724.972656	-2.304218
19512.557713	16884.099833	1723.957031	441.954590
19512.557713	16884.099833	1722.941406	166.082214
19512.557713	16884.099833	1721.924805	-192.121735
19512.557713	16884.099833	1720.909180	-190.522064
19512.557713	16884.099833	1719.892578	104.851433
19512.557713	16884.099833	1718.875977	-135.953064
19512.557713	16884.099833	1717.858398	-101.812050
19512.557713	16884.099833	1716.841797	-91.296432
19512.557713	16884.099833	1715.824219	118.789772
19512.557713	16884.099833	1714.806641	-84.719551
19512.557713	16884.099833	1713.789063	263.605469
19512.557713	16884.099833	1712.770508	24.696499
19512.557713	16884.099833	1711.752930	119.104927
19512.557713	16884.099833	1710.734375	11.514021
19512.557713	16884.099833	1709.715820	183.094254
19512.557713	16884.099833	1708.697266	63.572495
19512.557713	16884.099833	1707.678711	-46.636848
19512.557713	16884.099833	1706.659180	-173.337067
19512.557713	16884.099833	1705.640625	-105.487007
19512.557713	16884.099833	1704.621094	105.232124
19512.557713	16884.099833	1703.600586	-319.445221
19512.557713	16884.099833	1702.581055	57.390026
19512.557713	16884.099833	1701.561523	180.918823
19512.557713	16884.099833	1700.541016	-96.287628
19512.557713	16884.099833	1699.520508	460.290100
19512.557713	16884.099833	1698.500000	304.675934
19512.557713	16884.099833	1697.478516	764.745544
19512.557713	16884.099833	1696.458008	168.850784
19512.557713	16884.099833	1695.436523	321.968811
19512.557713	16884.099833	1694.415039	273.690033
19512.557713	16884.099833	1693.393555	431.186920
19512.557713	16884.099833	1692.372070	600.206238
19512.557713	16884.099833	1691.349609	83.873085
19512.557713	16884.099833	1690.327148	329.833008
19512.557713	16884.099833	1689.304688	512.477356
19512.557713	16884.099833	1688.282227	489.271698
19512.557713	16884.099833	1687.259766	779.091736
19512.557713	16884.099833	1686.236328	561.722351
19512.557713	16884.099833	1685.213867	860.545227
19512.557713	16884.099833	1684.190430	409.500427
19512.557713	16884.099833	1683.166016	163.994675
19512.557713	16884.099833	1682.142578	903.621216
19512.557713	16884.099833	1681.119141	769.946106
19512.557713	16884.099833	1680.094727	661.886536
19512.557713	16884.099833	1679.070313	1120.714355
19512.557713	16884.099833	1678.045898	1234.028198
19512.557713	16884.099833	1677.020508	705.842651
19512.557713	16884.099833	1675.996094	849.314697
19512.557713	16884.099833	1674.970703	759.496155
19512.557713	16884.099833	1673.945313	874.733582
19512.557713	16884.099833	1672.919922	1108.684326
19512.557713	16884.099833	1671.893555	1020.909546
19512.557713	16884.099833	1670.868164	1042.567139
19512.557713	16884.099833	1669.841797	894.098755
19512.557713	16884.099833	1668.815430	948.187500
19512.557713	16884.099833	1667.789063	678.549255
19512.557713	16884.099833	1666.761719	1286.471436
19512.557713	16884.099833	1665.735352	1026.003662
19512.557713	16884.099833	1664.708008	1091.301514
19512.557713	16884.099833	1663.680664	1114.611084
19512.557713	16884.099833	1662.653320	1356.464966
19512.557713	16884.099833	1661.625000	651.669556
19512.557713	16884.099833	1660.597656	1035.177734
19512.557713	16884.099833	1659.569336	1232.488159
19512.557713	16884.099833	1658.541016	1350.620972
19512.557713	16884.099833	1657.512695	1192.112427
19512.557713	16884.099833	1656.483398	1100.956421
19512.557713	16884.099833	1655.455078	1293.141724
19512.557713	16884.099833	1654.425781	1378.342041
19512.557713	16884.099833	1653.396484	1670.085938
19512.557713	16884.099833	1652.366211	1499.675415
19512.557713	16884.099833	1651.336914	1319.978638
19512.557713	16884.099833	1650.306641	1597.422974
19512.557713	16884.099833	1649.276367	1206.505859
19512.557713	16884.099833	1648.246094	1757.443481
19512.557713	16884.099833	1647.215820	1317.807495
19512.557713	16884.099833	1646.185547	1719.978149
19512.557713	16884.099833	1645.154297	1892.417725
19512.557713	16884.099833	1644.123047	2301.143311
19512.557713	16884.099833	1643.091797	2053.828125
19512.557713	16884.099833	1642.060547	1864.477539
19512.557713	16884.099833	1641.028320	1851.186523
19512.557713	16884.099833	1639.997070	1962.914307
19512.557713	16884.099833	1638.964844	2162.532715
19512.557713	16884.099833	1637.931641	1892.042725
19512.557713	16884.099833	1636.899414	2153.986328
19512.557713	16884.099833	1635.867188	2367.180908
19512.557713	16884.099833	1634.833984	2286.385010
19512.557713	16884.099833	1633.800781	2478.550049
19512.557713	16884.099833	1632.767578	2543.380615
19512.557713	16884.099833	1631.734375	2580.394287
19512.557713	16884.099833	1630.700195	2191.935059
19512.557713	16884.099833	1629.666016	2166.501709
19512.557713	16884.099833	1628.631836	2751.166260
19512.557713	16884.099833	1627.597656	2492.176025
19512.557713	16884.099833	1626.563477	2436.548340
19512.557713	16884.099833	1625.528320	2431.717773
19512.557713	16884.099833	1624.493164	2590.815430
19512.557713	16884.099833	1623.458008	2595.124268
19512.557713	16884.099833	1622.422852	2705.587646
19512.557713	16884.099833	1621.387695	2439.781250
19512.557713	16884.099833	1620.351563	2580.170410
19512.557713	16884.099833	1619.315430	2457.472656
19512.557713	16884.099833	1618.279297	2475.498535
19512.557713	16884.099833	1617.243164	2451.988037
19512.557713	16884.099833	1616.207031	2511.469971
19512.557713	16884.099833	1615.169922	2550.159912
19512.557713	16884.099833	1614.132813	2819.298828
19512.557713	16884.099833	1613.095703	2786.443359
19512.557713	16884.099833	1612.058594	2795.059814
19512.557713	16884.099833	1611.020508	2856.633301
19512.557713	16884.099833	1609.983398	2466.785400
19512.557713	16884.099833	1608.945313	2919.819580
19512.557713	16884.099833	1607.907227	2882.313232
19512.557713	16884.099833	1606.868164	2771.161621
19512.557713	16884.099833	1605.830078	2296.462646
19512.557713	16884.099833	1604.791016	3264.527832
19512.557713	16884.099833	1603.751953	2769.204346
19512.557713	16884.099833	1602.712891	2690.357178
19512.557713	16884.099833	1601.673828	2365.503662
19512.557713	16884.099833	1600.633789	2268.378662
19512.557713	16884.099833	1599.594727	2513.783447
19512.557713	16884.099833	1598.554688	2453.451660
19512.557713	16884.099833	1597.513672	2441.400635
19512.557713	16884.099833	1596.473633	2362.756104
19512.557713	16884.099833	1595.433594	2373.725342
19512.557713	16884.099833	1594.392578	2538.559082
19512.557713	16884.099833	1593.351563	2168.408936
19512.557713	16884.099833	1592.310547	2592.635742
19512.557713	16884.099833	1591.268555	2319.045410
19512.557713	16884.099833	1590.227539	2864.731201
19512.557713	16884.099833	1589.185547	2910.119141
19512.557713	16884.099833	1588.143555	2588.540039
19512.557713	16884.099833	1587.100586	2711.982910
19512.557713	16884.099833	1586.058594	3055.514160
19512.557713	16884.099833	1585.015625	2931.317383
19512.557713	16884.099833	1583.972656	2779.703857
19512.557713	16884.099833	1582.929688	2660.265381
19512.557713	16884.099833	1581.886719	3136.550537
19512.557713	16884.099833	1580.843750	3154.596436
19512.557713	16884.099833	1579.799805	3330.685303
19512.557713	16884.099833	1578.755859	3174.757324
19512.557713	16884.099833	1577.711914	3444.716553
19512.557713	16884.099833	1576.666992	3071.498291
19512.557713	16884.099833	1575.623047	3066.882324
19512.557713	16884.099833	1574.578125	3220.170410
19512.557713	16884.099833	1573.533203	3268.239990
19512.557713	16884.099833	1572.488281	3410.104492
19512.557713	16884.099833	1571.443359	2980.363525
19512.557713	16884.099833	1570.397461	3259.499268
19512.557713	16884.099833	1569.351563	3188.900146
19512.557713	16884.099833	1568.305664	3154.954834
19512.557713	16884.099833	1567.259766	3205.618652
19512.557713	16884.099833	1566.213867	2847.459229
19512.557713	16884.099833	1565.166992	2551.166504
19512.557713	16884.099833	1564.120117	2595.269531
19512.557713	16884.099833	1563.073242	2637.144775
19512.557713	16884.099833	1562.026367	2578.653564
19512.557713	16884.099833	1560.978516	2552.204346
19512.557713	16884.099833	1559.930664	2555.501953
19512.557713	16884.099833	1558.883789	2517.820801
19512.557713	16884.099833	1557.834961	2142.703613
19512.557713	16884.099833	1556.787109	2969.458740
19512.557713	16884.099833	1555.739258	1979.049683
19512.557713	16884.099833	1554.690430	2140.139160
19512.557713	16884.099833	1553.641602	2066.536865
19512.557713	16884.099833	1552.592773	1956.599976
19512.557713	16884.099833	1551.542969	1862.737671
19512.557713	16884.099833	1550.494141	1994.480469
19512.557713	16884.099833	1549.444336	1816.594604
19512.557713	16884.099833	1548.394531	1793.677979
19512.557713	16884.099833	1547.344727	1768.595703
19512.557713	16884.099833	1546.293945	1495.573730
19512.557713	16884.099833	1545.244141	1564.047974
19512.557713	16884.099833	1544.193359	1357.351929
19512.557713	16884.099833	1543.142578	1573.864258
19512.557713	16884.099833	1542.090820	1269.682617
19512.557713	16884.099833	1541.040039	981.648193
19512.557713	16884.099833	1539.988281	1307.540405
19512.557713	16884.099833	1538.936523	1240.269043
19512.557713	16884.099833	1537.884766	1048.175537
19512.557713	16884.099833	1536.833008	1072.081909
19512.557713	16884.099833	1535.780273	846.265747
19512.557713	16884.099833	1534.727539	1195.152100
19512.557713	16884.099833	1533.674805	935.590149
19512.557713	16884.099833	1532.622070	1068.933105
19512.557713	16884.099833	1531.569336	1370.287842
19512.557713	16884.099833	1530.515625	1038.612549
19512.557713	16884.099833	1529.461914	1135.940918
19512.557713	16884.099833	1528.408203	607.379700
19512.557713	16884.099833	1527.354492	639.258728
19512.557713	16884.099833	1526.299805	1081.614624
19512.557713	16884.099833	1525.246094	1156.722412
19512.557713	16884.099833	1524.191406	522.599487
19512.557713	16884.099833	1523.136719	487.040192
19512.557713	16884.099833	1522.081055	519.597351
19512.557713	16884.099833	1521.026367	876.166016
19512.557713	16884.099833	1519.970703	510.369904
19512.557713	16884.099833	1518.915039	839.920898
19512.557713	16884.099833	1517.859375	603.589966
19512.557713	16884.099833	1516.802734	433.137482
19512.557713	16884.099833	1515.747070	744.847839
19512.557713	16884.099833	1514.690430	889.181885
19512.557713	16884.099833	1513.633789	497.569550
19512.557713	16884.099833	1512.577148	696.473145
19512.557713	16884.099833	1511.519531	771.110718
19512.557713	16884.099833	1510.461914	432.212524
19512.557713	16884.099833	1509.405273	39.363529
19512.557713	16884.099833	1508.346680	87.446762
19512.557713	16884.099833	1507.289063	607.820068
19512.557713	16884.099833	1506.231445	482.178436
19512.557713	16884.099833	1505.172852	162.545441
19512.557713	16884.099833	1504.114258	215.736206
19512.557713	16884.099833	1503.055664	-6.318333
19512.557713	16884.099833	1501.996094	160.062134
19512.557713	16884.099833	1500.937500	155.059845
19512.557713	16884.099833	1499.877930	19.385910
19512.557713	16884.099833	1498.818359	-176.961823
19512.557713	16884.099833	1497.757813	-269.318085
19512.557713	16884.099833	1496.698242	98.470695
19512.557713	16884.099833	1495.637695	-85.973022
19512.557713	16884.099833	1494.577148	-200.304398
19512.557713	16884.099833	1493.516602	75.403419
19512.557713	16884.099833	1492.456055	119.143715
19512.557713	16884.099833	1491.394531	331.977173
19512.557713	16884.099833	1490.333008	-333.341919
19512.557713	16884.099833	1489.271484	-216.949295
19512.557713	16884.099833	1488.209961	126.937332
19512.557713	16884.099833	1487.148438	-193.052139
19512.557713	16884.099833	1486.085938	-544.223389
19512.557713	16884.099833	1485.023438	-242.659119
19512.557713	16884.099833	1483.960938	-224.428619
19512.557713	16884.099833	1482.898438	210.015900
19512.557713	16884.099833	1481.834961	64.412315
19512.557713	16884.099833	1480.772461	26.955723
19512.557713	16884.099833	1479.708984	-187.828094
19512.557713	16884.099833	1478.644531	199.870850
19512.557713	16884.099833	1477.581055	91.098099
19512.557713	16884.099833	1476.517578	-196.978500
19512.557713	16884.099833	1475.453125	-64.956039
19512.557713	16884.099833	1474.388672	26.811396
19512.557713	16884.099833	1473.323242	11.059089
19512.557713	16884.099833	1472.258789	446.690063
19512.557713	16884.099833	1471.193359	260.736725
19512.557713	16884.099833	1470.127930	283.629395
19512.557713	16884.099833	1469.062500	349.509338
19512.557713	16884.099833	1467.997070	175.646820
19512.557713	16884.099833	1466.930664	434.114014
19512.557713	16884.099833	1465.865234	502.577271
19512.557713	16884.099833	1464.798828	551.117981
19512.557713	16884.099833	1463.731445	801.295898
19512.557713	16884.099833	1462.665039	539.190247
19512.557713	16884.099833	1461.597656	632.582764
19512.557713	16884.099833	1460.530273	1092.038574
19512.557713	16884.099833	1459.462891	821.714355
19512.557713	16884.099833	1458.395508	926.431091
19512.557713	16884.099833	1457.327148	918.160889
19512.557713	16884.099833	1456.259766	1240.230591
19512.557713	16884.099833	1455.191406	762.521606
19512.557713	16884.099833	1454.123047	978.402649
19512.557713	16884.099833	1453.053711	1192.299683
19512.557713	16884.099833	1451.985352	794.846558
19512.557713	16884.099833	1450.916016	1070.387085
19512.557713	16884.099833	1449.846680	1004.187561
19512.557713	16884.099833	1448.776367	839.682373
19512.557713	16884.099833	1447.707031	495.628754
19512.557713	16884.099833	1446.636719	965.594727
19512.557713	16884.099833	1445.566406	817.951111
19512.557713	16884.099833	1444.496094	966.209900
19512.557713	16884.099833	1443.425781	852.695496
19512.557713	16884.099833	1442.354492	514.659912
19512.557713	16884.099833	1441.283203	350.125397
19512.557713	16884.099833	1440.211914	599.306946
19512.557713	16884.099833	1439.140625	471.384460
19512.557713	16884.099833	1438.069336	296.908813
19512.557713	16884.099833	1436.997070	-84.953033
19512.557713	16884.099833	1435.924805	313.066162
19512.557713	16884.099833	1434.852539	42.528992
19512.557713	16884.099833	1433.780273	38.787064
19512.557713	16884.099833	1432.707031	-176.265411
19512.557713	16884.099833	1431.633789	118.954369
19512.557713	16884.099833	1430.560547	-96.237183
19512.557713	16884.099833	1429.487305	204.894272
19512.557713	16884.099833	1428.413086	61.181149
19512.557713	16884.099833	1427.339844	520.806335
19512.557713	16884.099833	1426.265625	-140.557358
19512.557713	16884.099833	1425.191406	-218.566681
19512.557713	16884.099833	1424.116211	-190.220566
19512.557713	16884.099833	1423.041992	41.869259
19512.557713	16884.099833	1421.966797	72.752113
19512.557713	16884.099833	1420.891602	204.457855
19512.557713	16884.099833	1419.816406	-143.994202
19512.557713	16884.099833	1418.740234	-27.547373
19512.557713	16884.099833	1417.665039	223.555588
19512.557713	16884.099833	1416.588867	-91.680969
19512.557713	16884.099833	1415.512695	-75.365013
19512.557713	16884.099833	1414.435547	108.709282
19512.557713	16884.099833	1413.359375	247.395157
19512.557713	16884.099833	1412.282227	350.647705
19512.557713	16884.099833	1411.205078	86.897110
19512.557713	16884.099833	1410.127930	290.771942
19512.557713	16884.099833	1409.049805	-118.095375
19512.557713	16884.099833	1407.972656	-202.662186
19512.557713	16884.099833	1406.894531	208.165115
19512.557713	16884.099833	1405.816406	480.253174
19512.557713	16884.099833	1404.737305	433.371918
19512.557713	16884.099833	1403.659180	102.488083
19512.557713	16884.099833	1402.580078	95.052238
19512.557713	16884.099833	1401.500977	322.063019
19512.557713	16884.099833	1400.421875	-14.269240
19512.557713	16884.099833	1399.341797	174.388748
19512.557713	16884.099833	1398.262695	38.349373
19512.557713	16884.099833	1397.182617	568.303284
19512.557713	16884.099833	1396.102539	483.627014
19512.557713	16884.099833	1395.021484	264.420044
19512.557713	16884.099833	1393.941406	59.696320
19512.557713	16884.099833	1392.860352	106.448753
19512.557713	16884.099833	1391.779297	112.869377
19512.557713	16884.099833	1390.698242	453.281677
19512.557713	16884.099833	1389.616211	61.364151
19512.557713	16884.099833	1388.535156	519.628784
19512.557713	16884.099833	1387.453125	398.968689
19512.557713	16884.099833	1386.371094	707.094360
19512.557713	16884.099833	1385.288086	324.540497
19512.557713	16884.099833	1384.206055	481.169067
19512.557713	16884.099833	1383.123047	958.429199
19512.557713	16884.099833	1382.040039	326.534637
19512.557713	16884.099833	1380.957031	183.664063
19512.557713	16884.099833	1379.873047	400.731903
19512.557713	16884.099833	1378.789063	317.068390
19512.557713	16884.099833	1377.705078	236.301437
19512.557713	16884.099833	1376.621094	431.043396
19512.557713	16884.099833	1375.537109	571.500244
19512.557713	16884.099833	1374.452148	401.434906
19512.557713	16884.099833	1373.367188	148.676559
19512.557713	16884.099833	1372.282227	491.052277
19512.557713	16884.099833	1371.197266	233.232925
19512.557713	16884.099833	1370.112305	271.865845
19512.557713	16884.099833	1369.026367	129.816177
19512.557713	16884.099833	1367.940430	338.572418
19512.557713	16884.099833	1366.854492	176.504471
19512.557713	16884.099833	1365.767578	148.243622
19512.557713	16884.099833	1364.681641	503.176453
19512.557713	16884.099833	1363.594727	290.625275
19512.557713	16884.099833	1362.507813	93.882362
19512.557713	16884.099833	1361.419922	319.431061
19512.557713	16884.099833	1360.333008	395.566742
19512.557713	16884.099833	1359.245117	531.480164
19512.557713	16884.099833	1358.157227	339.384766
19512.557713	16884.099833	1357.069336	399.904205
19512.557713	16884.099833	1355.981445	421.904388
19512.557713	16884.099833	1354.892578	470.650818
19512.557713	16884.099833	1353.803711	496.231201
19512.557713	16884.099833	1352.714844	631.761353
19512.557713	16884.099833	1351.625000	473.222015
19512.557713	16884.099833	1350.536133	658.886108
19512.557713	16884.099833	1349.446289	712.650146
19512.557713	16884.099833	1348.356445	752.796265
19512.557713	16884.099833	1347.266602	440.237183
19512.557713	16884.099833	1346.175781	509.282410
19512.557713	16884.099833	1345.085938	650.957153
19512.557713	16884.099833	1343.995117	485.245361
19512.557713	16884.099833	1342.903320	805.751465
19512.557713	16884.099833	1341.812500	655.101257
19512.557713	16884.099833	1340.720703	582.154541
19512.557713	16884.099833	1339.629883	853.071716
19512.557713	16884.099833	1338.538086	983.002197
19512.557713	16884.099833	1337.445313	1032.265137
19512.557713	16884.099833	1336.353516	642.914490
19512.557713	16884.099833	1335.260742	1069.545898
19512.557713	16884.099833	1334.167969	398.994019
19512.557713	16884.099833	1333.075195	675.831543
19512.557713	16884.099833	1331.981445	805.353943
19512.557713	16884.099833	1330.888672	1028.793701
19512.557713	16884.099833	1329.794922	598.220032
19512.557713	16884.099833	1328.701172	989.338196
19512.557713	16884.099833	1327.606445	1248.979370
19512.557713	16884.099833	1326.512695	759.593506
19512.557713	16884.099833	1325.417969	772.239258
19512.557713	16884.099833	1324.323242	787.539185
19512.557713	16884.099833	1323.227539	993.832703
19512.557713	16884.099833	1322.132813	981.865784
19512.557713	16884.099833	1321.037109	697.518127
19512.557713	16884.099833	1319.941406	935.251709
19512.557713	16884.099833	1318.845703	524.263977
19512.557713	16884.099833	1317.750000	896.502441
19512.557713	16884.099833	1316.653320	997.588379
19512.557713	16884.099833	1315.556641	673.401123
19512.557713	16884.099833	1314.459961	975.767090
19512.557713	16884.099833	1313.363281	709.344666
19512.557713	16884.099833	1312.265625	617.251526
19512.557713	16884.099833	1311.167969	462.893921
19512.557713	16884.099833	1310.070313	826.930237
19512.557713	16884.099833	1308.972656	752.343079
19512.557713	16884.099833	1307.874023	606.106018
19512.557713	16884.099833	1306.776367	977.543823
19512.557713	16884.099833	1305.677734	301.964935
19512.557713	16884.099833	1304.579102	524.700745
19512.557713	16884.099833	1303.479492	338.928345
19512.557713	16884.099833	1302.380859	398.077209
19512.557713	16884.099833	1301.281250	564.874390
19512.557713	16884.099833	1300.181641	662.639221
19512.557713	16884.099833	1299.081055	471.681885
19512.557713	16884.099833	1297.981445	493.489685
19512.557713	16884.099833	1296.880859	278.251373
19512.557713	16884.099833	1295.780273	506.383484
19512.557713	16884.099833	1294.679688	371.716156
19512.557713	16884.099833	1293.578125	361.821625
19512.557713	16884.099833	1292.476563	481.471649
19512.557713	16884.099833	1291.375000	311.195587
19512.557713	16884.099833	1290.273438	386.698486
19512.557713	16884.099833	1289.171875	555.197266
19512.557713	16884.099833	1288.069336	378.123810
19512.557713	16884.099833	1286.966797	101.319832
19512.557713	16884.099833	1285.864258	6.142755
19512.557713	16884.099833	1284.761719	-72.280457
19512.557713	16884.099833	1283.658203	128.939438
19512.557713	16884.099833	1282.554688	552.100830
19512.557713	16884.099833	1281.451172	176.162735
19512.557713	16884.099833	1280.347656	282.810699
19512.557713	16884.099833	1279.244141	60.679462
19512.557713	16884.099833	1278.139648	-13.318027
19512.557713	16884.099833	1277.035156	23.452274
19512.557713	16884.099833	1275.930664	168.769653
19512.557713	16884.099833	1274.825195	-130.343460
19512.557713	16884.099833	1273.720703	29.269272
19512.557713	16884.099833	1272.615234	-18.786703
19512.557713	16884.099833	1271.508789	27.381308
19512.557713	16884.099833	1270.403320	125.327805
19512.557713	16884.099833	1269.297852	102.876083
19512.557713	16884.099833	1268.191406	191.740204
19512.557713	16884.099833	1267.084961	272.823334
19512.557713	16884.099833	1265.977539	-121.031479
19512.557713	16884.099833	1264.871094	156.257233
19512.557713	16884.099833	1263.763672	191.369736
19512.557713	16884.099833	1262.656250	-84.220642
19512.557713	16884.099833	1261.548828	172.898193
19512.557713	16884.099833	1260.440430	2.628024
19512.557713	16884.099833	1259.333008	-100.352303
19512.557713	16884.099833	1258.224609	11.704159
19512.557713	16884.099833	1257.115234	-148.184967
19512.557713	16884.099833	1256.006836	-266.965942
19512.557713	16884.099833	1254.897461	-5.669063
19512.557713	16884.099833	1253.788086	72.585083
19512.557713	16884.099833	1252.678711	150.810150
19512.557713	16884.099833	1251.569336	2.961222
19512.557713	16884.099833	1250.458984	272.174591
19512.557713	16884.099833	1249.349609	203.980423
19512.557713	16884.099833	1248.239258	326.321228
19512.557713	16884.099833	1247.127930	-96.234581
19512.557713	16884.099833	1246.017578	217.565765
19512.557713	16884.099833	1244.906250	-2.460183
19512.557713	16884.099833	1243.794922	197.984894
19512.557713	16884.099833	1242.683594	65.453751
19512.557713	16884.099833	1241.571289	-121.370407
19512.557713	16884.099833	1240.459961	-96.461319
19512.557713	16884.099833	1239.347656	104.822792
19512.557713	16884.099833	1238.234375	183.210449
19512.557713	16884.099833	1237.122070	-174.588425
19512.557713	16884.099833	1236.008789	-55.603985
19512.557713	16884.099833	1234.896484	-18.243427
19512.557713	16884.099833	1233.782227	-72.531601
19512.557713	16884.099833	1232.668945	-177.455231
19512.557713	16884.099833	1231.555664	-207.690536
19512.557713	16884.099833	1230.441406	-151.101242
19512.557713	16884.099833	1229.327148	-173.667221
19512.557713	16884.099833	1228.211914	-177.834305
19512.557713	16884.099833	1227.097656	-172.704681
19512.557713	16884.099833	1225.982422	-46.468952
19512.557713	16884.099833	1224.867188	-254.356857
19512.557713	16884.099833	1223.751953	85.786034
19512.557713	16884.099833	1222.635742	-299.279205
19512.557713	16884.099833	1221.520508	-228.935654
19512.557713	16884.099833	1220.404297	89.871872
19512.557713	16884.099833	1219.287109	121.887573
19512.557713	16884.099833	1218.170898	108.068436
19512.557713	16884.099833	1217.053711	81.852272
19512.557713	16884.099833	1215.936523	-78.744209
19512.557713	16884.099833	1214.819336	29.054562
19512.557713	16884.099833	1213.702148	374.723419
19512.557713	16884.099833	1212.583984	62.745800
19512.557713	16884.099833	1211.465820	46.130798
19512.557713	16884.099833	1210.347656	82.927483
19512.557713	16884.099833	1209.229492	-35.772114
19512.557713	16884.099833	1208.110352	41.319984
19512.557713	16884.099833	1206.992188	291.263336
19512.557713	16884.099833	1205.873047	-41.548046
19512.557713	16884.099833	1204.752930	-8.686315
19512.557713	16884.099833	1203.633789	178.537354
19512.557713	16884.099833	1202.513672	251.473709
19512.557713	16884.099833	1201.393555	185.683151
19512.557713	16884.099833	1200.273438	52.128944
19512.557713	16884.099833	1199.152344	45.641613
19512.557713	16884.099833	1198.032227	-116.241676
19512.557713	16884.099833	1196.911133	-97.659050
19512.557713	16884.099833	1195.790039	-37.815319
19512.557713	16884.099833	1194.667969	-57.278606
19512.557713	16884.099833	1193.545898	-160.487946
19512.557713	16884.099833	1192.424805	-12.745343
19512.557713	16884.099833	1191.301758	-127.201660
19512.557713	16884.099833	1190.179688	-59.689537
19512.557713	16884.099833	1189.056641	-117.301125
19512.557713	16884.099833	1187.933594	-119.967232
19512.557713	16884.099833	1186.810547	-213.517441
19512.557713	16884.099833	1185.687500	-150.597733
19512.557713	16884.099833	1184.563477	-366.495544
19512.557713	16884.099833	1183.440430	-371.214600
19512.557713	16884.099833	1182.316406	16.386440
19512.557713	16884.099833	1181.191406	20.751249
19512.557713	16884.099833	1180.067383	4.247752
19512.557713	16884.099833	1178.942383	-82.303497
19512.557713	16884.099833	1177.817383	-126.648827
19512.557713	16884.099833	1176.692383	-325.738800
19512.557713	16884.099833	1175.566406	-163.994278
19512.557713	16884.099833	1174.440430	-115.852669
19512.557713	16884.099833	1173.314453	165.126144
19512.557713	16884.099833	1172.188477	39.628361
19512.557713	16884.099833	1171.062500	2.422271
19512.557713	16884.099833	1169.935547	63.668667
19512.557713	16884.099833	1168.808594	-18.006847
19512.557713	16884.099833	1167.681641	-165.445328
19512.557713	16884.099833	1166.553711	180.873138
19512.557713	16884.099833	1165.426758	-90.993378
19512.557713	16884.099833	1164.298828	84.656235
19512.557713	16884.099833	1163.170898	-2.333097
19512.557713	16884.099833	1162.041992	-69.016022
19512.557713	16884.099833	1160.914063	-45.247650
19512.557713	16884.099833	1159.785156	66.051270
19512.557713	16884.099833	1158.656250	-9.953532
19512.557713	16884.099833	1157.526367	-201.012390
19512.557713	16884.099833	1156.397461	-73.538071
19512.557713	16884.099833	1155.267578	14.895536
19512.557713	16884.099833	1154.137695	-164.428162
19512.557713	16884.099833	1153.006836	-85.627052
19512.557713	16884.099833	1151.876953	-22.917652
19512.557713	16884.099833	1150.746094	102.910500
19512.557713	16884.099833	1149.615234	-17.815712
19512.557713	16884.099833	1148.484375	316.262177
19512.557713	16884.099833	1147.352539	98.232811
19512.557713	16884.099833	1146.220703	-23.381203
19512.557713	16884.099833	1145.088867	-30.240881
19512.557713	16884.099833	1143.957031	186.082611
19512.557713	16884.099833	1142.825195	251.467346
19512.557713	16884.099833	1141.692383	1.774919
19512.557713	16884.099833	1140.559570	89.790329
19512.557713	16884.099833	1139.426758	-128.799698
19512.557713	16884.099833	1138.292969	-35.602619
19512.557713	16884.099833	1137.159180	-63.485382
19512.557713	16884.099833	1136.025391	315.871613
19512.557713	16884.099833	1134.891602	28.284082
19512.557713	16884.099833	1133.757813	-136.350235
19512.557713	16884.099833	1132.623047	331.341156
19512.557713	16884.099833	1131.488281	86.409973
19512.557713	16884.099833	1130.353516	294.652496
19512.557713	16884.099833	1129.217773	183.452591
19512.557713	16884.099833	1128.083008	284.739807
19512.557713	16884.099833	1126.947266	134.067535
19512.557713	16884.099833	1125.811523	291.824219
19512.557713	16884.099833	1124.674805	186.237015
19512.557713	16884.099833	1123.539063	56.978786
19512.557713	16884.099833	1122.402344	120.641052
19512.557713	16884.099833	1121.265625	108.530777
19512.557713	16884.099833	1120.127930	201.843460
19512.557713	16884.099833	1118.990234	365.378540
19512.557713	16884.099833	1117.853516	459.818848
19512.557713	16884.099833	1116.714844	50.516636
19512.557713	16884.099833	1115.577148	405.204803
19512.557713	16884.099833	1114.439453	451.703705
19512.557713	16884.099833	1113.300781	103.622177
19512.557713	16884.099833	1112.162109	289.366058
19512.557713	16884.099833	1111.022461	410.790131
19512.557713	16884.099833	1109.883789	296.597900
19512.557713	16884.099833	1108.744141	190.920959
19512.557713	16884.099833	1107.604492	408.458740
19512.557713	16884.099833	1106.463867	358.049866
19512.557713	16884.099833	1105.324219	574.172485
19512.557713	16884.099833	1104.183594	443.441589
19512.557713	16884.099833	1103.042969	636.416504
19512.557713	16884.099833	1101.902344	670.167480
19512.557713	16884.099833	1100.760742	508.794281
19512.557713	16884.099833	1099.619141	737.165344
19512.557713	16884.099833	1098.477539	443.085266
19512.557713	16884.099833	1097.335938	780.839172
19512.557713	16884.099833	1096.193359	1115.823242
19512.557713	16884.099833	1095.051758	1021.881470
19512.557713	16884.099833	1093.909180	750.958679
19512.557713	16884.099833	1092.765625	699.745850
19512.557713	16884.099833	1091.623047	758.372986
19512.557713	16884.099833	1090.479492	716.295837
19512.557713	16884.099833	1089.335938	823.102966
19512.557713	16884.099833	1088.192383	700.583496
19512.557713	16884.099833	1087.047852	911.167908
19512.557713	16884.099833	1085.903320	697.300659
19512.557713	16884.099833	1084.758789	370.407776
19512.557713	16884.099833	1083.614258	919.434631
19512.557713	16884.099833	1082.469727	417.754517
19512.557713	16884.099833	1081.324219	454.654663
19512.557713	16884.099833	1080.178711	425.103821
19512.557713	16884.099833	1079.033203	289.686218
19512.557713	16884.099833	1077.886719	366.264954
19512.557713	16884.099833	1076.740234	593.826782
19512.557713	16884.099833	1075.593750	418.520386
19512.557713	16884.099833	1074.447266	343.891083
19512.557713	16884.099833	1073.300781	371.876648
19512.557713	16884.099833	1072.153320	500.681427
19512.557713	16884.099833	1071.005859	662.597595
19512.557713	16884.099833	1069.858398	535.984924
19512.557713	16884.099833	1068.709961	516.232971
19512.557713	16884.099833	1067.561523	522.913635
19512.557713	16884.099833	1066.413086	519.986328
19512.557713	16884.099833	1065.264648	496.906677
19512.557713	16884.099833	1064.116211	525.440674
19512.557713	16884.099833	1062.966797	839.727295
19512.557713	16884.099833	1061.817383	822.921326
19512.557713	16884.099833	1060.667969	683.275146
19512.557713	16884.099833	1059.517578	371.261414
19512.557713	16884.099833	1058.368164	504.930542
19512.557713	16884.099833	1057.217773	382.313049
19512.557713	16884.099833	1056.067383	433.025330
19512.557713	16884.099833	1054.916016	594.227051
19512.557713	16884.099833	1053.764648	636.751648
19512.557713	16884.099833	1052.613281	376.289307
19512.557713	16884.099833	1051.461914	596.729248
19512.557713	16884.099833	1050.310547	355.578094
19512.557713	16884.099833	1049.158203	347.684296
19512.557713	16884.099833	1048.005859	674.462158
19512.557713	16884.099833	1046.853516	726.025757
19512.557713	16884.099833	1045.700195	403.451691
19512.557713	16884.099833	1044.547852	272.112091
19512.557713	16884.099833	1043.394531	457.958405
19512.557713	16884.099833	1042.240234	383.733215
19512.557713	16884.099833	1041.086914	668.319092
19512.557713	16884.099833	1039.932617	734.207825
19512.557713	16884.099833	1038.778320	592.609802
19512.557713	16884.099833	1037.624023	953.668335
19512.557713	16884.099833	1036.469727	1094.917603
19512.557713	16884.099833	1035.314453	981.796448
19512.557713	16884.099833	1034.159180	1062.472900
19512.557713	16884.099833	1033.003906	1286.404907
19512.557713	16884.099833	1031.847656	1471.140503
19512.557713	16884.099833	1030.692383	1571.177734
19512.557713	16884.099833	1029.536133	1557.172607
19512.557713	16884.099833	1028.378906	1330.568970
19512.557713	16884.099833	1027.222656	1198.652710
19512.557713	16884.099833	1026.065430	817.178650
19512.557713	16884.099833	1024.908203	1001.929077
19512.557713	16884.099833	1023.750977	995.227051
19512.557713	16884.099833	1022.593750	892.423279
19512.557713	16884.099833	1021.435547	648.512268
19512.557713	16884.099833	1020.277344	458.237610
19512.557713	16884.099833	1019.119141	733.461609
19512.557713	16884.099833	1017.959961	536.446106
19512.557713	16884.099833	1016.800781	427.337402
19512.557713	16884.099833	1015.641602	445.025208
19512.557713	16884.099833	1014.482422	806.323059
19512.557713	16884.099833	1013.323242	356.702789
19512.557713	16884.099833	1012.163086	350.947144
19512.557713	16884.099833	1011.002930	358.874908
19512.557713	16884.099833	1009.842773	270.914917
19512.557713	16884.099833	1008.681641	159.832108
19512.557713	16884.099833	1007.520508	249.201447
19512.557713	16884.099833	1006.359375	461.166626
19512.557713	16884.099833	1005.198242	643.427979
19512.557713	16884.099833	1004.037109	713.666321
19512.557713	16884.099833	1002.875000	950.956787
19512.557713	16884.099833	1001.712891	682.972412
19512.557713	16884.099833	1000.550781	773.878479
19512.557713	16884.099833	999.387695	445.542755
19512.557713	16884.099833	998.224609	108.150391
19512.557713	16884.099833	997.061523	375.507233
19512.557713	16884.099833	995.898438	160.747269
19512.557713	16884.099833	994.734375	27.101288
19512.557713	16884.099833	993.571289	277.890533
19512.557713	16884.099833	992.407227	268.973663
19512.557713	16884.099833	991.242188	415.779419
19512.557713	16884.099833	990.078125	441.623688
19512.557713	16884.099833	988.913086	13.272911
19512.557713	16884.099833	987.748047	-26.885815
19512.557713	16884.099833	986.583008	134.109680
19512.557713	16884.099833	985.416992	-15.645228
19512.557713	16884.099833	984.250977	-56.181122
19512.557713	16884.099833	983.084961	-17.483097
19512.557713	16884.099833	981.918945	148.147339
19512.557713	16884.099833	980.751953	82.828720
19512.557713	16884.099833	979.584961	-256.449707
19512.557713	16884.099833	978.417969	71.487175
19512.557713	16884.099833	977.250977	-272.578186
19512.557713	16884.099833	976.083008	230.845490
19512.557713	16884.099833	974.915039	-49.795155
19512.557713	16884.099833	973.747070	144.915161
19512.557713	16884.099833	972.579102	250.260910
19512.557713	16884.099833	971.410156	93.828796
19512.557713	16884.099833	970.242188	-219.824387
19512.557713	16884.099833	969.072266	157.904541
19512.557713	16884.099833	967.903320	257.143402
19512.557713	16884.099833	966.733398	214.433228
19512.557713	16884.099833	965.563477	162.143021
19512.557713	16884.099833	964.393555	368.014282
19512.557713	16884.099833	963.223633	-69.195900
19512.557713	16884.099833	962.052734	464.260803
19512.557713	16884.099833	960.881836	164.284912
19512.557713	16884.099833	959.710938	123.250694
19512.557713	16884.099833	958.540039	290.034393
19512.557713	16884.099833	957.368164	57.020832
19512.557713	16884.099833	956.196289	119.112686
19512.557713	16884.099833	955.024414	164.647110
19512.557713	16884.099833	953.851563	234.752899
19512.557713	16884.099833	952.679688	153.976868
19512.557713	16884.099833	951.506836	-23.434458
19512.557713	16884.099833	950.333984	241.273407
19512.557713	16884.099833	949.160156	-15.128369
19512.557713	16884.099833	947.986328	291.763214
19512.557713	16884.099833	946.812500	154.377121
19512.557713	16884.099833	945.638672	-56.008148
19512.557713	16884.099833	944.464844	310.272644
19512.557713	16884.099833	943.290039	105.816582
19512.557713	16884.099833	942.115234	201.646011
19512.557713	16884.099833	940.940430	-47.441006
19512.557713	16884.099833	939.764648	72.818451
19512.557713	16884.099833	938.588867	548.618713
19512.557713	16884.099833	937.413086	233.980515
19512.557713	16884.099833	936.237305	-113.366554
19512.557713	16884.099833	935.060547	131.504333
19512.557713	16884.099833	933.883789	178.297424
19512.557713	16884.099833	932.707031	104.586082
19512.557713	16884.099833	931.530273	402.115540
19512.557713	16884.099833	930.352539	469.107391
19512.557713	16884.099833	929.175781	97.266174
19512.557713	16884.099833	927.998047	-90.796127
19512.557713	16884.099833	926.819336	92.464394
19512.557713	16884.099833	925.641602	83.824753
19512.557713	16884.099833	924.462891	20.183786
19512.557713	16884.099833	923.284180	121.691246
19512.557713	16884.099833	922.104492	-111.222580
19512.557713	16884.099833	920.924805	75.824524
19512.557713	16884.099833	919.746094	89.423843
19512.557713	16884.099833	919.551758	4.157617
19512.557713	16884.099833	918.386719	11.593098
19512.557713	16884.099833	917.220703	133.092361
19512.557713	16884.099833	916.054688	61.031788
19512.557713	16884.099833	914.887695	135.601181
19512.557713	16884.099833	913.721680	43.167728
19512.557713	16884.099833	912.554688	-8.530522
19512.557713	16884.099833	911.387695	295.904327
19512.557713	16884.099833	910.220703	26.434038
19512.557713	16884.099833	909.052734	-45.616962
19512.557713	16884.099833	907.885742	138.589355
19512.557713	16884.099833	906.717773	-102.260017
19512.557713	16884.099833	905.548828	-149.885056
19512.557713	16884.099833	904.380859	30.128536
19512.557713	16884.099833	903.211914	-324.383972
19512.557713	16884.099833	902.042969	137.983154
19512.557713	16884.099833	900.874023	9.039257
19512.557713	16884.099833	899.704102	296.479584
19512.557713	16884.099833	898.535156	86.312241
19512.557713	16884.099833	897.365234	16.305868
19512.557713	16884.099833	896.194336	-110.499825
19512.557713	16884.099833	895.024414	75.225540
19512.557713	16884.099833	893.853516	-45.474106
19512.557713	16884.099833	892.682617	-58.628582
19512.557713	16884.099833	891.511719	70.174820
19512.557713	16884.099833	890.340820	40.766769
19512.557713	16884.099833	889.168945	15.430172
19512.557713	16884.099833	887.997070	81.301193
19512.557713	16884.099833	886.825195	74.190903
19512.557713	16884.099833	885.653320	18.457254
19512.557713	16884.099833	884.480469	-179.032959
19512.557713	16884.099833	883.307617	-28.131912
19512.557713	16884.099833	882.134766	13.371808
19512.557713	16884.099833	880.961914	50.808716
19512.557713	16884.099833	879.788086	436.338501
19512.557713	16884.099833	878.614258	-32.182102
19512.557713	16884.099833	877.440430	211.591080
19512.557713	16884.099833	876.266602	111.420105
19512.557713	16884.099833	875.091797	-176.765900
19512.557713	16884.099833	873.916992	-88.782089
19512.557713	16884.099833	872.742188	-6.899648
19512.557713	16884.099833	871.567383	-333.284302
19512.557713	16884.099833	870.391602	104.241005
19512.557713	16884.099833	869.215820	-173.539322
19512.557713	16884.099833	868.040039	-243.173904
19512.557713	16884.099833	866.864258	30.501553
19512.557713	16884.099833	865.687500	-2.794976
19512.557713	16884.099833	864.510742	-108.742065
19512.557713	16884.099833	863.333984	142.553009
19512.557713	16884.099833	862.157227	-25.925238
19512.557713	16884.099833	860.979492	-218.529236
19512.557713	16884.099833	859.802734	-158.962067
19512.557713	16884.099833	858.625000	-137.717743
19512.557713	16884.099833	857.446289	-253.556015
19512.557713	16884.099833	856.268555	-153.689804
19512.557713	16884.099833	855.089844	-65.943260
19512.557713	16884.099833	853.911133	58.034142
19512.557713	16884.099833	852.731445	181.971878
19512.557713	16884.099833	851.552734	-78.809853
19512.557713	16884.099833	850.373047	-299.201721
19512.557713	16884.099833	849.193359	-8.175520
19512.557713	16884.099833	848.013672	-3.067338
19512.557713	16884.099833	846.833008	-88.503281
19512.557713	16884.099833	845.652344	13.199075
19512.557713	16884.099833	844.471680	-52.089371
19512.557713	16884.099833	843.291016	-330.519226
19512.557713	16884.099833	842.110352	-254.967682
19512.557713	16884.099833	840.928711	-101.035576
19512.557713	16884.099833	839.747070	-371.235901
19512.557713	16884.099833	838.564453	-60.603165
19512.557713	16884.099833	837.382813	-5.248987
19512.557713	16884.099833	836.200195	15.945395
19512.557713	16884.099833	835.017578	266.058716
19512.557713	16884.099833	833.834961	-138.452377
19512.557713	16884.099833	832.651367	-211.581497
19512.557713	16884.099833	831.467773	-326.830048
19512.557713	16884.099833	830.284180	-133.034409
19512.557713	16884.099833	829.100586	-97.802490
19512.557713	16884.099833	827.916992	-235.078156
19512.557713	16884.099833	826.732422	135.037415
19512.557713	16884.099833	825.547852	81.974403
19512.557713	16884.099833	824.363281	87.056442
19512.557713	16884.099833	823.177734	7.971351
19512.557713	16884.099833	821.992188	267.518372
19512.557713	16884.099833	820.806641	156.362915
19512.557713	16884.099833	819.621094	265.547241
19512.557713	16884.099833	818.434570	22.274721
19512.557713	16884.099833	817.249023	97.390549
19512.557713	16884.099833	816.062500	-21.672651
19512.557713	16884.099833	814.875000	-396.829712
19512.557713	16884.099833	813.688477	104.450172
19512.557713	16884.099833	812.500977	-212.595856
19512.557713	16884.099833	811.313477	-7.557281
19512.557713	16884.099833	810.125977	307.352173
19512.557713	16884.099833	808.937500	146.351135
19512.557713	16884.099833	807.749023	113.314941
19512.557713	16884.099833	806.560547	-359.333466
19512.557713	16884.099833	805.372070	-282.409454
19512.557713	16884.099833	804.182617	106.069160
19512.557713	16884.099833	802.994141	45.035591
19512.557713	16884.099833	801.803711	-57.901718
19512.557713	16884.099833	800.614258	270.340210
19512.557713	16884.099833	799.424805	257.151642
19512.557713	16884.099833	798.234375	-302.764709
19512.557713	16884.099833	797.043945	196.823822
19512.557713	16884.099833	795.852539	-177.401611
19512.557713	16884.099833	794.662109	357.795074
19512.557713	16884.099833	793.470703	91.294716
19512.557713	16884.099833	792.279297	289.302673
19512.557713	16884.099833	791.087891	96.600998
19512.557713	16884.099833	789.895508	162.974121
19512.557713	16884.099833	788.703125	183.469238
19512.557713	16884.099833	787.510742	195.956268
19512.557713	16884.099833	786.318359	262.162506
19512.557713	16884.099833	785.125000	117.294052
19512.557713	16884.099833	783.931641	229.202850
19512.557713	16884.099833	782.738281	426.594666
19512.557713	16884.099833	781.544922	331.401855
19512.557713	16884.099833	780.350586	212.343918
19512.557713	16884.099833	779.156250	321.997528
19512.557713	16884.099833	777.961914	451.441437
19512.557713	16884.099833	776.767578	419.768066
19512.557713	16884.099833	775.572266	-37.252476
19512.557713	16884.099833	774.376953	207.304184
19512.557713	16884.099833	773.181641	-237.660965
19512.557713	16884.099833	771.986328	52.417095
19512.557713	16884.099833	770.790039	-82.637077
19512.557713	16884.099833	769.593750	36.442818
19512.557713	16884.099833	768.397461	66.092857
19512.557713	16884.099833	767.201172	101.626068
19512.557713	16884.099833	766.003906	260.114807
19512.557713	16884.099833	764.806641	29.659504
19512.557713	16884.099833	763.609375	120.539940
19512.557713	16884.099833	762.412109	274.772217
19512.557713	16884.099833	761.213867	377.340546
19512.557713	16884.099833	760.015625	138.874817
19512.557713	16884.099833	758.817383	455.316895
19512.557713	16884.099833	757.618164	462.484741
19512.557713	16884.099833	756.419922	404.200714
19512.557713	16884.099833	755.220703	678.594360
19512.557713	16884.099833	754.021484	289.481384
19512.557713	16884.099833	752.821289	-30.248234
19512.557713	16884.099833	751.621094	309.158783
19512.557713	16884.099833	750.420898	385.163788
19512.557713	16884.099833	749.220703	340.372620
19512.557713	16884.099833	748.020508	335.076691
19512.557713	16884.099833	746.819336	270.380463
19512.557713	16884.099833	745.618164	142.355865
19512.557713	16884.099833	744.416992	486.741577
19512.557713	16884.099833	743.214844	380.296082
19512.557713	16884.099833	742.012695	637.374756
19512.557713	16884.099833	740.810547	686.823669
19512.557713	16884.099833	739.608398	560.373657
19512.557713	16884.099833	738.406250	982.845398
19512.557713	16884.099833	737.203125	1047.707886
19512.557713	16884.099833	736.000000	1463.789673
19512.557713	16884.099833	734.795898	1518.463745
19512.557713	16884.099833	733.592773	1466.459351
19512.557713	16884.099833	732.388672	1511.038208
19512.557713	16884.099833	731.184570	1626.491821
19512.557713	16884.099833	729.979492	1727.995728
19512.557713	16884.099833	728.775391	1405.489014
19512.557713	16884.099833	727.570313	941.105408
19512.557713	16884.099833	726.365234	945.795166
19512.557713	16884.099833	725.160156	905.056641
19512.557713	16884.099833	723.954102	708.617859
19512.557713	16884.099833	722.748047	825.265076
19512.557713	16884.099833	721.541992	528.272156
19512.557713	16884.099833	720.334961	638.769043
19512.557713	16884.099833	719.128906	367.280273
19512.557713	16884.099833	717.921875	237.461639
19512.557713	16884.099833	716.714844	434.137177
19512.557713	16884.099833	715.506836	260.840759
19512.557713	16884.099833	714.298828	256.601685
19512.557713	16884.099833	713.090820	136.238831
19512.557713	16884.099833	711.882813	275.254608
19512.557713	16884.099833	710.674805	182.184616
19512.557713	16884.099833	709.465820	220.663834
19512.557713	16884.099833	708.256836	207.917496
19512.557713	16884.099833	707.047852	147.903137
19512.557713	16884.099833	705.837891	278.243683
19512.557713	16884.099833	704.627930	123.731140
19512.557713	16884.099833	703.417969	-21.046013
19512.557713	16884.099833	702.208008	534.645203
19512.557713	16884.099833	700.998047	346.389435
19512.557713	16884.099833	699.787109	340.490692
19512.557713	16884.099833	698.576172	212.858826
19512.557713	16884.099833	697.364258	63.565281
19512.557713	16884.099833	696.153320	-189.714508
19512.557713	16884.099833	694.941406	344.825623
19512.557713	16884.099833	693.729492	502.773804
19512.557713	16884.099833	692.516602	21.857340
19512.557713	16884.099833	691.304688	122.694115
19512.557713	16884.099833	690.091797	336.909698
19512.557713	16884.099833	688.878906	409.913147
19512.557713	16884.099833	687.665039	494.474274
19512.557713	16884.099833	686.451172	146.346161
19512.557713	16884.099833	685.237305	250.166443
19512.557713	16884.099833	684.023438	169.898895
19512.557713	16884.099833	682.809570	511.940948
19512.557713	16884.099833	681.594727	730.489563
19512.557713	16884.099833	680.379883	958.552612
19512.557713	16884.099833	679.165039	881.447510
19512.557713	16884.099833	677.949219	892.142334
19512.557713	16884.099833	676.733398	877.262634
19512.557713	16884.099833	675.517578	1139.581055
19512.557713	16884.099833	674.301758	929.024353
19512.557713	16884.099833	673.084961	1144.017456
19512.557713	16884.099833	671.869141	823.885986
19512.557713	16884.099833	670.651367	913.557861
19512.557713	16884.099833	669.434570	729.844055
19512.557713	16884.099833	668.216797	565.539551
19512.557713	16884.099833	667.000000	502.545654
19512.557713	16884.099833	665.781250	568.099182
19512.557713	16884.099833	664.563477	383.901581
19512.557713	16884.099833	663.344727	579.686401
19512.557713	16884.099833	662.125977	870.696411
19512.557713	16884.099833	660.907227	547.677246
19512.557713	16884.099833	659.688477	464.206635
19512.557713	16884.099833	658.468750	688.295959
19512.557713	16884.099833	657.249023	590.835205
19512.557713	16884.099833	656.029297	539.953064
19512.557713	16884.099833	654.808594	543.404602
19512.557713	16884.099833	653.587891	511.644897
19512.557713	16884.099833	652.367188	650.914001
19512.557713	16884.099833	651.146484	646.006775
19512.557713	16884.099833	649.924805	248.097778
19512.557713	16884.099833	648.704102	223.464340
19512.557713	16884.099833	647.482422	647.676514
19512.557713	16884.099833	646.259766	428.255432
19512.557713	16884.099833	645.037109	640.087036
19512.557713	16884.099833	643.815430	838.046326
19512.557713	16884.099833	642.591797	1072.632202
19512.557713	16884.099833	641.369141	846.740540
19512.557713	16884.099833	640.145508	958.551453
19512.557713	16884.099833	638.921875	744.051514
19512.557713	16884.099833	637.698242	783.666748
19512.557713	16884.099833	636.474609	920.085144
19512.557713	16884.099833	635.250000	707.113037
19512.557713	16884.099833	634.025391	943.962280
19512.557713	16884.099833	632.800781	678.358093
19512.557713	16884.099833	631.575195	687.942322
19512.557713	16884.099833	630.349609	499.658112
19512.557713	16884.099833	629.124023	439.156433
19512.557713	16884.099833	627.898438	525.727112
19512.557713	16884.099833	626.671875	635.320313
19512.557713	16884.099833	625.445313	471.651245
19512.557713	16884.099833	624.218750	650.545044
19512.557713	16884.099833	622.992188	256.246796
19512.557713	16884.099833	621.764648	525.702332
19512.557713	16884.099833	620.537109	197.022263
19512.557713	16884.099833	619.309570	54.004467
19512.557713	16884.099833	618.081055	175.817276
19512.557713	16884.099833	616.852539	305.140106
19512.557713	16884.099833	615.624023	151.997650
19512.557713	16884.099833	614.395508	105.047409
19512.557713	16884.099833	613.166992	162.290710
19512.557713	16884.099833	611.937500	-10.559654
19512.557713	16884.099833	610.708008	102.354416
19512.557713	16884.099833	609.477539	-74.613823
19512.557713	16884.099833	608.248047	-178.301331
19512.557713	16884.099833	607.017578	119.379715
19512.557713	16884.099833	605.787109	-166.041946
19512.557713	16884.099833	604.555664	-252.779755
19512.557713	16884.099833	603.325195	-34.845295
19512.557713	16884.099833	602.093750	-170.104630
19512.557713	16884.099833	600.861328	-68.300484
19512.557713	16884.099833	599.629883	48.734215
19512.557713	16884.099833	598.397461	-5.976593
19512.557713	16884.099833	597.165039	118.393883
19512.557713	16884.099833	595.932617	5.593723
19512.557713	16884.099833	594.699219	-261.405548
19512.557713	16884.099833	593.465820	-174.098938
19512.557713	16884.099833	592.232422	159.470764
19512.557713	16884.099833	590.999023	-150.166962
19512.557713	16884.099833	589.764648	-113.408020
19512.557713	16884.099833	588.530273	-346.176483
19512.557713	16884.099833	587.295898	-263.493530
19512.557713	16884.099833	586.061523	-315.608795
19512.557713	16884.099833	584.826172	-454.369598
19512.557713	16884.099833	583.590820	-441.324463
19512.557713	16884.099833	582.355469	75.169678
19512.557713	16884.099833	581.119141	-85.109673
19512.557713	16884.099833	579.882813	2.398734
19512.557713	16884.099833	578.646484	-44.706856
19512.557713	16884.099833	577.410156	-147.601608
19512.557713	16884.099833	576.172852	133.429230
19512.557713	16884.099833	574.935547	-86.786926
19512.557713	16884.099833	573.698242	115.203720
19512.557713	16884.099833	572.460938	338.108948
19512.557713	16884.099833	571.222656	445.705811
19512.557713	16884.099833	569.984375	514.794800
19512.557713	16884.099833	568.746094	282.700897
19512.557713	16884.099833	567.506836	654.503784
19512.557713	16884.099833	566.267578	150.105789
19512.557713	16884.099833	565.028320	349.124969
19512.557713	16884.099833	563.789063	193.526993
19512.557713	16884.099833	562.548828	250.524185
19512.557713	16884.099833	561.309570	280.612518
19512.557713	16884.099833	560.068359	274.212097
19512.557713	16884.099833	558.828125	53.348003
19512.557713	16884.099833	557.586914	464.074554
19512.557713	16884.099833	556.345703	153.179382
19512.557713	16884.099833	555.104492	192.436890
19512.557713	16884.099833	553.863281	114.941734
19512.557713	16884.099833	552.621094	16.374588
19512.557713	16884.099833	551.378906	315.451050
19512.557713	16884.099833	550.136719	109.728645
19512.557713	16884.099833	548.893555	307.253174
19512.557713	16884.099833	547.650391	143.539124
19512.557713	16884.099833	546.407227	358.063934
19512.557713	16884.099833	545.164063	473.144836
19512.557713	16884.099833	543.919922	66.864517
19512.557713	16884.099833	542.675781	31.057880
19512.557713	16884.099833	541.431641	46.760822
19512.557713	16884.099833	540.186523	-162.748795
19512.557713	16884.099833	538.941406	232.553329
19512.557713	16884.099833	537.696289	291.964722
19512.557713	16884.099833	536.451172	111.054390
19512.557713	16884.099833	535.205078	341.992493
19512.557713	16884.099833	533.959961	340.276245
19512.557713	16884.099833	532.712891	-149.337021
19512.557713	16884.099833	531.466797	140.515366
19512.557713	16884.099833	530.219727	-164.104401
19512.557713	16884.099833	528.972656	-200.074600
19512.557713	16884.099833	527.725586	142.868607
19512.557713	16884.099833	526.478516	-136.837112
19512.557713	16884.099833	525.230469	2.272828
19512.557713	16884.099833	523.982422	171.765106
19512.557713	16884.099833	522.734375	-8.864272
19512.557713	16884.099833	521.485352	-103.834572
19512.557713	16884.099833	520.236328	-63.751247
19512.557713	16884.099833	518.987305	-36.989700
19512.557713	16884.099833	517.737305	307.187561
19512.557713	16884.099833	516.488281	409.882080
19512.557713	16884.099833	515.238281	178.135498
19512.557713	16884.099833	513.988281	178.242172
19512.557713	16884.099833	512.737305	385.355194
19512.557713	16884.099833	511.486328	258.208069
19512.557713	16884.099833	510.235352	226.045639
19512.557713	16884.099833	508.984375	374.210236
19512.557713	16884.099833	507.732422	313.582947
19512.557713	16884.099833	506.480469	535.666199
19512.557713	16884.099833	505.228516	706.454163
19512.557713	16884.099833	503.976563	687.548279
19512.557713	16884.099833	502.723633	829.803711
19512.557713	16884.099833	501.470703	871.548279
19512.557713	16884.099833	500.217773	1017.515625
19512.557713	16884.099833	498.963867	1517.722534
19512.557713	16884.099833	497.709961	1510.058472
19512.557713	16884.099833	496.456055	1627.399414
19512.557713	16884.099833	495.202148	1689.786621
19512.557713	16884.099833	493.947266	1964.159912
19512.557713	16884.099833	492.692383	2437.144287
19512.557713	16884.099833	491.437500	2665.827393
19512.557713	16884.099833	490.181641	2699.542725
19512.557713	16884.099833	488.926758	2457.100098
19512.557713	16884.099833	487.670898	2309.295410
19512.557713	16884.099833	486.414063	2832.695801
19512.557713	16884.099833	485.158203	2161.262451
19512.557713	16884.099833	483.901367	1992.772827
19512.557713	16884.099833	482.644531	1744.978760
19512.557713	16884.099833	481.386719	1771.155029
19512.557713	16884.099833	480.128906	1789.734375
19512.557713	16884.099833	478.871094	1745.957886
19512.557713	16884.099833	477.613281	1681.392334
19512.557713	16884.099833	476.355469	2128.276123
19512.557713	16884.099833	475.096680	1878.624268
19512.557713	16884.099833	473.837891	1911.997070
19512.557713	16884.099833	472.578125	1950.933960
19512.557713	16884.099833	471.319336	2233.047607
19512.557713	16884.099833	470.059570	2085.094971
19512.557713	16884.099833	468.799805	2129.375244
19512.557713	16884.099833	467.539063	2167.871338
19512.557713	16884.099833	466.278320	1821.889282
19512.557713	16884.099833	465.017578	2123.923340
19512.557713	16884.099833	463.756836	2229.836914
19512.557713	16884.099833	462.495117	2079.485840
19512.557713	16884.099833	461.233398	2102.237061
19512.557713	16884.099833	459.971680	1902.733276
19512.557713	16884.099833	458.709961	1765.236328
19512.557713	16884.099833	457.447266	2062.167969
19512.557713	16884.099833	456.184570	1965.680176
19512.557713	16884.099833	454.921875	2258.267822
19512.557713	16884.099833	453.658203	2003.404785
19512.557713	16884.099833	452.394531	2507.773682
19512.557713	16884.099833	451.130859	2498.645996
19512.557713	16884.099833	449.867188	2222.457520
19512.557713	16884.099833	448.602539	2272.927246
19512.557713	16884.099833	447.337891	2555.938965
19512.557713	16884.099833	446.073242	2340.943359
19512.557713	16884.099833	444.807617	2228.930420
19512.557713	16884.099833	443.542969	2302.413330
19512.557713	16884.099833	442.276367	2336.052246
19512.557713	16884.099833	441.010742	2562.510010
19512.557713	16884.099833	439.744141	2683.399170
19512.557713	16884.099833	438.478516	2695.043457
19512.557713	16884.099833	437.210938	2668.687500
19512.557713	16884.099833	435.944336	2480.670898
19512.557713	16884.099833	434.676758	2608.893555
19512.557713	16884.099833	433.409180	2605.368896
19512.557713	16884.099833	432.141602	2794.203857
19512.557713	16884.099833	430.873047	2819.416748
19512.557713	16884.099833	429.604492	2681.099609
19512.557713	16884.099833	428.335938	2727.503174
19512.557713	16884.099833	427.067383	2928.535645
19512.557713	16884.099833	425.797852	2612.322510
19512.557713	16884.099833	424.528320	2619.124512
19512.557713	16884.099833	423.258789	2711.174561
19512.557713	16884.099833	421.988281	2568.613281
19512.557713	16884.099833	420.717773	2567.338623
19512.557713	16884.099833	419.447266	2639.939697
19512.557713	16884.099833	418.175781	2685.400146
19512.557713	16884.099833	416.905273	2597.253174
19512.557713	16884.099833	415.633789	2425.932617
19512.557713	16884.099833	414.362305	2403.036621
19512.557713	16884.099833	413.089844	2429.449463
19512.557713	16884.099833	411.817383	2712.315674
19512.557713	16884.099833	410.544922	2514.263672
19512.557713	16884.099833	409.272461	2643.465576
19512.557713	16884.099833	407.999023	2554.925537
19512.557713	16884.099833	406.725586	2731.806396
19512.557713	16884.099833	405.452148	2750.617920
19512.557713	16884.099833	404.177734	2477.160400
19512.557713	16884.099833	402.903320	2694.393799
19512.557713	16884.099833	401.628906	2749.760010
19512.557713	16884.099833	400.354492	2758.814453
19512.557713	16884.099833	399.079102	2699.143555
19512.557713	16884.099833	397.803711	2602.423340
19512.557713	16884.099833	396.528320	2455.587402
19512.557713	16884.099833	395.251953	2681.098633
19512.557713	16884.099833	393.976563	2510.152100
19512.557713	16884.099833	392.700195	2372.650146
19512.557713	16884.099833	391.422852	2259.197754
19512.557713	16884.099833	390.145508	2723.961426
19512.557713	16884.099833	388.869141	2379.467773
19512.557713	16884.099833	387.590820	2399.025879
19512.557713	16884.099833	386.313477	2312.256348
19512.557713	16884.099833	385.035156	2472.102295
19512.557713	16884.099833	383.756836	2215.162109
19512.557713	16884.099833	382.478516	2267.842773
19512.557713	16884.099833	381.199219	2505.396240
19512.557713	16884.099833	379.919922	2207.337402
19512.557713	16884.099833	378.640625	2500.600098
19512.557713	16884.099833	377.360352	2178.430908
19512.557713	16884.099833	376.080078	1970.341675
19512.557713	16884.099833	374.799805	2078.353271
19512.557713	16884.099833	373.519531	2133.121338
19512.557713	16884.099833	372.238281	2208.668213
19512.557713	16884.099833	370.957031	2317.939697
19512.557713	16884.099833	369.675781	2418.182617
19512.557713	16884.099833	368.394531	2205.430664
19512.557713	16884.099833	367.112305	2050.190918
19512.557713	16884.099833	365.830078	1869.066284
19512.557713	16884.099833	364.546875	2224.771729
19512.557713	16884.099833	363.264648	1810.034424
19512.557713	16884.099833	361.981445	1778.148193
19512.557713	16884.099833	360.698242	1638.467651
19512.557713	16884.099833	359.414063	1413.033447
19512.557713	16884.099833	358.129883	1710.427490
19512.557713	16884.099833	356.845703	1078.505493
19512.557713	16884.099833	355.561523	1314.846802
19512.557713	16884.099833	354.276367	1263.342651
19512.557713	16884.099833	352.991211	1816.773071
19512.557713	16884.099833	351.706055	1670.174072
19512.557713	16884.099833	350.420898	1139.735474
19512.557713	16884.099833	349.134766	1462.821289
19512.557713	16884.099833	347.848633	1268.793457
19512.557713	16884.099833	346.561523	1150.286743
19512.557713	16884.099833	345.275391	1173.820557
19512.557713	16884.099833	343.988281	1098.977295
19512.557713	16884.099833	342.700195	1135.965576
19512.557713	16884.099833	341.413086	1052.459106
19512.557713	16884.099833	340.125000	857.276611
19512.557713	16884.099833	338.836914	932.116028
19512.557713	16884.099833	337.548828	616.753174
19512.557713	16884.099833	336.259766	720.083252
19512.557713	16884.099833	334.970703	541.714844
19512.557713	16884.099833	333.681641	532.940918
19512.557713	16884.099833	332.391602	105.797356
19512.557713	16884.099833	331.101563	451.815918
19512.557713	16884.099833	329.811523	198.895782
19512.557713	16884.099833	328.521484	445.963776
19512.557713	16884.099833	327.230469	408.419464
19512.557713	16884.099833	325.939453	224.435333
19512.557713	16884.099833	324.648438	98.039993
19512.557713	16884.099833	323.356445	104.144485
19512.557713	16884.099833	322.064453	139.713318
19512.557713	16884.099833	320.772461	143.864502
19512.557713	16884.099833	319.480469	-140.877838
19512.557713	16884.099833	318.187500	-220.612350
19512.557713	16884.099833	316.894531	-207.500702
19512.557713	16884.099833	315.601563	-118.359779
19512.557713	16884.099833	314.307617	3.987982
19512.557713	16884.099833	313.013672	-174.524307
19512.557713	16884.099833	311.719727	-57.508282
19512.557713	16884.099833	310.425781	-261.908142
19512.557713	16884.099833	309.130859	-283.641052
19512.557713	16884.099833	307.835938	-60.432289
19512.557713	16884.099833	306.541016	49.744007
19512.557713	16884.099833	305.245117	-27.000799
19512.557713	16884.099833	303.949219	-131.036987
19512.557713	16884.099833	302.653320	395.193176
19512.557713	16884.099833	301.356445	262.717621
19512.557713	16884.099833	300.060547	697.756348
19512.557713	16884.099833	298.763672	640.432556
