#X		#Y		#Wave		#Intensity
2750.302872	17405.038667	2000.043945	-29.333305
2750.302872	17405.038667	1999.080078	-16.346949
2750.302872	17405.038667	1998.116211	-19.919182
2750.302872	17405.038667	1997.151367	50.742355
2750.302872	17405.038667	1996.186523	138.608673
2750.302872	17405.038667	1995.222656	-9.005095
2750.302872	17405.038667	1994.256836	-8.058624
2750.302872	17405.038667	1993.291992	-46.838764
2750.302872	17405.038667	1992.327148	60.373070
2750.302872	17405.038667	1991.361328	-89.991127
2750.302872	17405.038667	1990.395508	170.446198
2750.302872	17405.038667	1989.429688	27.356918
2750.302872	17405.038667	1988.463867	96.997818
2750.302872	17405.038667	1987.497070	84.902832
2750.302872	17405.038667	1986.531250	164.233078
2750.302872	17405.038667	1985.564453	132.186249
2750.302872	17405.038667	1984.597656	40.741676
2750.302872	17405.038667	1983.630859	-92.762115
2750.302872	17405.038667	1982.664063	70.262367
2750.302872	17405.038667	1981.696289	-65.808945
2750.302872	17405.038667	1980.728516	30.315872
2750.302872	17405.038667	1979.761719	69.530533
2750.302872	17405.038667	1978.792969	-9.862025
2750.302872	17405.038667	1977.825195	-76.941399
2750.302872	17405.038667	1976.857422	48.489246
2750.302872	17405.038667	1975.888672	-102.604034
2750.302872	17405.038667	1974.919922	-46.417500
2750.302872	17405.038667	1973.951172	-22.375841
2750.302872	17405.038667	1972.982422	75.605972
2750.302872	17405.038667	1972.013672	62.524055
2750.302872	17405.038667	1971.043945	19.811754
2750.302872	17405.038667	1970.075195	68.287735
2750.302872	17405.038667	1969.105469	-6.539809
2750.302872	17405.038667	1968.135742	24.587957
2750.302872	17405.038667	1967.165039	-33.035610
2750.302872	17405.038667	1966.195313	59.596775
2750.302872	17405.038667	1965.224609	56.101208
2750.302872	17405.038667	1964.253906	-63.168766
2750.302872	17405.038667	1963.283203	-91.328773
2750.302872	17405.038667	1962.312500	-97.353859
2750.302872	17405.038667	1961.341797	46.725224
2750.302872	17405.038667	1960.370117	50.461060
2750.302872	17405.038667	1959.399414	22.184341
2750.302872	17405.038667	1958.427734	-79.902664
2750.302872	17405.038667	1957.455078	-66.384659
2750.302872	17405.038667	1956.483398	-45.518818
2750.302872	17405.038667	1955.511719	31.861462
2750.302872	17405.038667	1954.539063	-84.989471
2750.302872	17405.038667	1953.566406	-219.018509
2750.302872	17405.038667	1952.593750	35.201756
2750.302872	17405.038667	1951.621094	168.934586
2750.302872	17405.038667	1950.647461	39.793011
2750.302872	17405.038667	1949.674805	183.266937
2750.302872	17405.038667	1948.701172	-12.152124
2750.302872	17405.038667	1947.727539	148.433090
2750.302872	17405.038667	1946.753906	-24.842760
2750.302872	17405.038667	1945.780273	74.313194
2750.302872	17405.038667	1944.805664	43.390144
2750.302872	17405.038667	1943.831055	24.733498
2750.302872	17405.038667	1942.856445	-45.429432
2750.302872	17405.038667	1941.881836	-54.272717
2750.302872	17405.038667	1940.907227	15.329327
2750.302872	17405.038667	1939.932617	278.538483
2750.302872	17405.038667	1938.957031	73.561516
2750.302872	17405.038667	1937.981445	101.427246
2750.302872	17405.038667	1937.005859	48.434101
2750.302872	17405.038667	1936.030273	137.515244
2750.302872	17405.038667	1935.054688	96.768822
2750.302872	17405.038667	1934.078125	-125.147423
2750.302872	17405.038667	1933.101563	-134.014328
2750.302872	17405.038667	1932.125000	94.524956
2750.302872	17405.038667	1931.148438	63.590961
2750.302872	17405.038667	1930.171875	27.772911
2750.302872	17405.038667	1929.194336	23.764507
2750.302872	17405.038667	1928.217773	-19.374390
2750.302872	17405.038667	1927.240234	-84.505783
2750.302872	17405.038667	1926.262695	-68.937035
2750.302872	17405.038667	1925.284180	12.620169
2750.302872	17405.038667	1924.306641	96.589859
2750.302872	17405.038667	1923.328125	63.244686
2750.302872	17405.038667	1922.350586	-21.389809
2750.302872	17405.038667	1921.372070	57.652340
2750.302872	17405.038667	1920.392578	-41.603367
2750.302872	17405.038667	1919.414063	12.996472
2750.302872	17405.038667	1918.434570	48.046658
2750.302872	17405.038667	1917.456055	17.185898
2750.302872	17405.038667	1916.476563	-3.902185
2750.302872	17405.038667	1915.497070	-27.422670
2750.302872	17405.038667	1914.516602	141.768951
2750.302872	17405.038667	1913.537109	137.740036
2750.302872	17405.038667	1912.556641	-95.494850
2750.302872	17405.038667	1911.576172	68.737076
2750.302872	17405.038667	1910.595703	220.720871
2750.302872	17405.038667	1909.615234	-0.215466
2750.302872	17405.038667	1908.633789	-18.836712
2750.302872	17405.038667	1907.653320	38.067905
2750.302872	17405.038667	1906.671875	70.592949
2750.302872	17405.038667	1905.690430	49.531181
2750.302872	17405.038667	1904.708984	-3.176187
2750.302872	17405.038667	1903.727539	-97.248138
2750.302872	17405.038667	1902.745117	-45.257175
2750.302872	17405.038667	1901.762695	35.911667
2750.302872	17405.038667	1900.780273	-11.896173
2750.302872	17405.038667	1899.797852	-137.527664
2750.302872	17405.038667	1898.815430	106.549103
2750.302872	17405.038667	1897.832031	-43.380051
2750.302872	17405.038667	1896.849609	86.319321
2750.302872	17405.038667	1895.866211	87.141960
2750.302872	17405.038667	1894.882813	63.657825
2750.302872	17405.038667	1893.898438	183.531555
2750.302872	17405.038667	1892.915039	184.321426
2750.302872	17405.038667	1891.930664	211.821884
2750.302872	17405.038667	1890.947266	130.029663
2750.302872	17405.038667	1889.962891	-7.581137
2750.302872	17405.038667	1888.977539	-67.468979
2750.302872	17405.038667	1887.993164	-107.924232
2750.302872	17405.038667	1887.007813	-87.710175
2750.302872	17405.038667	1886.023438	36.811535
2750.302872	17405.038667	1885.038086	30.292608
2750.302872	17405.038667	1884.051758	1.939561
2750.302872	17405.038667	1883.066406	-77.331902
2750.302872	17405.038667	1882.081055	107.663177
2750.302872	17405.038667	1881.094727	45.347000
2750.302872	17405.038667	1880.108398	-48.460537
2750.302872	17405.038667	1879.122070	12.821085
2750.302872	17405.038667	1878.135742	35.308514
2750.302872	17405.038667	1877.148438	45.664108
2750.302872	17405.038667	1876.162109	152.865189
2750.302872	17405.038667	1875.174805	-18.416311
2750.302872	17405.038667	1874.187500	-5.677874
2750.302872	17405.038667	1873.199219	-111.550186
2750.302872	17405.038667	1872.211914	-69.794128
2750.302872	17405.038667	1871.223633	-132.100220
2750.302872	17405.038667	1870.236328	-3.311316
2750.302872	17405.038667	1869.248047	-70.477402
2750.302872	17405.038667	1868.258789	-28.830578
2750.302872	17405.038667	1867.270508	150.577393
2750.302872	17405.038667	1866.282227	196.962418
2750.302872	17405.038667	1865.292969	-73.260521
2750.302872	17405.038667	1864.303711	-169.443253
2750.302872	17405.038667	1863.314453	-62.695786
2750.302872	17405.038667	1862.324219	167.164398
2750.302872	17405.038667	1861.334961	-25.666201
2750.302872	17405.038667	1860.344727	22.981787
2750.302872	17405.038667	1859.354492	141.589600
2750.302872	17405.038667	1858.364258	129.804031
2750.302872	17405.038667	1857.374023	-34.018120
2750.302872	17405.038667	1856.383789	94.105881
2750.302872	17405.038667	1855.392578	14.719698
2750.302872	17405.038667	1854.401367	-59.840832
2750.302872	17405.038667	1853.410156	157.344528
2750.302872	17405.038667	1852.418945	24.870838
2750.302872	17405.038667	1851.426758	-6.353140
2750.302872	17405.038667	1850.435547	46.746590
2750.302872	17405.038667	1849.443359	63.655209
2750.302872	17405.038667	1848.451172	99.796593
2750.302872	17405.038667	1847.458984	-25.472488
2750.302872	17405.038667	1846.466797	65.989876
2750.302872	17405.038667	1845.473633	27.377438
2750.302872	17405.038667	1844.480469	200.566345
2750.302872	17405.038667	1843.487305	135.400681
2750.302872	17405.038667	1842.494141	65.411987
2750.302872	17405.038667	1841.500977	31.499035
2750.302872	17405.038667	1840.506836	100.985283
2750.302872	17405.038667	1839.513672	-12.355341
2750.302872	17405.038667	1838.519531	186.870804
2750.302872	17405.038667	1837.525391	111.940498
2750.302872	17405.038667	1836.530273	99.486633
2750.302872	17405.038667	1835.536133	274.429932
2750.302872	17405.038667	1834.541016	48.042648
2750.302872	17405.038667	1833.545898	179.607574
2750.302872	17405.038667	1832.550781	133.361389
2750.302872	17405.038667	1831.555664	67.879631
2750.302872	17405.038667	1830.560547	108.009315
2750.302872	17405.038667	1829.564453	188.883057
2750.302872	17405.038667	1828.568359	212.085648
2750.302872	17405.038667	1827.572266	220.837189
2750.302872	17405.038667	1826.576172	116.790337
2750.302872	17405.038667	1825.580078	0.743344
2750.302872	17405.038667	1824.583008	9.387201
2750.302872	17405.038667	1823.585938	39.555962
2750.302872	17405.038667	1822.588867	21.722654
2750.302872	17405.038667	1821.591797	66.160118
2750.302872	17405.038667	1820.594727	55.416595
2750.302872	17405.038667	1819.596680	265.033447
2750.302872	17405.038667	1818.599609	211.039429
2750.302872	17405.038667	1817.601563	-139.949005
2750.302872	17405.038667	1816.603516	181.965103
2750.302872	17405.038667	1815.604492	115.884460
2750.302872	17405.038667	1814.606445	-148.882492
2750.302872	17405.038667	1813.607422	86.538170
2750.302872	17405.038667	1812.608398	-17.932964
2750.302872	17405.038667	1811.609375	-93.713432
2750.302872	17405.038667	1810.610352	-45.156311
2750.302872	17405.038667	1809.610352	53.540054
2750.302872	17405.038667	1808.611328	140.189667
2750.302872	17405.038667	1807.611328	23.569162
2750.302872	17405.038667	1806.611328	165.038940
2750.302872	17405.038667	1805.610352	117.629959
2750.302872	17405.038667	1804.610352	-149.603104
2750.302872	17405.038667	1803.609375	41.795696
2750.302872	17405.038667	1802.608398	-134.698761
2750.302872	17405.038667	1801.607422	-10.350611
2750.302872	17405.038667	1800.606445	51.824043
2750.302872	17405.038667	1799.605469	51.856976
2750.302872	17405.038667	1798.603516	-217.821808
2750.302872	17405.038667	1797.601563	120.917206
2750.302872	17405.038667	1796.599609	80.193710
2750.302872	17405.038667	1795.597656	17.957470
2750.302872	17405.038667	1794.595703	129.744186
2750.302872	17405.038667	1793.592773	-27.971462
2750.302872	17405.038667	1792.589844	19.290962
2750.302872	17405.038667	1791.587891	-24.083532
2750.302872	17405.038667	1790.583984	101.651787
2750.302872	17405.038667	1789.581055	29.554104
2750.302872	17405.038667	1788.577148	174.150894
2750.302872	17405.038667	1787.574219	40.017586
2750.302872	17405.038667	1786.570313	-29.853733
2750.302872	17405.038667	1785.566406	-4.551456
2750.302872	17405.038667	1784.561523	-29.311378
2750.302872	17405.038667	1783.557617	86.262810
2750.302872	17405.038667	1782.552734	-36.183987
2750.302872	17405.038667	1781.547852	-15.940052
2750.302872	17405.038667	1780.542969	-29.068186
2750.302872	17405.038667	1779.538086	-66.038406
2750.302872	17405.038667	1778.532227	-205.290955
2750.302872	17405.038667	1777.527344	-2.302688
2750.302872	17405.038667	1776.521484	155.383057
2750.302872	17405.038667	1775.515625	-7.806727
2750.302872	17405.038667	1774.508789	-52.241203
2750.302872	17405.038667	1773.502930	114.646301
2750.302872	17405.038667	1772.496094	-136.523010
2750.302872	17405.038667	1771.489258	132.251434
2750.302872	17405.038667	1770.482422	-50.138012
2750.302872	17405.038667	1769.475586	-75.902466
2750.302872	17405.038667	1768.467773	59.608051
2750.302872	17405.038667	1767.460938	26.567568
2750.302872	17405.038667	1766.453125	-58.719906
2750.302872	17405.038667	1765.445313	-108.479889
2750.302872	17405.038667	1764.437500	50.345089
2750.302872	17405.038667	1763.428711	-63.573799
2750.302872	17405.038667	1762.420898	-61.388939
2750.302872	17405.038667	1761.412109	82.887619
2750.302872	17405.038667	1760.403320	35.136204
2750.302872	17405.038667	1759.393555	-17.416574
2750.302872	17405.038667	1758.384766	-46.336567
2750.302872	17405.038667	1757.375000	-148.728149
2750.302872	17405.038667	1756.366211	108.679077
2750.302872	17405.038667	1755.356445	-164.269333
2750.302872	17405.038667	1754.345703	-15.975989
2750.302872	17405.038667	1753.335938	129.825089
2750.302872	17405.038667	1752.325195	-43.855904
2750.302872	17405.038667	1751.315430	-63.812260
2750.302872	17405.038667	1750.304688	95.865364
2750.302872	17405.038667	1749.292969	-37.754875
2750.302872	17405.038667	1748.282227	-195.033188
2750.302872	17405.038667	1747.270508	63.599510
2750.302872	17405.038667	1746.259766	14.897584
2750.302872	17405.038667	1745.248047	58.262878
2750.302872	17405.038667	1744.235352	-7.119209
2750.302872	17405.038667	1743.223633	-96.160873
2750.302872	17405.038667	1742.211914	95.714249
2750.302872	17405.038667	1741.199219	86.784401
2750.302872	17405.038667	1740.186523	-44.942474
2750.302872	17405.038667	1739.173828	54.548378
2750.302872	17405.038667	1738.160156	38.318222
2750.302872	17405.038667	1737.147461	12.588595
2750.302872	17405.038667	1736.133789	-34.438080
2750.302872	17405.038667	1735.120117	-76.809113
2750.302872	17405.038667	1734.106445	-114.524338
2750.302872	17405.038667	1733.091797	-15.605811
2750.302872	17405.038667	1732.078125	-15.766783
2750.302872	17405.038667	1731.063477	28.754093
2750.302872	17405.038667	1730.048828	106.160881
2750.302872	17405.038667	1729.034180	11.535830
2750.302872	17405.038667	1728.019531	39.316662
2750.302872	17405.038667	1727.003906	-13.041485
2750.302872	17405.038667	1725.988281	21.636478
2750.302872	17405.038667	1724.972656	-148.515411
2750.302872	17405.038667	1723.957031	116.609581
2750.302872	17405.038667	1722.941406	71.036118
2750.302872	17405.038667	1721.924805	-47.514343
2750.302872	17405.038667	1720.909180	116.100082
2750.302872	17405.038667	1719.892578	-66.041313
2750.302872	17405.038667	1718.875977	29.190228
2750.302872	17405.038667	1717.858398	11.493464
2750.302872	17405.038667	1716.841797	106.528427
2750.302872	17405.038667	1715.824219	-24.087988
2750.302872	17405.038667	1714.806641	-107.749191
2750.302872	17405.038667	1713.789063	5.814724
2750.302872	17405.038667	1712.770508	48.816887
2750.302872	17405.038667	1711.752930	171.554749
2750.302872	17405.038667	1710.734375	89.972733
2750.302872	17405.038667	1709.715820	118.640686
2750.302872	17405.038667	1708.697266	-101.463425
2750.302872	17405.038667	1707.678711	103.017258
2750.302872	17405.038667	1706.659180	75.161774
2750.302872	17405.038667	1705.640625	44.912910
2750.302872	17405.038667	1704.621094	157.602081
2750.302872	17405.038667	1703.600586	-97.821236
2750.302872	17405.038667	1702.581055	26.433832
2750.302872	17405.038667	1701.561523	-90.755920
2750.302872	17405.038667	1700.541016	66.101311
2750.302872	17405.038667	1699.520508	26.095642
2750.302872	17405.038667	1698.500000	185.079132
2750.302872	17405.038667	1697.478516	51.275875
2750.302872	17405.038667	1696.458008	153.884705
2750.302872	17405.038667	1695.436523	69.155968
2750.302872	17405.038667	1694.415039	209.020920
2750.302872	17405.038667	1693.393555	224.779938
2750.302872	17405.038667	1692.372070	238.130844
2750.302872	17405.038667	1691.349609	221.003464
2750.302872	17405.038667	1690.327148	143.030533
2750.302872	17405.038667	1689.304688	268.398163
2750.302872	17405.038667	1688.282227	213.694839
2750.302872	17405.038667	1687.259766	254.757111
2750.302872	17405.038667	1686.236328	279.379822
2750.302872	17405.038667	1685.213867	194.161591
2750.302872	17405.038667	1684.190430	337.770569
2750.302872	17405.038667	1683.166016	336.492371
2750.302872	17405.038667	1682.142578	267.467957
2750.302872	17405.038667	1681.119141	205.414948
2750.302872	17405.038667	1680.094727	516.688477
2750.302872	17405.038667	1679.070313	291.171021
2750.302872	17405.038667	1678.045898	380.594604
2750.302872	17405.038667	1677.020508	297.334808
2750.302872	17405.038667	1675.996094	211.731430
2750.302872	17405.038667	1674.970703	541.070984
2750.302872	17405.038667	1673.945313	450.676514
2750.302872	17405.038667	1672.919922	304.333954
2750.302872	17405.038667	1671.893555	404.962555
2750.302872	17405.038667	1670.868164	556.762024
2750.302872	17405.038667	1669.841797	748.035950
2750.302872	17405.038667	1668.815430	547.978882
2750.302872	17405.038667	1667.789063	634.316162
2750.302872	17405.038667	1666.761719	648.401428
2750.302872	17405.038667	1665.735352	676.409424
2750.302872	17405.038667	1664.708008	688.060425
2750.302872	17405.038667	1663.680664	783.411438
2750.302872	17405.038667	1662.653320	801.925232
2750.302872	17405.038667	1661.625000	813.399597
2750.302872	17405.038667	1660.597656	813.213745
2750.302872	17405.038667	1659.569336	764.157043
2750.302872	17405.038667	1658.541016	773.180176
2750.302872	17405.038667	1657.512695	965.730347
2750.302872	17405.038667	1656.483398	956.032898
2750.302872	17405.038667	1655.455078	988.121826
2750.302872	17405.038667	1654.425781	829.716797
2750.302872	17405.038667	1653.396484	891.913208
2750.302872	17405.038667	1652.366211	1044.573242
2750.302872	17405.038667	1651.336914	1074.138184
2750.302872	17405.038667	1650.306641	1152.374512
2750.302872	17405.038667	1649.276367	1209.665771
2750.302872	17405.038667	1648.246094	1065.094116
2750.302872	17405.038667	1647.215820	971.566345
2750.302872	17405.038667	1646.185547	1096.004517
2750.302872	17405.038667	1645.154297	1387.267334
2750.302872	17405.038667	1644.123047	1379.386475
2750.302872	17405.038667	1643.091797	1415.509155
2750.302872	17405.038667	1642.060547	1453.906860
2750.302872	17405.038667	1641.028320	1253.651245
2750.302872	17405.038667	1639.997070	1248.005737
2750.302872	17405.038667	1638.964844	1328.001831
2750.302872	17405.038667	1637.931641	1428.765137
2750.302872	17405.038667	1636.899414	1332.728271
2750.302872	17405.038667	1635.867188	1472.758911
2750.302872	17405.038667	1634.833984	1457.675659
2750.302872	17405.038667	1633.800781	1340.790649
2750.302872	17405.038667	1632.767578	1381.206299
2750.302872	17405.038667	1631.734375	1451.649048
2750.302872	17405.038667	1630.700195	1515.096924
2750.302872	17405.038667	1629.666016	1532.271973
2750.302872	17405.038667	1628.631836	1681.155762
2750.302872	17405.038667	1627.597656	1626.628052
2750.302872	17405.038667	1626.563477	1535.143799
2750.302872	17405.038667	1625.528320	1704.670410
2750.302872	17405.038667	1624.493164	1624.713989
2750.302872	17405.038667	1623.458008	1653.291260
2750.302872	17405.038667	1622.422852	1813.426636
2750.302872	17405.038667	1621.387695	1943.485352
2750.302872	17405.038667	1620.351563	1893.485229
2750.302872	17405.038667	1619.315430	1797.355713
2750.302872	17405.038667	1618.279297	1632.057617
2750.302872	17405.038667	1617.243164	1695.128052
2750.302872	17405.038667	1616.207031	1608.296509
2750.302872	17405.038667	1615.169922	1618.302612
2750.302872	17405.038667	1614.132813	1812.687012
2750.302872	17405.038667	1613.095703	1723.556274
2750.302872	17405.038667	1612.058594	1892.496094
2750.302872	17405.038667	1611.020508	1812.583252
2750.302872	17405.038667	1609.983398	1638.290405
2750.302872	17405.038667	1608.945313	1873.912476
2750.302872	17405.038667	1607.907227	1842.398193
2750.302872	17405.038667	1606.868164	1705.009766
2750.302872	17405.038667	1605.830078	1719.573486
2750.302872	17405.038667	1604.791016	2063.135254
2750.302872	17405.038667	1603.751953	1877.493164
2750.302872	17405.038667	1602.712891	1938.018555
2750.302872	17405.038667	1601.673828	1835.268066
2750.302872	17405.038667	1600.633789	2199.249023
2750.302872	17405.038667	1599.594727	2080.417480
2750.302872	17405.038667	1598.554688	2145.477783
2750.302872	17405.038667	1597.513672	2375.943359
2750.302872	17405.038667	1596.473633	2146.905762
2750.302872	17405.038667	1595.433594	2310.715820
2750.302872	17405.038667	1594.392578	2375.723145
2750.302872	17405.038667	1593.351563	2624.389160
2750.302872	17405.038667	1592.310547	2306.012207
2750.302872	17405.038667	1591.268555	2141.526855
2750.302872	17405.038667	1590.227539	2089.568115
2750.302872	17405.038667	1589.185547	2186.751221
2750.302872	17405.038667	1588.143555	2297.678223
2750.302872	17405.038667	1587.100586	2222.827637
2750.302872	17405.038667	1586.058594	2161.797119
2750.302872	17405.038667	1585.015625	2201.662842
2750.302872	17405.038667	1583.972656	2099.445313
2750.302872	17405.038667	1582.929688	2146.232666
2750.302872	17405.038667	1581.886719	2218.228760
2750.302872	17405.038667	1580.843750	2180.282227
2750.302872	17405.038667	1579.799805	2078.247559
2750.302872	17405.038667	1578.755859	1919.044922
2750.302872	17405.038667	1577.711914	1853.788452
2750.302872	17405.038667	1576.666992	1971.672485
2750.302872	17405.038667	1575.623047	1599.875854
2750.302872	17405.038667	1574.578125	1624.032227
2750.302872	17405.038667	1573.533203	1698.534302
2750.302872	17405.038667	1572.488281	1789.052856
2750.302872	17405.038667	1571.443359	1923.014648
2750.302872	17405.038667	1570.397461	1949.508911
2750.302872	17405.038667	1569.351563	1861.756958
2750.302872	17405.038667	1568.305664	1696.385864
2750.302872	17405.038667	1567.259766	1693.328979
2750.302872	17405.038667	1566.213867	1742.853027
2750.302872	17405.038667	1565.166992	1678.201660
2750.302872	17405.038667	1564.120117	1730.067749
2750.302872	17405.038667	1563.073242	1569.654297
2750.302872	17405.038667	1562.026367	1402.503418
2750.302872	17405.038667	1560.978516	1383.779663
2750.302872	17405.038667	1559.930664	1451.807739
2750.302872	17405.038667	1558.883789	1305.450806
2750.302872	17405.038667	1557.834961	1396.361938
2750.302872	17405.038667	1556.787109	1184.039429
2750.302872	17405.038667	1555.739258	1240.855957
2750.302872	17405.038667	1554.690430	1192.846924
2750.302872	17405.038667	1553.641602	1329.494629
2750.302872	17405.038667	1552.592773	1634.740356
2750.302872	17405.038667	1551.542969	1427.382202
2750.302872	17405.038667	1550.494141	1623.282837
2750.302872	17405.038667	1549.444336	1621.053223
2750.302872	17405.038667	1548.394531	1459.522949
2750.302872	17405.038667	1547.344727	1293.563965
2750.302872	17405.038667	1546.293945	1170.957031
2750.302872	17405.038667	1545.244141	1294.194336
2750.302872	17405.038667	1544.193359	1205.881104
2750.302872	17405.038667	1543.142578	1336.000366
2750.302872	17405.038667	1542.090820	1311.498901
2750.302872	17405.038667	1541.040039	1268.893677
2750.302872	17405.038667	1539.988281	1208.177368
2750.302872	17405.038667	1538.936523	1211.183105
2750.302872	17405.038667	1537.884766	1321.042480
2750.302872	17405.038667	1536.833008	1256.011353
2750.302872	17405.038667	1535.780273	1250.115967
2750.302872	17405.038667	1534.727539	1351.017456
2750.302872	17405.038667	1533.674805	1186.325684
2750.302872	17405.038667	1532.622070	1239.676514
2750.302872	17405.038667	1531.569336	1245.421143
2750.302872	17405.038667	1530.515625	1369.213501
2750.302872	17405.038667	1529.461914	1234.421875
2750.302872	17405.038667	1528.408203	1306.151611
2750.302872	17405.038667	1527.354492	1260.012817
2750.302872	17405.038667	1526.299805	1533.629395
2750.302872	17405.038667	1525.246094	1263.214966
2750.302872	17405.038667	1524.191406	1335.182617
2750.302872	17405.038667	1523.136719	1160.226318
2750.302872	17405.038667	1522.081055	1202.886230
2750.302872	17405.038667	1521.026367	1318.096069
2750.302872	17405.038667	1519.970703	914.770508
2750.302872	17405.038667	1518.915039	826.386414
2750.302872	17405.038667	1517.859375	869.406494
2750.302872	17405.038667	1516.802734	810.645508
2750.302872	17405.038667	1515.747070	702.222107
2750.302872	17405.038667	1514.690430	722.864929
2750.302872	17405.038667	1513.633789	745.849426
2750.302872	17405.038667	1512.577148	787.001526
2750.302872	17405.038667	1511.519531	656.390198
2750.302872	17405.038667	1510.461914	754.223389
2750.302872	17405.038667	1509.405273	709.735718
2750.302872	17405.038667	1508.346680	742.164124
2750.302872	17405.038667	1507.289063	645.910706
2750.302872	17405.038667	1506.231445	674.011536
2750.302872	17405.038667	1505.172852	544.113342
2750.302872	17405.038667	1504.114258	547.566040
2750.302872	17405.038667	1503.055664	632.372986
2750.302872	17405.038667	1501.996094	787.196960
2750.302872	17405.038667	1500.937500	723.190125
2750.302872	17405.038667	1499.877930	713.439941
2750.302872	17405.038667	1498.818359	636.124756
2750.302872	17405.038667	1497.757813	579.225952
2750.302872	17405.038667	1496.698242	635.184937
2750.302872	17405.038667	1495.637695	612.317505
2750.302872	17405.038667	1494.577148	641.393372
2750.302872	17405.038667	1493.516602	551.133789
2750.302872	17405.038667	1492.456055	402.436798
2750.302872	17405.038667	1491.394531	542.197266
2750.302872	17405.038667	1490.333008	387.001068
2750.302872	17405.038667	1489.271484	432.349609
2750.302872	17405.038667	1488.209961	367.482666
2750.302872	17405.038667	1487.148438	435.528687
2750.302872	17405.038667	1486.085938	379.888885
2750.302872	17405.038667	1485.023438	628.082092
2750.302872	17405.038667	1483.960938	392.694794
2750.302872	17405.038667	1482.898438	562.288879
2750.302872	17405.038667	1481.834961	367.686951
2750.302872	17405.038667	1480.772461	377.829315
2750.302872	17405.038667	1479.708984	152.106766
2750.302872	17405.038667	1478.644531	423.126465
2750.302872	17405.038667	1477.581055	590.789124
2750.302872	17405.038667	1476.517578	378.966248
2750.302872	17405.038667	1475.453125	546.779663
2750.302872	17405.038667	1474.388672	537.234558
2750.302872	17405.038667	1473.323242	413.480225
2750.302872	17405.038667	1472.258789	577.010132
2750.302872	17405.038667	1471.193359	493.853302
2750.302872	17405.038667	1470.127930	558.771179
2750.302872	17405.038667	1469.062500	715.742615
2750.302872	17405.038667	1467.997070	518.480835
2750.302872	17405.038667	1466.930664	642.116272
2750.302872	17405.038667	1465.865234	609.080505
2750.302872	17405.038667	1464.798828	555.676208
2750.302872	17405.038667	1463.731445	643.661865
2750.302872	17405.038667	1462.665039	590.774841
2750.302872	17405.038667	1461.597656	649.367371
2750.302872	17405.038667	1460.530273	706.920593
2750.302872	17405.038667	1459.462891	475.442505
2750.302872	17405.038667	1458.395508	300.185333
2750.302872	17405.038667	1457.327148	614.219910
2750.302872	17405.038667	1456.259766	419.398590
2750.302872	17405.038667	1455.191406	534.283691
2750.302872	17405.038667	1454.123047	612.491394
2750.302872	17405.038667	1453.053711	560.560730
2750.302872	17405.038667	1451.985352	581.971985
2750.302872	17405.038667	1450.916016	476.922150
2750.302872	17405.038667	1449.846680	525.978088
2750.302872	17405.038667	1448.776367	605.771973
2750.302872	17405.038667	1447.707031	559.662170
2750.302872	17405.038667	1446.636719	656.896301
2750.302872	17405.038667	1445.566406	544.599243
2750.302872	17405.038667	1444.496094	357.762451
2750.302872	17405.038667	1443.425781	537.391846
2750.302872	17405.038667	1442.354492	298.594788
2750.302872	17405.038667	1441.283203	201.863953
2750.302872	17405.038667	1440.211914	160.608566
2750.302872	17405.038667	1439.140625	343.579712
2750.302872	17405.038667	1438.069336	163.605576
2750.302872	17405.038667	1436.997070	-8.558558
2750.302872	17405.038667	1435.924805	94.437805
2750.302872	17405.038667	1434.852539	21.151340
2750.302872	17405.038667	1433.780273	48.122101
2750.302872	17405.038667	1432.707031	-66.189117
2750.302872	17405.038667	1431.633789	-53.937210
2750.302872	17405.038667	1430.560547	-39.443466
2750.302872	17405.038667	1429.487305	30.722755
2750.302872	17405.038667	1428.413086	-182.649216
2750.302872	17405.038667	1427.339844	-3.886058
2750.302872	17405.038667	1426.265625	-160.809387
2750.302872	17405.038667	1425.191406	-31.242807
2750.302872	17405.038667	1424.116211	-34.796963
2750.302872	17405.038667	1423.041992	-76.637344
2750.302872	17405.038667	1421.966797	-72.659935
2750.302872	17405.038667	1420.891602	-11.475905
2750.302872	17405.038667	1419.816406	-21.632233
2750.302872	17405.038667	1418.740234	86.635918
2750.302872	17405.038667	1417.665039	175.731247
2750.302872	17405.038667	1416.588867	61.319382
2750.302872	17405.038667	1415.512695	6.231904
2750.302872	17405.038667	1414.435547	21.475262
2750.302872	17405.038667	1413.359375	-39.235283
2750.302872	17405.038667	1412.282227	17.579229
2750.302872	17405.038667	1411.205078	25.131744
2750.302872	17405.038667	1410.127930	190.529495
2750.302872	17405.038667	1409.049805	91.121216
2750.302872	17405.038667	1407.972656	188.459900
2750.302872	17405.038667	1406.894531	232.209152
2750.302872	17405.038667	1405.816406	283.794220
2750.302872	17405.038667	1404.737305	458.004639
2750.302872	17405.038667	1403.659180	271.609314
2750.302872	17405.038667	1402.580078	600.022705
2750.302872	17405.038667	1401.500977	412.051331
2750.302872	17405.038667	1400.421875	583.255493
2750.302872	17405.038667	1399.341797	446.053253
2750.302872	17405.038667	1398.262695	666.827515
2750.302872	17405.038667	1397.182617	721.708618
2750.302872	17405.038667	1396.102539	626.801392
2750.302872	17405.038667	1395.021484	609.693176
2750.302872	17405.038667	1393.941406	566.385193
2750.302872	17405.038667	1392.860352	643.058411
2750.302872	17405.038667	1391.779297	877.380615
2750.302872	17405.038667	1390.698242	845.873962
2750.302872	17405.038667	1389.616211	399.279572
2750.302872	17405.038667	1388.535156	643.283142
2750.302872	17405.038667	1387.453125	523.438599
2750.302872	17405.038667	1386.371094	613.631042
2750.302872	17405.038667	1385.288086	607.328613
2750.302872	17405.038667	1384.206055	603.042175
2750.302872	17405.038667	1383.123047	406.157684
2750.302872	17405.038667	1382.040039	567.888794
2750.302872	17405.038667	1380.957031	463.352264
2750.302872	17405.038667	1379.873047	612.979492
2750.302872	17405.038667	1378.789063	379.288635
2750.302872	17405.038667	1377.705078	347.901215
2750.302872	17405.038667	1376.621094	559.176147
2750.302872	17405.038667	1375.537109	687.122803
2750.302872	17405.038667	1374.452148	630.438538
2750.302872	17405.038667	1373.367188	512.106812
2750.302872	17405.038667	1372.282227	433.341888
2750.302872	17405.038667	1371.197266	563.490967
2750.302872	17405.038667	1370.112305	541.667786
2750.302872	17405.038667	1369.026367	349.913971
2750.302872	17405.038667	1367.940430	438.648956
2750.302872	17405.038667	1366.854492	436.007874
2750.302872	17405.038667	1365.767578	406.682129
2750.302872	17405.038667	1364.681641	383.913330
2750.302872	17405.038667	1363.594727	325.039978
2750.302872	17405.038667	1362.507813	231.072678
2750.302872	17405.038667	1361.419922	251.749054
2750.302872	17405.038667	1360.333008	439.024780
2750.302872	17405.038667	1359.245117	422.877777
2750.302872	17405.038667	1358.157227	402.503723
2750.302872	17405.038667	1357.069336	101.306328
2750.302872	17405.038667	1355.981445	325.240051
2750.302872	17405.038667	1354.892578	163.621155
2750.302872	17405.038667	1353.803711	299.813904
2750.302872	17405.038667	1352.714844	275.451477
2750.302872	17405.038667	1351.625000	521.239990
2750.302872	17405.038667	1350.536133	311.736938
2750.302872	17405.038667	1349.446289	322.773376
2750.302872	17405.038667	1348.356445	461.497223
2750.302872	17405.038667	1347.266602	357.625610
2750.302872	17405.038667	1346.175781	597.396301
2750.302872	17405.038667	1345.085938	564.143250
2750.302872	17405.038667	1343.995117	455.678802
2750.302872	17405.038667	1342.903320	484.223145
2750.302872	17405.038667	1341.812500	583.906555
2750.302872	17405.038667	1340.720703	583.217651
2750.302872	17405.038667	1339.629883	622.326294
2750.302872	17405.038667	1338.538086	791.105286
2750.302872	17405.038667	1337.445313	945.040405
2750.302872	17405.038667	1336.353516	1016.997375
2750.302872	17405.038667	1335.260742	893.259521
2750.302872	17405.038667	1334.167969	1061.932617
2750.302872	17405.038667	1333.075195	1061.866577
2750.302872	17405.038667	1331.981445	1190.653442
2750.302872	17405.038667	1330.888672	1406.185791
2750.302872	17405.038667	1329.794922	1520.161499
2750.302872	17405.038667	1328.701172	1523.506470
2750.302872	17405.038667	1327.606445	1627.277832
2750.302872	17405.038667	1326.512695	1590.868408
2750.302872	17405.038667	1325.417969	1990.084351
2750.302872	17405.038667	1324.323242	1980.499268
2750.302872	17405.038667	1323.227539	1967.542114
2750.302872	17405.038667	1322.132813	1827.847900
2750.302872	17405.038667	1321.037109	1753.758545
2750.302872	17405.038667	1319.941406	1612.866089
2750.302872	17405.038667	1318.845703	1510.681396
2750.302872	17405.038667	1317.750000	1350.065063
2750.302872	17405.038667	1316.653320	1141.473389
2750.302872	17405.038667	1315.556641	1153.743286
2750.302872	17405.038667	1314.459961	1011.399353
2750.302872	17405.038667	1313.363281	778.265869
2750.302872	17405.038667	1312.265625	829.236145
2750.302872	17405.038667	1311.167969	811.937744
2750.302872	17405.038667	1310.070313	650.668579
2750.302872	17405.038667	1308.972656	613.168091
2750.302872	17405.038667	1307.874023	481.082672
2750.302872	17405.038667	1306.776367	550.006470
2750.302872	17405.038667	1305.677734	621.283142
2750.302872	17405.038667	1304.579102	511.967529
2750.302872	17405.038667	1303.479492	497.904633
2750.302872	17405.038667	1302.380859	577.013245
2750.302872	17405.038667	1301.281250	520.495911
2750.302872	17405.038667	1300.181641	444.512726
2750.302872	17405.038667	1299.081055	391.128510
2750.302872	17405.038667	1297.981445	406.736298
2750.302872	17405.038667	1296.880859	539.720642
2750.302872	17405.038667	1295.780273	435.549957
2750.302872	17405.038667	1294.679688	502.046661
2750.302872	17405.038667	1293.578125	701.369507
2750.302872	17405.038667	1292.476563	523.390198
2750.302872	17405.038667	1291.375000	410.204407
2750.302872	17405.038667	1290.273438	551.483093
2750.302872	17405.038667	1289.171875	573.436279
2750.302872	17405.038667	1288.069336	622.972961
2750.302872	17405.038667	1286.966797	605.014404
2750.302872	17405.038667	1285.864258	483.750031
2750.302872	17405.038667	1284.761719	712.554871
2750.302872	17405.038667	1283.658203	634.922119
2750.302872	17405.038667	1282.554688	547.981812
2750.302872	17405.038667	1281.451172	655.977051
2750.302872	17405.038667	1280.347656	538.703796
2750.302872	17405.038667	1279.244141	535.387634
2750.302872	17405.038667	1278.139648	636.828613
2750.302872	17405.038667	1277.035156	565.450439
2750.302872	17405.038667	1275.930664	336.654480
2750.302872	17405.038667	1274.825195	484.878601
2750.302872	17405.038667	1273.720703	366.995178
2750.302872	17405.038667	1272.615234	274.585022
2750.302872	17405.038667	1271.508789	206.421722
2750.302872	17405.038667	1270.403320	247.350052
2750.302872	17405.038667	1269.297852	234.953476
2750.302872	17405.038667	1268.191406	236.979630
2750.302872	17405.038667	1267.084961	225.380173
2750.302872	17405.038667	1265.977539	160.216263
2750.302872	17405.038667	1264.871094	39.555035
2750.302872	17405.038667	1263.763672	40.127274
2750.302872	17405.038667	1262.656250	29.316135
2750.302872	17405.038667	1261.548828	77.824745
2750.302872	17405.038667	1260.440430	55.958557
2750.302872	17405.038667	1259.333008	25.455315
2750.302872	17405.038667	1258.224609	46.213066
2750.302872	17405.038667	1257.115234	-38.575733
2750.302872	17405.038667	1256.006836	146.211273
2750.302872	17405.038667	1254.897461	78.429314
2750.302872	17405.038667	1253.788086	25.879297
2750.302872	17405.038667	1252.678711	88.496773
2750.302872	17405.038667	1251.569336	136.077637
2750.302872	17405.038667	1250.458984	144.320114
2750.302872	17405.038667	1249.349609	203.408844
2750.302872	17405.038667	1248.239258	258.406281
2750.302872	17405.038667	1247.127930	144.823288
2750.302872	17405.038667	1246.017578	240.620682
2750.302872	17405.038667	1244.906250	426.281006
2750.302872	17405.038667	1243.794922	313.702667
2750.302872	17405.038667	1242.683594	411.587830
2750.302872	17405.038667	1241.571289	362.278412
2750.302872	17405.038667	1240.459961	385.857178
2750.302872	17405.038667	1239.347656	420.813690
2750.302872	17405.038667	1238.234375	404.337433
2750.302872	17405.038667	1237.122070	396.030670
2750.302872	17405.038667	1236.008789	429.148590
2750.302872	17405.038667	1234.896484	289.507324
2750.302872	17405.038667	1233.782227	280.300751
2750.302872	17405.038667	1232.668945	313.415131
2750.302872	17405.038667	1231.555664	391.053772
2750.302872	17405.038667	1230.441406	367.347717
2750.302872	17405.038667	1229.327148	362.607422
2750.302872	17405.038667	1228.211914	221.477570
2750.302872	17405.038667	1227.097656	433.615112
2750.302872	17405.038667	1225.982422	307.916931
2750.302872	17405.038667	1224.867188	327.261780
2750.302872	17405.038667	1223.751953	539.487610
2750.302872	17405.038667	1222.635742	345.629791
2750.302872	17405.038667	1221.520508	261.267120
2750.302872	17405.038667	1220.404297	423.869751
2750.302872	17405.038667	1219.287109	336.183777
2750.302872	17405.038667	1218.170898	232.801727
2750.302872	17405.038667	1217.053711	229.029648
2750.302872	17405.038667	1215.936523	272.429962
2750.302872	17405.038667	1214.819336	219.216568
2750.302872	17405.038667	1213.702148	183.353455
2750.302872	17405.038667	1212.583984	261.769501
2750.302872	17405.038667	1211.465820	94.363075
2750.302872	17405.038667	1210.347656	205.464386
2750.302872	17405.038667	1209.229492	216.362564
2750.302872	17405.038667	1208.110352	106.755020
2750.302872	17405.038667	1206.992188	143.428864
2750.302872	17405.038667	1205.873047	132.491699
2750.302872	17405.038667	1204.752930	97.338120
2750.302872	17405.038667	1203.633789	95.789505
2750.302872	17405.038667	1202.513672	23.036392
2750.302872	17405.038667	1201.393555	61.059368
2750.302872	17405.038667	1200.273438	-81.001793
2750.302872	17405.038667	1199.152344	-44.218327
2750.302872	17405.038667	1198.032227	51.626835
2750.302872	17405.038667	1196.911133	-8.682161
2750.302872	17405.038667	1195.790039	32.949635
2750.302872	17405.038667	1194.667969	-10.185796
2750.302872	17405.038667	1193.545898	94.456741
2750.302872	17405.038667	1192.424805	-26.205393
2750.302872	17405.038667	1191.301758	-14.136517
2750.302872	17405.038667	1190.179688	88.139740
2750.302872	17405.038667	1189.056641	-12.339811
2750.302872	17405.038667	1187.933594	-14.003478
2750.302872	17405.038667	1186.810547	9.658697
2750.302872	17405.038667	1185.687500	22.354916
2750.302872	17405.038667	1184.563477	13.612334
2750.302872	17405.038667	1183.440430	83.706322
2750.302872	17405.038667	1182.316406	16.318903
2750.302872	17405.038667	1181.191406	137.317398
2750.302872	17405.038667	1180.067383	-15.611512
2750.302872	17405.038667	1178.942383	31.236507
2750.302872	17405.038667	1177.817383	-67.567520
2750.302872	17405.038667	1176.692383	156.264740
2750.302872	17405.038667	1175.566406	53.409634
2750.302872	17405.038667	1174.440430	132.833832
2750.302872	17405.038667	1173.314453	201.020981
2750.302872	17405.038667	1172.188477	233.842453
2750.302872	17405.038667	1171.062500	240.903976
2750.302872	17405.038667	1169.935547	351.278290
2750.302872	17405.038667	1168.808594	282.403870
2750.302872	17405.038667	1167.681641	371.126770
2750.302872	17405.038667	1166.553711	473.704132
2750.302872	17405.038667	1165.426758	317.969177
2750.302872	17405.038667	1164.298828	365.809967
2750.302872	17405.038667	1163.170898	354.876160
2750.302872	17405.038667	1162.041992	300.679688
2750.302872	17405.038667	1160.914063	322.809998
2750.302872	17405.038667	1159.785156	293.224121
2750.302872	17405.038667	1158.656250	182.983139
2750.302872	17405.038667	1157.526367	83.945473
2750.302872	17405.038667	1156.397461	28.203835
2750.302872	17405.038667	1155.267578	103.197433
2750.302872	17405.038667	1154.137695	192.036316
2750.302872	17405.038667	1153.006836	102.351242
2750.302872	17405.038667	1151.876953	43.073200
2750.302872	17405.038667	1150.746094	70.293411
2750.302872	17405.038667	1149.615234	3.698288
2750.302872	17405.038667	1148.484375	-25.278152
2750.302872	17405.038667	1147.352539	-85.405708
2750.302872	17405.038667	1146.220703	-110.143311
2750.302872	17405.038667	1145.088867	-235.771774
2750.302872	17405.038667	1143.957031	-128.054306
2750.302872	17405.038667	1142.825195	-172.839111
2750.302872	17405.038667	1141.692383	-241.329742
2750.302872	17405.038667	1140.559570	-223.960480
2750.302872	17405.038667	1139.426758	-320.321655
2750.302872	17405.038667	1138.292969	-150.559341
2750.302872	17405.038667	1137.159180	-317.443573
2750.302872	17405.038667	1136.025391	-260.495331
2750.302872	17405.038667	1134.891602	-70.320541
2750.302872	17405.038667	1133.757813	-192.096405
2750.302872	17405.038667	1132.623047	-100.982948
2750.302872	17405.038667	1131.488281	8.512849
2750.302872	17405.038667	1130.353516	24.869057
2750.302872	17405.038667	1129.217773	52.735107
2750.302872	17405.038667	1128.083008	-31.445032
2750.302872	17405.038667	1126.947266	-20.421921
2750.302872	17405.038667	1125.811523	179.867081
2750.302872	17405.038667	1124.674805	46.272388
2750.302872	17405.038667	1123.539063	-31.446133
2750.302872	17405.038667	1122.402344	-114.263077
2750.302872	17405.038667	1121.265625	-88.048180
2750.302872	17405.038667	1120.127930	9.996065
2750.302872	17405.038667	1118.990234	-92.941353
2750.302872	17405.038667	1117.853516	40.540707
2750.302872	17405.038667	1116.714844	74.415199
2750.302872	17405.038667	1115.577148	185.535675
2750.302872	17405.038667	1114.439453	98.996422
2750.302872	17405.038667	1113.300781	68.028229
2750.302872	17405.038667	1112.162109	165.085144
2750.302872	17405.038667	1111.022461	247.362701
2750.302872	17405.038667	1109.883789	133.088058
2750.302872	17405.038667	1108.744141	206.573410
2750.302872	17405.038667	1107.604492	268.959625
2750.302872	17405.038667	1106.463867	363.620697
2750.302872	17405.038667	1105.324219	335.373199
2750.302872	17405.038667	1104.183594	226.171478
2750.302872	17405.038667	1103.042969	337.272827
2750.302872	17405.038667	1101.902344	304.235626
2750.302872	17405.038667	1100.760742	215.752045
2750.302872	17405.038667	1099.619141	323.928192
2750.302872	17405.038667	1098.477539	289.755127
2750.302872	17405.038667	1097.335938	253.381058
2750.302872	17405.038667	1096.193359	349.347565
2750.302872	17405.038667	1095.051758	126.141296
2750.302872	17405.038667	1093.909180	74.865952
2750.302872	17405.038667	1092.765625	32.062218
2750.302872	17405.038667	1091.623047	28.669312
2750.302872	17405.038667	1090.479492	60.293510
2750.302872	17405.038667	1089.335938	1.184193
2750.302872	17405.038667	1088.192383	311.427185
2750.302872	17405.038667	1087.047852	327.701263
2750.302872	17405.038667	1085.903320	161.511887
2750.302872	17405.038667	1084.758789	304.108002
2750.302872	17405.038667	1083.614258	215.034409
2750.302872	17405.038667	1082.469727	247.253983
2750.302872	17405.038667	1081.324219	296.508667
2750.302872	17405.038667	1080.178711	110.250595
2750.302872	17405.038667	1079.033203	33.154503
2750.302872	17405.038667	1077.886719	15.599926
2750.302872	17405.038667	1076.740234	54.026474
2750.302872	17405.038667	1075.593750	36.265179
2750.302872	17405.038667	1074.447266	-70.576546
2750.302872	17405.038667	1073.300781	134.261047
2750.302872	17405.038667	1072.153320	54.308601
2750.302872	17405.038667	1071.005859	6.902062
2750.302872	17405.038667	1069.858398	141.020462
2750.302872	17405.038667	1068.709961	145.101974
2750.302872	17405.038667	1067.561523	172.800140
2750.302872	17405.038667	1066.413086	188.752731
2750.302872	17405.038667	1065.264648	129.377747
2750.302872	17405.038667	1064.116211	218.763153
2750.302872	17405.038667	1062.966797	152.917633
2750.302872	17405.038667	1061.817383	341.983856
2750.302872	17405.038667	1060.667969	327.909241
2750.302872	17405.038667	1059.517578	162.610443
2750.302872	17405.038667	1058.368164	290.899750
2750.302872	17405.038667	1057.217773	242.858566
2750.302872	17405.038667	1056.067383	264.330109
2750.302872	17405.038667	1054.916016	299.987701
2750.302872	17405.038667	1053.764648	79.893509
2750.302872	17405.038667	1052.613281	41.580864
2750.302872	17405.038667	1051.461914	8.876084
2750.302872	17405.038667	1050.310547	-41.934055
2750.302872	17405.038667	1049.158203	-11.393767
2750.302872	17405.038667	1048.005859	118.088730
2750.302872	17405.038667	1046.853516	63.707455
2750.302872	17405.038667	1045.700195	-52.544369
2750.302872	17405.038667	1044.547852	-47.600929
2750.302872	17405.038667	1043.394531	-41.351013
2750.302872	17405.038667	1042.240234	61.570137
2750.302872	17405.038667	1041.086914	90.655495
2750.302872	17405.038667	1039.932617	162.217087
2750.302872	17405.038667	1038.778320	188.002029
2750.302872	17405.038667	1037.624023	78.898254
2750.302872	17405.038667	1036.469727	52.358154
2750.302872	17405.038667	1035.314453	219.597107
2750.302872	17405.038667	1034.159180	309.875702
2750.302872	17405.038667	1033.003906	406.107758
2750.302872	17405.038667	1031.847656	240.632065
2750.302872	17405.038667	1030.692383	495.396332
2750.302872	17405.038667	1029.536133	529.803833
2750.302872	17405.038667	1028.378906	502.727264
2750.302872	17405.038667	1027.222656	267.370056
2750.302872	17405.038667	1026.065430	367.571259
2750.302872	17405.038667	1024.908203	302.232574
2750.302872	17405.038667	1023.750977	276.927551
2750.302872	17405.038667	1022.593750	284.007111
2750.302872	17405.038667	1021.435547	264.742615
2750.302872	17405.038667	1020.277344	288.076111
2750.302872	17405.038667	1019.119141	261.940552
2750.302872	17405.038667	1017.959961	165.195053
2750.302872	17405.038667	1016.800781	271.888306
2750.302872	17405.038667	1015.641602	291.678864
2750.302872	17405.038667	1014.482422	142.838547
2750.302872	17405.038667	1013.323242	161.701218
2750.302872	17405.038667	1012.163086	292.526154
2750.302872	17405.038667	1011.002930	144.150894
2750.302872	17405.038667	1009.842773	302.072876
2750.302872	17405.038667	1008.681641	260.270020
2750.302872	17405.038667	1007.520508	340.997955
2750.302872	17405.038667	1006.359375	439.677063
2750.302872	17405.038667	1005.198242	532.792542
2750.302872	17405.038667	1004.037109	521.541138
2750.302872	17405.038667	1002.875000	637.683594
2750.302872	17405.038667	1001.712891	689.524353
2750.302872	17405.038667	1000.550781	607.621399
2750.302872	17405.038667	999.387695	642.148438
2750.302872	17405.038667	998.224609	656.722595
2750.302872	17405.038667	997.061523	430.904755
2750.302872	17405.038667	995.898438	351.044037
2750.302872	17405.038667	994.734375	475.812988
2750.302872	17405.038667	993.571289	350.686066
2750.302872	17405.038667	992.407227	220.151520
2750.302872	17405.038667	991.242188	79.866913
2750.302872	17405.038667	990.078125	80.199005
2750.302872	17405.038667	988.913086	181.446381
2750.302872	17405.038667	987.748047	15.005336
2750.302872	17405.038667	986.583008	12.548193
2750.302872	17405.038667	985.416992	118.400536
2750.302872	17405.038667	984.250977	69.287903
2750.302872	17405.038667	983.084961	35.318687
2750.302872	17405.038667	981.918945	-28.646297
2750.302872	17405.038667	980.751953	33.230560
2750.302872	17405.038667	979.584961	-4.565719
2750.302872	17405.038667	978.417969	23.255386
2750.302872	17405.038667	977.250977	37.989765
2750.302872	17405.038667	976.083008	167.586182
2750.302872	17405.038667	974.915039	-50.172768
2750.302872	17405.038667	973.747070	-12.664542
2750.302872	17405.038667	972.579102	-41.342751
2750.302872	17405.038667	971.410156	-39.954105
2750.302872	17405.038667	970.242188	91.489418
2750.302872	17405.038667	969.072266	173.905746
2750.302872	17405.038667	967.903320	41.771011
2750.302872	17405.038667	966.733398	131.871368
2750.302872	17405.038667	965.563477	118.169914
2750.302872	17405.038667	964.393555	225.899597
2750.302872	17405.038667	963.223633	81.999367
2750.302872	17405.038667	962.052734	136.992722
2750.302872	17405.038667	960.881836	131.081711
2750.302872	17405.038667	959.710938	190.899658
2750.302872	17405.038667	958.540039	90.490013
2750.302872	17405.038667	957.368164	214.598785
2750.302872	17405.038667	956.196289	170.584412
2750.302872	17405.038667	955.024414	247.034821
2750.302872	17405.038667	953.851563	-10.220125
2750.302872	17405.038667	952.679688	2.258969
2750.302872	17405.038667	951.506836	73.719185
2750.302872	17405.038667	950.333984	-28.000858
2750.302872	17405.038667	949.160156	178.219589
2750.302872	17405.038667	947.986328	28.865204
2750.302872	17405.038667	946.812500	-43.193867
2750.302872	17405.038667	945.638672	56.919827
2750.302872	17405.038667	944.464844	-50.746830
2750.302872	17405.038667	943.290039	73.077118
2750.302872	17405.038667	942.115234	87.085526
2750.302872	17405.038667	940.940430	120.099686
2750.302872	17405.038667	939.764648	132.269348
2750.302872	17405.038667	938.588867	118.512604
2750.302872	17405.038667	937.413086	185.249847
2750.302872	17405.038667	936.237305	112.402466
2750.302872	17405.038667	935.060547	206.633789
2750.302872	17405.038667	933.883789	76.898102
2750.302872	17405.038667	932.707031	2.080677
2750.302872	17405.038667	931.530273	194.238144
2750.302872	17405.038667	930.352539	299.888672
2750.302872	17405.038667	929.175781	122.996376
2750.302872	17405.038667	927.998047	240.360245
2750.302872	17405.038667	926.819336	145.813187
2750.302872	17405.038667	925.641602	208.174957
2750.302872	17405.038667	924.462891	303.835205
2750.302872	17405.038667	923.284180	213.154221
2750.302872	17405.038667	922.104492	149.920959
2750.302872	17405.038667	920.924805	380.675476
2750.302872	17405.038667	919.746094	381.704529
2750.302872	17405.038667	919.551758	507.617310
2750.302872	17405.038667	918.386719	403.110077
2750.302872	17405.038667	917.220703	390.680481
2750.302872	17405.038667	916.054688	362.560547
2750.302872	17405.038667	914.887695	520.433533
2750.302872	17405.038667	913.721680	541.182251
2750.302872	17405.038667	912.554688	554.067749
2750.302872	17405.038667	911.387695	559.093628
2750.302872	17405.038667	910.220703	593.436646
2750.302872	17405.038667	909.052734	598.401001
2750.302872	17405.038667	907.885742	615.069824
2750.302872	17405.038667	906.717773	792.034607
2750.302872	17405.038667	905.548828	728.461670
2750.302872	17405.038667	904.380859	506.581696
2750.302872	17405.038667	903.211914	759.593506
2750.302872	17405.038667	902.042969	543.611084
2750.302872	17405.038667	900.874023	390.196442
2750.302872	17405.038667	899.704102	422.339142
2750.302872	17405.038667	898.535156	315.823730
2750.302872	17405.038667	897.365234	334.258942
2750.302872	17405.038667	896.194336	108.712463
2750.302872	17405.038667	895.024414	164.211624
2750.302872	17405.038667	893.853516	233.323517
2750.302872	17405.038667	892.682617	265.327850
2750.302872	17405.038667	891.511719	135.445663
2750.302872	17405.038667	890.340820	171.315002
2750.302872	17405.038667	889.168945	29.769487
2750.302872	17405.038667	887.997070	203.973663
2750.302872	17405.038667	886.825195	56.594360
2750.302872	17405.038667	885.653320	117.696815
2750.302872	17405.038667	884.480469	180.703461
2750.302872	17405.038667	883.307617	56.730053
2750.302872	17405.038667	882.134766	135.260757
2750.302872	17405.038667	880.961914	-29.564487
2750.302872	17405.038667	879.788086	35.293858
2750.302872	17405.038667	878.614258	61.195221
2750.302872	17405.038667	877.440430	-91.894798
2750.302872	17405.038667	876.266602	-108.799171
2750.302872	17405.038667	875.091797	-162.658142
2750.302872	17405.038667	873.916992	-119.308044
2750.302872	17405.038667	872.742188	-130.415146
2750.302872	17405.038667	871.567383	-7.448431
2750.302872	17405.038667	870.391602	-73.005745
2750.302872	17405.038667	869.215820	-33.658749
2750.302872	17405.038667	868.040039	89.166016
2750.302872	17405.038667	866.864258	-42.434071
2750.302872	17405.038667	865.687500	-32.282505
2750.302872	17405.038667	864.510742	24.431396
2750.302872	17405.038667	863.333984	69.464661
2750.302872	17405.038667	862.157227	170.726639
2750.302872	17405.038667	860.979492	-63.632591
2750.302872	17405.038667	859.802734	-18.652412
2750.302872	17405.038667	858.625000	-18.299002
2750.302872	17405.038667	857.446289	30.502468
2750.302872	17405.038667	856.268555	-48.644276
2750.302872	17405.038667	855.089844	-52.202072
2750.302872	17405.038667	853.911133	-102.267441
2750.302872	17405.038667	852.731445	-24.489744
2750.302872	17405.038667	851.552734	-138.471268
2750.302872	17405.038667	850.373047	-74.297508
2750.302872	17405.038667	849.193359	-0.484899
2750.302872	17405.038667	848.013672	-71.863914
2750.302872	17405.038667	846.833008	-197.404816
2750.302872	17405.038667	845.652344	-79.157227
2750.302872	17405.038667	844.471680	-107.964813
2750.302872	17405.038667	843.291016	-51.689346
2750.302872	17405.038667	842.110352	-126.915726
2750.302872	17405.038667	840.928711	-49.422901
2750.302872	17405.038667	839.747070	-64.736061
2750.302872	17405.038667	838.564453	24.278896
2750.302872	17405.038667	837.382813	-106.972336
2750.302872	17405.038667	836.200195	-29.598560
2750.302872	17405.038667	835.017578	-4.404745
2750.302872	17405.038667	833.834961	-35.219501
2750.302872	17405.038667	832.651367	-27.431774
2750.302872	17405.038667	831.467773	-162.461258
2750.302872	17405.038667	830.284180	-77.501839
2750.302872	17405.038667	829.100586	44.059250
2750.302872	17405.038667	827.916992	-58.154499
2750.302872	17405.038667	826.732422	38.260853
2750.302872	17405.038667	825.547852	-6.103160
2750.302872	17405.038667	824.363281	-137.193375
2750.302872	17405.038667	823.177734	-87.108360
2750.302872	17405.038667	821.992188	-144.945038
2750.302872	17405.038667	820.806641	-52.529667
2750.302872	17405.038667	819.621094	9.021432
2750.302872	17405.038667	818.434570	89.786880
2750.302872	17405.038667	817.249023	-14.292257
2750.302872	17405.038667	816.062500	27.925705
2750.302872	17405.038667	814.875000	77.808281
2750.302872	17405.038667	813.688477	64.172066
2750.302872	17405.038667	812.500977	-34.103062
2750.302872	17405.038667	811.313477	90.715576
2750.302872	17405.038667	810.125977	94.344124
2750.302872	17405.038667	808.937500	-5.842552
2750.302872	17405.038667	807.749023	38.131878
2750.302872	17405.038667	806.560547	-58.188824
2750.302872	17405.038667	805.372070	-2.726229
2750.302872	17405.038667	804.182617	-89.427834
2750.302872	17405.038667	802.994141	81.199852
2750.302872	17405.038667	801.803711	-3.595948
2750.302872	17405.038667	800.614258	45.986912
2750.302872	17405.038667	799.424805	145.427658
2750.302872	17405.038667	798.234375	239.053589
2750.302872	17405.038667	797.043945	110.109665
2750.302872	17405.038667	795.852539	220.929489
2750.302872	17405.038667	794.662109	262.659515
2750.302872	17405.038667	793.470703	254.510147
2750.302872	17405.038667	792.279297	89.182434
2750.302872	17405.038667	791.087891	167.266907
2750.302872	17405.038667	789.895508	34.557022
2750.302872	17405.038667	788.703125	11.063410
2750.302872	17405.038667	787.510742	33.521114
2750.302872	17405.038667	786.318359	86.584625
2750.302872	17405.038667	785.125000	-120.733452
2750.302872	17405.038667	783.931641	8.852933
2750.302872	17405.038667	782.738281	73.307320
2750.302872	17405.038667	781.544922	7.625950
2750.302872	17405.038667	780.350586	56.709064
2750.302872	17405.038667	779.156250	73.242142
2750.302872	17405.038667	777.961914	-103.353287
2750.302872	17405.038667	776.767578	60.344788
2750.302872	17405.038667	775.572266	-62.710278
2750.302872	17405.038667	774.376953	43.544003
2750.302872	17405.038667	773.181641	130.627274
2750.302872	17405.038667	771.986328	162.264267
2750.302872	17405.038667	770.790039	-83.013649
2750.302872	17405.038667	769.593750	-13.213748
2750.302872	17405.038667	768.397461	-23.633785
2750.302872	17405.038667	767.201172	88.056404
2750.302872	17405.038667	766.003906	-118.946846
2750.302872	17405.038667	764.806641	53.703228
2750.302872	17405.038667	763.609375	81.313843
2750.302872	17405.038667	762.412109	-45.557316
2750.302872	17405.038667	761.213867	44.914886
2750.302872	17405.038667	760.015625	148.662247
2750.302872	17405.038667	758.817383	21.770275
2750.302872	17405.038667	757.618164	-59.376404
2750.302872	17405.038667	756.419922	110.906242
2750.302872	17405.038667	755.220703	75.419106
2750.302872	17405.038667	754.021484	188.423187
2750.302872	17405.038667	752.821289	95.765381
2750.302872	17405.038667	751.621094	201.041702
2750.302872	17405.038667	750.420898	256.770752
2750.302872	17405.038667	749.220703	156.451569
2750.302872	17405.038667	748.020508	366.159393
2750.302872	17405.038667	746.819336	144.092560
2750.302872	17405.038667	745.618164	330.832520
2750.302872	17405.038667	744.416992	333.086853
2750.302872	17405.038667	743.214844	302.998138
2750.302872	17405.038667	742.012695	329.885162
2750.302872	17405.038667	740.810547	267.445282
2750.302872	17405.038667	739.608398	495.568634
2750.302872	17405.038667	738.406250	721.661011
2750.302872	17405.038667	737.203125	911.551819
2750.302872	17405.038667	736.000000	998.833008
2750.302872	17405.038667	734.795898	1061.369629
2750.302872	17405.038667	733.592773	1400.832520
2750.302872	17405.038667	732.388672	1501.117188
2750.302872	17405.038667	731.184570	1332.030518
2750.302872	17405.038667	729.979492	1181.932617
2750.302872	17405.038667	728.775391	1037.545288
2750.302872	17405.038667	727.570313	876.117371
2750.302872	17405.038667	726.365234	697.662903
2750.302872	17405.038667	725.160156	424.519257
2750.302872	17405.038667	723.954102	384.409668
2750.302872	17405.038667	722.748047	503.338440
2750.302872	17405.038667	721.541992	483.967285
2750.302872	17405.038667	720.334961	307.453308
2750.302872	17405.038667	719.128906	350.493042
2750.302872	17405.038667	717.921875	247.780106
2750.302872	17405.038667	716.714844	171.547562
2750.302872	17405.038667	715.506836	237.141876
2750.302872	17405.038667	714.298828	223.246399
2750.302872	17405.038667	713.090820	111.006187
2750.302872	17405.038667	711.882813	91.377846
2750.302872	17405.038667	710.674805	185.089462
2750.302872	17405.038667	709.465820	203.140167
2750.302872	17405.038667	708.256836	247.578720
2750.302872	17405.038667	707.047852	263.621521
2750.302872	17405.038667	705.837891	213.522476
2750.302872	17405.038667	704.627930	212.474045
2750.302872	17405.038667	703.417969	141.545654
2750.302872	17405.038667	702.208008	57.387299
2750.302872	17405.038667	700.998047	241.094788
2750.302872	17405.038667	699.787109	303.959930
2750.302872	17405.038667	698.576172	261.147125
2750.302872	17405.038667	697.364258	48.618996
2750.302872	17405.038667	696.153320	130.175186
2750.302872	17405.038667	694.941406	136.259903
2750.302872	17405.038667	693.729492	217.652924
2750.302872	17405.038667	692.516602	244.326553
2750.302872	17405.038667	691.304688	212.553436
2750.302872	17405.038667	690.091797	-28.269915
2750.302872	17405.038667	688.878906	99.929497
2750.302872	17405.038667	687.665039	382.350830
2750.302872	17405.038667	686.451172	504.649231
2750.302872	17405.038667	685.237305	401.077789
2750.302872	17405.038667	684.023438	246.707077
2750.302872	17405.038667	682.809570	468.455231
2750.302872	17405.038667	681.594727	475.710785
2750.302872	17405.038667	680.379883	544.938110
2750.302872	17405.038667	679.165039	465.607758
2750.302872	17405.038667	677.949219	433.222809
2750.302872	17405.038667	676.733398	297.471527
2750.302872	17405.038667	675.517578	362.683289
2750.302872	17405.038667	674.301758	309.508270
2750.302872	17405.038667	673.084961	316.368958
2750.302872	17405.038667	671.869141	304.400848
2750.302872	17405.038667	670.651367	433.115601
2750.302872	17405.038667	669.434570	317.813324
2750.302872	17405.038667	668.216797	420.089294
2750.302872	17405.038667	667.000000	496.009735
2750.302872	17405.038667	665.781250	373.078369
2750.302872	17405.038667	664.563477	373.866455
2750.302872	17405.038667	663.344727	475.798553
2750.302872	17405.038667	662.125977	495.177429
2750.302872	17405.038667	660.907227	319.650482
2750.302872	17405.038667	659.688477	378.265564
2750.302872	17405.038667	658.468750	367.503723
2750.302872	17405.038667	657.249023	502.720734
2750.302872	17405.038667	656.029297	343.938049
2750.302872	17405.038667	654.808594	331.130829
2750.302872	17405.038667	653.587891	316.396240
2750.302872	17405.038667	652.367188	348.373932
2750.302872	17405.038667	651.146484	408.331573
2750.302872	17405.038667	649.924805	464.457123
2750.302872	17405.038667	648.704102	619.585938
2750.302872	17405.038667	647.482422	750.285156
2750.302872	17405.038667	646.259766	895.813538
2750.302872	17405.038667	645.037109	1097.268799
2750.302872	17405.038667	643.815430	1205.186890
2750.302872	17405.038667	642.591797	1156.119263
2750.302872	17405.038667	641.369141	832.552246
2750.302872	17405.038667	640.145508	902.933289
2750.302872	17405.038667	638.921875	730.603516
2750.302872	17405.038667	637.698242	534.030884
2750.302872	17405.038667	636.474609	468.068268
2750.302872	17405.038667	635.250000	286.430634
2750.302872	17405.038667	634.025391	248.396759
2750.302872	17405.038667	632.800781	118.968010
2750.302872	17405.038667	631.575195	114.415382
2750.302872	17405.038667	630.349609	150.804504
2750.302872	17405.038667	629.124023	10.121134
2750.302872	17405.038667	627.898438	37.088871
2750.302872	17405.038667	626.671875	104.955688
2750.302872	17405.038667	625.445313	133.636581
2750.302872	17405.038667	624.218750	145.494858
2750.302872	17405.038667	622.992188	241.045670
2750.302872	17405.038667	621.764648	92.733223
2750.302872	17405.038667	620.537109	184.420013
2750.302872	17405.038667	619.309570	127.215050
2750.302872	17405.038667	618.081055	116.464798
2750.302872	17405.038667	616.852539	35.017296
2750.302872	17405.038667	615.624023	135.715988
2750.302872	17405.038667	614.395508	80.213882
2750.302872	17405.038667	613.166992	281.092743
2750.302872	17405.038667	611.937500	151.171616
2750.302872	17405.038667	610.708008	238.552765
2750.302872	17405.038667	609.477539	388.976105
2750.302872	17405.038667	608.248047	227.409393
2750.302872	17405.038667	607.017578	288.585602
2750.302872	17405.038667	605.787109	327.421722
2750.302872	17405.038667	604.555664	297.545288
2750.302872	17405.038667	603.325195	278.772064
2750.302872	17405.038667	602.093750	76.363190
2750.302872	17405.038667	600.861328	81.649590
2750.302872	17405.038667	599.629883	157.337891
2750.302872	17405.038667	598.397461	116.190109
2750.302872	17405.038667	597.165039	56.490738
2750.302872	17405.038667	595.932617	11.597238
2750.302872	17405.038667	594.699219	-216.680252
2750.302872	17405.038667	593.465820	-185.657166
2750.302872	17405.038667	592.232422	-219.479416
2750.302872	17405.038667	590.999023	-142.266006
2750.302872	17405.038667	589.764648	-74.378708
2750.302872	17405.038667	588.530273	-38.004818
2750.302872	17405.038667	587.295898	-170.005493
2750.302872	17405.038667	586.061523	-166.977203
2750.302872	17405.038667	584.826172	-86.329552
2750.302872	17405.038667	583.590820	-42.715992
2750.302872	17405.038667	582.355469	-15.780303
2750.302872	17405.038667	581.119141	-118.233833
2750.302872	17405.038667	579.882813	257.805237
2750.302872	17405.038667	578.646484	103.574570
2750.302872	17405.038667	577.410156	292.855713
2750.302872	17405.038667	576.172852	210.636581
2750.302872	17405.038667	574.935547	250.257141
2750.302872	17405.038667	573.698242	287.997101
2750.302872	17405.038667	572.460938	377.365662
2750.302872	17405.038667	571.222656	189.981583
2750.302872	17405.038667	569.984375	336.469177
2750.302872	17405.038667	568.746094	291.122833
2750.302872	17405.038667	567.506836	101.990097
2750.302872	17405.038667	566.267578	148.839828
2750.302872	17405.038667	565.028320	243.570023
2750.302872	17405.038667	563.789063	332.728088
2750.302872	17405.038667	562.548828	289.221954
2750.302872	17405.038667	561.309570	284.408264
2750.302872	17405.038667	560.068359	303.516693
2750.302872	17405.038667	558.828125	456.993530
2750.302872	17405.038667	557.586914	172.410080
2750.302872	17405.038667	556.345703	305.608582
2750.302872	17405.038667	555.104492	183.063263
2750.302872	17405.038667	553.863281	104.716194
2750.302872	17405.038667	552.621094	228.662949
2750.302872	17405.038667	551.378906	10.637364
2750.302872	17405.038667	550.136719	5.916491
2750.302872	17405.038667	548.893555	140.858658
2750.302872	17405.038667	547.650391	259.222137
2750.302872	17405.038667	546.407227	70.814262
2750.302872	17405.038667	545.164063	56.957958
2750.302872	17405.038667	543.919922	272.618134
2750.302872	17405.038667	542.675781	394.593018
2750.302872	17405.038667	541.431641	424.779816
2750.302872	17405.038667	540.186523	310.022369
2750.302872	17405.038667	538.941406	453.991943
2750.302872	17405.038667	537.696289	506.227356
2750.302872	17405.038667	536.451172	606.144287
2750.302872	17405.038667	535.205078	561.218567
2750.302872	17405.038667	533.959961	529.182373
2750.302872	17405.038667	532.712891	291.949982
2750.302872	17405.038667	531.466797	148.295975
2750.302872	17405.038667	530.219727	28.546377
2750.302872	17405.038667	528.972656	128.639755
2750.302872	17405.038667	527.725586	63.953720
2750.302872	17405.038667	526.478516	-66.557953
2750.302872	17405.038667	525.230469	-24.946602
2750.302872	17405.038667	523.982422	78.901955
2750.302872	17405.038667	522.734375	-223.348587
2750.302872	17405.038667	521.485352	-112.094215
2750.302872	17405.038667	520.236328	-141.630096
2750.302872	17405.038667	518.987305	-152.819931
2750.302872	17405.038667	517.737305	-79.880913
2750.302872	17405.038667	516.488281	-34.321396
2750.302872	17405.038667	515.238281	84.347549
2750.302872	17405.038667	513.988281	53.249355
2750.302872	17405.038667	512.737305	319.880798
2750.302872	17405.038667	511.486328	423.967712
2750.302872	17405.038667	510.235352	203.157944
2750.302872	17405.038667	508.984375	71.932251
2750.302872	17405.038667	507.732422	-48.229076
2750.302872	17405.038667	506.480469	-66.117165
2750.302872	17405.038667	505.228516	41.912735
2750.302872	17405.038667	503.976563	27.799290
2750.302872	17405.038667	502.723633	-90.154922
2750.302872	17405.038667	501.470703	-33.014832
2750.302872	17405.038667	500.217773	-19.558727
2750.302872	17405.038667	498.963867	61.367588
2750.302872	17405.038667	497.709961	80.406860
2750.302872	17405.038667	496.456055	125.008179
2750.302872	17405.038667	495.202148	91.378426
2750.302872	17405.038667	493.947266	70.579033
2750.302872	17405.038667	492.692383	91.723946
2750.302872	17405.038667	491.437500	29.242502
2750.302872	17405.038667	490.181641	46.904148
2750.302872	17405.038667	488.926758	-62.666248
2750.302872	17405.038667	487.670898	26.083258
2750.302872	17405.038667	486.414063	-12.382933
2750.302872	17405.038667	485.158203	118.284035
2750.302872	17405.038667	483.901367	96.332558
2750.302872	17405.038667	482.644531	-79.950691
2750.302872	17405.038667	481.386719	32.720242
2750.302872	17405.038667	480.128906	-63.410267
2750.302872	17405.038667	478.871094	114.733780
2750.302872	17405.038667	477.613281	-44.739494
2750.302872	17405.038667	476.355469	-91.546272
2750.302872	17405.038667	475.096680	-54.793320
2750.302872	17405.038667	473.837891	-166.723419
2750.302872	17405.038667	472.578125	-97.168037
2750.302872	17405.038667	471.319336	126.563911
2750.302872	17405.038667	470.059570	-111.995636
2750.302872	17405.038667	468.799805	-42.261082
2750.302872	17405.038667	467.539063	-59.462551
2750.302872	17405.038667	466.278320	81.034004
2750.302872	17405.038667	465.017578	107.433212
2750.302872	17405.038667	463.756836	266.088013
2750.302872	17405.038667	462.495117	218.347092
2750.302872	17405.038667	461.233398	201.466721
2750.302872	17405.038667	459.971680	108.653931
2750.302872	17405.038667	458.709961	138.978836
2750.302872	17405.038667	457.447266	187.439117
2750.302872	17405.038667	456.184570	178.066635
2750.302872	17405.038667	454.921875	145.250351
2750.302872	17405.038667	453.658203	89.000298
2750.302872	17405.038667	452.394531	213.561523
2750.302872	17405.038667	451.130859	242.348831
2750.302872	17405.038667	449.867188	112.190941
2750.302872	17405.038667	448.602539	522.178345
2750.302872	17405.038667	447.337891	296.387238
2750.302872	17405.038667	446.073242	393.895660
2750.302872	17405.038667	444.807617	697.161865
2750.302872	17405.038667	443.542969	790.989319
2750.302872	17405.038667	442.276367	980.416748
2750.302872	17405.038667	441.010742	1158.958618
2750.302872	17405.038667	439.744141	1182.337402
2750.302872	17405.038667	438.478516	1021.801880
2750.302872	17405.038667	437.210938	924.426941
2750.302872	17405.038667	435.944336	1090.224243
2750.302872	17405.038667	434.676758	1039.710205
2750.302872	17405.038667	433.409180	863.096802
2750.302872	17405.038667	432.141602	801.808350
2750.302872	17405.038667	430.873047	625.268127
2750.302872	17405.038667	429.604492	544.184448
2750.302872	17405.038667	428.335938	598.088257
2750.302872	17405.038667	427.067383	468.362518
2750.302872	17405.038667	425.797852	579.717346
2750.302872	17405.038667	424.528320	451.721497
2750.302872	17405.038667	423.258789	498.146667
2750.302872	17405.038667	421.988281	675.716614
2750.302872	17405.038667	420.717773	419.893616
2750.302872	17405.038667	419.447266	491.170288
2750.302872	17405.038667	418.175781	655.733887
2750.302872	17405.038667	416.905273	417.705444
2750.302872	17405.038667	415.633789	592.731262
2750.302872	17405.038667	414.362305	568.217590
2750.302872	17405.038667	413.089844	435.839264
2750.302872	17405.038667	411.817383	389.503937
2750.302872	17405.038667	410.544922	393.253418
2750.302872	17405.038667	409.272461	585.187683
2750.302872	17405.038667	407.999023	531.091492
2750.302872	17405.038667	406.725586	446.313080
2750.302872	17405.038667	405.452148	404.368103
2750.302872	17405.038667	404.177734	498.422424
2750.302872	17405.038667	402.903320	466.723755
2750.302872	17405.038667	401.628906	560.184998
2750.302872	17405.038667	400.354492	723.175537
2750.302872	17405.038667	399.079102	500.720886
2750.302872	17405.038667	397.803711	505.442719
2750.302872	17405.038667	396.528320	438.212006
2750.302872	17405.038667	395.251953	277.574463
2750.302872	17405.038667	393.976563	580.096130
2750.302872	17405.038667	392.700195	456.292633
2750.302872	17405.038667	391.422852	396.512421
2750.302872	17405.038667	390.145508	289.826813
2750.302872	17405.038667	388.869141	341.861725
2750.302872	17405.038667	387.590820	411.255341
2750.302872	17405.038667	386.313477	324.653290
2750.302872	17405.038667	385.035156	248.280640
2750.302872	17405.038667	383.756836	507.227112
2750.302872	17405.038667	382.478516	238.646820
2750.302872	17405.038667	381.199219	310.622162
2750.302872	17405.038667	379.919922	232.000137
2750.302872	17405.038667	378.640625	70.675117
2750.302872	17405.038667	377.360352	313.796478
2750.302872	17405.038667	376.080078	142.236984
2750.302872	17405.038667	374.799805	141.259171
2750.302872	17405.038667	373.519531	143.103394
2750.302872	17405.038667	372.238281	270.738342
2750.302872	17405.038667	370.957031	212.141586
2750.302872	17405.038667	369.675781	175.902924
2750.302872	17405.038667	368.394531	-19.750813
2750.302872	17405.038667	367.112305	109.740204
2750.302872	17405.038667	365.830078	117.147964
2750.302872	17405.038667	364.546875	-13.526366
2750.302872	17405.038667	363.264648	143.257980
2750.302872	17405.038667	361.981445	113.833138
2750.302872	17405.038667	360.698242	163.426758
2750.302872	17405.038667	359.414063	-5.155853
2750.302872	17405.038667	358.129883	104.428047
2750.302872	17405.038667	356.845703	-87.724045
2750.302872	17405.038667	355.561523	-9.008663
2750.302872	17405.038667	354.276367	-8.036798
2750.302872	17405.038667	352.991211	-15.471652
2750.302872	17405.038667	351.706055	23.725023
2750.302872	17405.038667	350.420898	104.152092
2750.302872	17405.038667	349.134766	37.470974
2750.302872	17405.038667	347.848633	-69.713821
2750.302872	17405.038667	346.561523	45.257793
2750.302872	17405.038667	345.275391	-148.374268
2750.302872	17405.038667	343.988281	82.264297
2750.302872	17405.038667	342.700195	-167.849625
2750.302872	17405.038667	341.413086	93.015305
2750.302872	17405.038667	340.125000	-80.678619
2750.302872	17405.038667	338.836914	-45.155151
2750.302872	17405.038667	337.548828	151.539490
2750.302872	17405.038667	336.259766	-137.565002
2750.302872	17405.038667	334.970703	-42.319706
2750.302872	17405.038667	333.681641	-89.077995
2750.302872	17405.038667	332.391602	-70.666969
2750.302872	17405.038667	331.101563	-27.865599
2750.302872	17405.038667	329.811523	-6.770155
2750.302872	17405.038667	328.521484	-72.906830
2750.302872	17405.038667	327.230469	-24.636906
2750.302872	17405.038667	325.939453	35.352909
2750.302872	17405.038667	324.648438	98.148758
2750.302872	17405.038667	323.356445	43.389572
2750.302872	17405.038667	322.064453	51.447578
2750.302872	17405.038667	320.772461	-8.571703
2750.302872	17405.038667	319.480469	-25.377583
2750.302872	17405.038667	318.187500	-128.096802
2750.302872	17405.038667	316.894531	66.575714
2750.302872	17405.038667	315.601563	-45.530674
2750.302872	17405.038667	314.307617	183.535965
2750.302872	17405.038667	313.013672	-53.070660
2750.302872	17405.038667	311.719727	24.841431
2750.302872	17405.038667	310.425781	0.622858
2750.302872	17405.038667	309.130859	75.251595
2750.302872	17405.038667	307.835938	142.849304
2750.302872	17405.038667	306.541016	83.441467
2750.302872	17405.038667	305.245117	-9.644592
2750.302872	17405.038667	303.949219	-25.365602
2750.302872	17405.038667	302.653320	133.042999
2750.302872	17405.038667	301.356445	-64.956825
2750.302872	17405.038667	300.060547	356.658966
2750.302872	17405.038667	298.763672	150.548798
