#X		#Y		#Wave		#Intensity
2697.762553	17475.550667	2000.043945	-185.525223
2697.762553	17475.550667	1999.080078	39.875515
2697.762553	17475.550667	1998.116211	-67.000061
2697.762553	17475.550667	1997.151367	34.007824
2697.762553	17475.550667	1996.186523	0.862512
2697.762553	17475.550667	1995.222656	-114.333885
2697.762553	17475.550667	1994.256836	102.112343
2697.762553	17475.550667	1993.291992	21.026497
2697.762553	17475.550667	1992.327148	-146.965515
2697.762553	17475.550667	1991.361328	-193.865143
2697.762553	17475.550667	1990.395508	182.204727
2697.762553	17475.550667	1989.429688	70.410378
2697.762553	17475.550667	1988.463867	-214.768570
2697.762553	17475.550667	1987.497070	91.109024
2697.762553	17475.550667	1986.531250	-36.151325
2697.762553	17475.550667	1985.564453	-195.724487
2697.762553	17475.550667	1984.597656	-9.342354
2697.762553	17475.550667	1983.630859	77.897560
2697.762553	17475.550667	1982.664063	90.771599
2697.762553	17475.550667	1981.696289	21.918772
2697.762553	17475.550667	1980.728516	69.017464
2697.762553	17475.550667	1979.761719	96.163635
2697.762553	17475.550667	1978.792969	66.339554
2697.762553	17475.550667	1977.825195	135.124817
2697.762553	17475.550667	1976.857422	-15.967777
2697.762553	17475.550667	1975.888672	156.167542
2697.762553	17475.550667	1974.919922	46.791264
2697.762553	17475.550667	1973.951172	112.488754
2697.762553	17475.550667	1972.982422	39.898956
2697.762553	17475.550667	1972.013672	68.329582
2697.762553	17475.550667	1971.043945	138.551987
2697.762553	17475.550667	1970.075195	-37.894936
2697.762553	17475.550667	1969.105469	83.866142
2697.762553	17475.550667	1968.135742	166.051605
2697.762553	17475.550667	1967.165039	132.306793
2697.762553	17475.550667	1966.195313	312.806641
2697.762553	17475.550667	1965.224609	133.553070
2697.762553	17475.550667	1964.253906	-72.802139
2697.762553	17475.550667	1963.283203	132.014221
2697.762553	17475.550667	1962.312500	-37.487442
2697.762553	17475.550667	1961.341797	157.263672
2697.762553	17475.550667	1960.370117	61.513012
2697.762553	17475.550667	1959.399414	130.577209
2697.762553	17475.550667	1958.427734	34.753147
2697.762553	17475.550667	1957.455078	238.955688
2697.762553	17475.550667	1956.483398	98.788528
2697.762553	17475.550667	1955.511719	179.889954
2697.762553	17475.550667	1954.539063	-65.991714
2697.762553	17475.550667	1953.566406	-36.575466
2697.762553	17475.550667	1952.593750	184.448624
2697.762553	17475.550667	1951.621094	191.634537
2697.762553	17475.550667	1950.647461	14.577672
2697.762553	17475.550667	1949.674805	11.918559
2697.762553	17475.550667	1948.701172	80.440422
2697.762553	17475.550667	1947.727539	-30.282267
2697.762553	17475.550667	1946.753906	222.261932
2697.762553	17475.550667	1945.780273	99.255241
2697.762553	17475.550667	1944.805664	-77.693001
2697.762553	17475.550667	1943.831055	-70.611176
2697.762553	17475.550667	1942.856445	71.348648
2697.762553	17475.550667	1941.881836	36.704258
2697.762553	17475.550667	1940.907227	56.005558
2697.762553	17475.550667	1939.932617	58.140251
2697.762553	17475.550667	1938.957031	-143.130554
2697.762553	17475.550667	1937.981445	35.461086
2697.762553	17475.550667	1937.005859	-18.736448
2697.762553	17475.550667	1936.030273	86.297981
2697.762553	17475.550667	1935.054688	-100.111839
2697.762553	17475.550667	1934.078125	-119.953239
2697.762553	17475.550667	1933.101563	-14.930406
2697.762553	17475.550667	1932.125000	-29.861385
2697.762553	17475.550667	1931.148438	33.531387
2697.762553	17475.550667	1930.171875	87.128914
2697.762553	17475.550667	1929.194336	-94.106262
2697.762553	17475.550667	1928.217773	-25.799261
2697.762553	17475.550667	1927.240234	59.616398
2697.762553	17475.550667	1926.262695	27.670286
2697.762553	17475.550667	1925.284180	76.416527
2697.762553	17475.550667	1924.306641	29.854568
2697.762553	17475.550667	1923.328125	-141.282242
2697.762553	17475.550667	1922.350586	-138.886261
2697.762553	17475.550667	1921.372070	-29.000568
2697.762553	17475.550667	1920.392578	19.814798
2697.762553	17475.550667	1919.414063	-107.157082
2697.762553	17475.550667	1918.434570	-53.417316
2697.762553	17475.550667	1917.456055	-77.775818
2697.762553	17475.550667	1916.476563	-192.389969
2697.762553	17475.550667	1915.497070	-219.106125
2697.762553	17475.550667	1914.516602	-99.433098
2697.762553	17475.550667	1913.537109	-21.240774
2697.762553	17475.550667	1912.556641	17.931591
2697.762553	17475.550667	1911.576172	-30.652319
2697.762553	17475.550667	1910.595703	-84.069786
2697.762553	17475.550667	1909.615234	-115.511429
2697.762553	17475.550667	1908.633789	-44.582890
2697.762553	17475.550667	1907.653320	240.718399
2697.762553	17475.550667	1906.671875	-100.025726
2697.762553	17475.550667	1905.690430	-4.720971
2697.762553	17475.550667	1904.708984	41.874451
2697.762553	17475.550667	1903.727539	110.383125
2697.762553	17475.550667	1902.745117	25.554735
2697.762553	17475.550667	1901.762695	30.813408
2697.762553	17475.550667	1900.780273	196.661499
2697.762553	17475.550667	1899.797852	138.680420
2697.762553	17475.550667	1898.815430	12.643920
2697.762553	17475.550667	1897.832031	-16.066559
2697.762553	17475.550667	1896.849609	-134.700333
2697.762553	17475.550667	1895.866211	28.681866
2697.762553	17475.550667	1894.882813	12.183458
2697.762553	17475.550667	1893.898438	100.185799
2697.762553	17475.550667	1892.915039	-32.896629
2697.762553	17475.550667	1891.930664	13.816854
2697.762553	17475.550667	1890.947266	92.093163
2697.762553	17475.550667	1889.962891	-125.854042
2697.762553	17475.550667	1888.977539	-6.291307
2697.762553	17475.550667	1887.993164	-134.320038
2697.762553	17475.550667	1887.007813	-191.922882
2697.762553	17475.550667	1886.023438	-164.584122
2697.762553	17475.550667	1885.038086	-37.797153
2697.762553	17475.550667	1884.051758	18.616631
2697.762553	17475.550667	1883.066406	130.781219
2697.762553	17475.550667	1882.081055	-132.856812
2697.762553	17475.550667	1881.094727	-86.144875
2697.762553	17475.550667	1880.108398	-116.997673
2697.762553	17475.550667	1879.122070	-50.923229
2697.762553	17475.550667	1878.135742	-30.903233
2697.762553	17475.550667	1877.148438	83.565430
2697.762553	17475.550667	1876.162109	-68.385574
2697.762553	17475.550667	1875.174805	217.934753
2697.762553	17475.550667	1874.187500	20.010063
2697.762553	17475.550667	1873.199219	-56.838272
2697.762553	17475.550667	1872.211914	84.109306
2697.762553	17475.550667	1871.223633	198.380585
2697.762553	17475.550667	1870.236328	-287.275543
2697.762553	17475.550667	1869.248047	-114.963203
2697.762553	17475.550667	1868.258789	6.493961
2697.762553	17475.550667	1867.270508	-43.752800
2697.762553	17475.550667	1866.282227	307.227142
2697.762553	17475.550667	1865.292969	75.663185
2697.762553	17475.550667	1864.303711	32.622932
2697.762553	17475.550667	1863.314453	127.269058
2697.762553	17475.550667	1862.324219	16.563280
2697.762553	17475.550667	1861.334961	142.519348
2697.762553	17475.550667	1860.344727	94.572792
2697.762553	17475.550667	1859.354492	77.996391
2697.762553	17475.550667	1858.364258	203.786774
2697.762553	17475.550667	1857.374023	114.747200
2697.762553	17475.550667	1856.383789	32.946564
2697.762553	17475.550667	1855.392578	134.458664
2697.762553	17475.550667	1854.401367	16.442123
2697.762553	17475.550667	1853.410156	129.902359
2697.762553	17475.550667	1852.418945	33.552799
2697.762553	17475.550667	1851.426758	67.351830
2697.762553	17475.550667	1850.435547	62.541412
2697.762553	17475.550667	1849.443359	156.471390
2697.762553	17475.550667	1848.451172	-188.090012
2697.762553	17475.550667	1847.458984	86.393867
2697.762553	17475.550667	1846.466797	-46.217045
2697.762553	17475.550667	1845.473633	100.443596
2697.762553	17475.550667	1844.480469	95.355148
2697.762553	17475.550667	1843.487305	-123.969154
2697.762553	17475.550667	1842.494141	56.155807
2697.762553	17475.550667	1841.500977	-23.655146
2697.762553	17475.550667	1840.506836	230.836182
2697.762553	17475.550667	1839.513672	148.504639
2697.762553	17475.550667	1838.519531	22.868013
2697.762553	17475.550667	1837.525391	87.124794
2697.762553	17475.550667	1836.530273	-14.540743
2697.762553	17475.550667	1835.536133	164.917648
2697.762553	17475.550667	1834.541016	262.559296
2697.762553	17475.550667	1833.545898	112.684525
2697.762553	17475.550667	1832.550781	56.462894
2697.762553	17475.550667	1831.555664	62.624535
2697.762553	17475.550667	1830.560547	-46.520340
2697.762553	17475.550667	1829.564453	57.927975
2697.762553	17475.550667	1828.568359	49.473297
2697.762553	17475.550667	1827.572266	136.922943
2697.762553	17475.550667	1826.576172	80.330322
2697.762553	17475.550667	1825.580078	244.340668
2697.762553	17475.550667	1824.583008	103.663933
2697.762553	17475.550667	1823.585938	135.585587
2697.762553	17475.550667	1822.588867	37.971603
2697.762553	17475.550667	1821.591797	86.508263
2697.762553	17475.550667	1820.594727	77.435600
2697.762553	17475.550667	1819.596680	192.859711
2697.762553	17475.550667	1818.599609	94.975906
2697.762553	17475.550667	1817.601563	-65.225121
2697.762553	17475.550667	1816.603516	-12.351793
2697.762553	17475.550667	1815.604492	162.500534
2697.762553	17475.550667	1814.606445	116.999596
2697.762553	17475.550667	1813.607422	-79.339157
2697.762553	17475.550667	1812.608398	76.013931
2697.762553	17475.550667	1811.609375	13.530473
2697.762553	17475.550667	1810.610352	10.768982
2697.762553	17475.550667	1809.610352	175.295792
2697.762553	17475.550667	1808.611328	50.384262
2697.762553	17475.550667	1807.611328	195.524460
2697.762553	17475.550667	1806.611328	17.879509
2697.762553	17475.550667	1805.610352	7.457793
2697.762553	17475.550667	1804.610352	-93.837585
2697.762553	17475.550667	1803.609375	-8.896164
2697.762553	17475.550667	1802.608398	221.582336
2697.762553	17475.550667	1801.607422	-85.342422
2697.762553	17475.550667	1800.606445	63.691959
2697.762553	17475.550667	1799.605469	-45.200134
2697.762553	17475.550667	1798.603516	-77.800919
2697.762553	17475.550667	1797.601563	130.469772
2697.762553	17475.550667	1796.599609	214.514450
2697.762553	17475.550667	1795.597656	179.173172
2697.762553	17475.550667	1794.595703	107.968597
2697.762553	17475.550667	1793.592773	105.812424
2697.762553	17475.550667	1792.589844	-63.303436
2697.762553	17475.550667	1791.587891	15.379957
2697.762553	17475.550667	1790.583984	-29.987347
2697.762553	17475.550667	1789.581055	17.458885
2697.762553	17475.550667	1788.577148	160.037247
2697.762553	17475.550667	1787.574219	-95.223282
2697.762553	17475.550667	1786.570313	16.140034
2697.762553	17475.550667	1785.566406	-141.637833
2697.762553	17475.550667	1784.561523	-11.507300
2697.762553	17475.550667	1783.557617	89.907265
2697.762553	17475.550667	1782.552734	-156.179276
2697.762553	17475.550667	1781.547852	142.403152
2697.762553	17475.550667	1780.542969	-63.410397
2697.762553	17475.550667	1779.538086	-50.519791
2697.762553	17475.550667	1778.532227	69.214790
2697.762553	17475.550667	1777.527344	131.745682
2697.762553	17475.550667	1776.521484	186.995483
2697.762553	17475.550667	1775.515625	-4.988948
2697.762553	17475.550667	1774.508789	-73.507637
2697.762553	17475.550667	1773.502930	159.505081
2697.762553	17475.550667	1772.496094	164.344955
2697.762553	17475.550667	1771.489258	209.417816
2697.762553	17475.550667	1770.482422	-123.055939
2697.762553	17475.550667	1769.475586	303.885376
2697.762553	17475.550667	1768.467773	213.280029
2697.762553	17475.550667	1767.460938	44.306534
2697.762553	17475.550667	1766.453125	148.023041
2697.762553	17475.550667	1765.445313	197.032486
2697.762553	17475.550667	1764.437500	295.687256
2697.762553	17475.550667	1763.428711	69.415741
2697.762553	17475.550667	1762.420898	198.614563
2697.762553	17475.550667	1761.412109	187.825180
2697.762553	17475.550667	1760.403320	53.718586
2697.762553	17475.550667	1759.393555	90.071442
2697.762553	17475.550667	1758.384766	-63.164928
2697.762553	17475.550667	1757.375000	39.239536
2697.762553	17475.550667	1756.366211	188.832382
2697.762553	17475.550667	1755.356445	357.167450
2697.762553	17475.550667	1754.345703	260.263977
2697.762553	17475.550667	1753.335938	18.955423
2697.762553	17475.550667	1752.325195	-250.783127
2697.762553	17475.550667	1751.315430	28.154789
2697.762553	17475.550667	1750.304688	-33.651722
2697.762553	17475.550667	1749.292969	81.738556
2697.762553	17475.550667	1748.282227	166.240479
2697.762553	17475.550667	1747.270508	85.144440
2697.762553	17475.550667	1746.259766	188.262283
2697.762553	17475.550667	1745.248047	170.723785
2697.762553	17475.550667	1744.235352	-52.431065
2697.762553	17475.550667	1743.223633	-44.194359
2697.762553	17475.550667	1742.211914	67.797157
2697.762553	17475.550667	1741.199219	96.991234
2697.762553	17475.550667	1740.186523	-39.160019
2697.762553	17475.550667	1739.173828	-165.945297
2697.762553	17475.550667	1738.160156	-118.237442
2697.762553	17475.550667	1737.147461	0.100923
2697.762553	17475.550667	1736.133789	45.151779
2697.762553	17475.550667	1735.120117	-16.042246
2697.762553	17475.550667	1734.106445	-51.405491
2697.762553	17475.550667	1733.091797	-20.895260
2697.762553	17475.550667	1732.078125	-51.777218
2697.762553	17475.550667	1731.063477	-61.576881
2697.762553	17475.550667	1730.048828	-177.497055
2697.762553	17475.550667	1729.034180	-189.867249
2697.762553	17475.550667	1728.019531	-39.880222
2697.762553	17475.550667	1727.003906	-262.054413
2697.762553	17475.550667	1725.988281	-8.796161
2697.762553	17475.550667	1724.972656	-139.349960
2697.762553	17475.550667	1723.957031	-69.975906
2697.762553	17475.550667	1722.941406	112.170441
2697.762553	17475.550667	1721.924805	-117.483482
2697.762553	17475.550667	1720.909180	64.367638
2697.762553	17475.550667	1719.892578	-92.538292
2697.762553	17475.550667	1718.875977	-108.461250
2697.762553	17475.550667	1717.858398	164.568817
2697.762553	17475.550667	1716.841797	14.437242
2697.762553	17475.550667	1715.824219	23.989561
2697.762553	17475.550667	1714.806641	106.238747
2697.762553	17475.550667	1713.789063	77.969818
2697.762553	17475.550667	1712.770508	127.069389
2697.762553	17475.550667	1711.752930	169.009857
2697.762553	17475.550667	1710.734375	156.829163
2697.762553	17475.550667	1709.715820	128.118042
2697.762553	17475.550667	1708.697266	73.501427
2697.762553	17475.550667	1707.678711	63.366974
2697.762553	17475.550667	1706.659180	165.687729
2697.762553	17475.550667	1705.640625	122.499855
2697.762553	17475.550667	1704.621094	72.177155
2697.762553	17475.550667	1703.600586	298.335571
2697.762553	17475.550667	1702.581055	362.620300
2697.762553	17475.550667	1701.561523	363.517914
2697.762553	17475.550667	1700.541016	350.244202
2697.762553	17475.550667	1699.520508	261.929077
2697.762553	17475.550667	1698.500000	400.687836
2697.762553	17475.550667	1697.478516	284.090546
2697.762553	17475.550667	1696.458008	371.100922
2697.762553	17475.550667	1695.436523	479.029724
2697.762553	17475.550667	1694.415039	554.064087
2697.762553	17475.550667	1693.393555	577.508789
2697.762553	17475.550667	1692.372070	678.037903
2697.762553	17475.550667	1691.349609	563.278564
2697.762553	17475.550667	1690.327148	794.505310
2697.762553	17475.550667	1689.304688	838.545349
2697.762553	17475.550667	1688.282227	1027.383423
2697.762553	17475.550667	1687.259766	842.188599
2697.762553	17475.550667	1686.236328	1163.931641
2697.762553	17475.550667	1685.213867	1069.708008
2697.762553	17475.550667	1684.190430	1008.117004
2697.762553	17475.550667	1683.166016	1102.890137
2697.762553	17475.550667	1682.142578	821.713074
2697.762553	17475.550667	1681.119141	979.358398
2697.762553	17475.550667	1680.094727	1097.178101
2697.762553	17475.550667	1679.070313	1023.559875
2697.762553	17475.550667	1678.045898	1136.507080
2697.762553	17475.550667	1677.020508	1079.067871
2697.762553	17475.550667	1675.996094	1070.560791
2697.762553	17475.550667	1674.970703	1108.594727
2697.762553	17475.550667	1673.945313	1111.580322
2697.762553	17475.550667	1672.919922	1321.901489
2697.762553	17475.550667	1671.893555	1322.359497
2697.762553	17475.550667	1670.868164	1397.312378
2697.762553	17475.550667	1669.841797	1500.102905
2697.762553	17475.550667	1668.815430	1395.543213
2697.762553	17475.550667	1667.789063	1395.727539
2697.762553	17475.550667	1666.761719	1335.314209
2697.762553	17475.550667	1665.735352	1295.825928
2697.762553	17475.550667	1664.708008	1474.998535
2697.762553	17475.550667	1663.680664	1405.123047
2697.762553	17475.550667	1662.653320	1253.811279
2697.762553	17475.550667	1661.625000	1383.869629
2697.762553	17475.550667	1660.597656	1641.717041
2697.762553	17475.550667	1659.569336	1274.087036
2697.762553	17475.550667	1658.541016	1413.208252
2697.762553	17475.550667	1657.512695	1436.044189
2697.762553	17475.550667	1656.483398	1314.766235
2697.762553	17475.550667	1655.455078	1744.004761
2697.762553	17475.550667	1654.425781	1685.327881
2697.762553	17475.550667	1653.396484	1865.784790
2697.762553	17475.550667	1652.366211	1811.648438
2697.762553	17475.550667	1651.336914	1829.462646
2697.762553	17475.550667	1650.306641	2063.023438
2697.762553	17475.550667	1649.276367	1762.838745
2697.762553	17475.550667	1648.246094	1854.753418
2697.762553	17475.550667	1647.215820	1960.514526
2697.762553	17475.550667	1646.185547	1913.166260
2697.762553	17475.550667	1645.154297	2021.113647
2697.762553	17475.550667	1644.123047	2036.277100
2697.762553	17475.550667	1643.091797	2062.995361
2697.762553	17475.550667	1642.060547	2010.901733
2697.762553	17475.550667	1641.028320	2028.280762
2697.762553	17475.550667	1639.997070	1934.479370
2697.762553	17475.550667	1638.964844	2148.649902
2697.762553	17475.550667	1637.931641	2133.500000
2697.762553	17475.550667	1636.899414	1875.315186
2697.762553	17475.550667	1635.867188	2003.692505
2697.762553	17475.550667	1634.833984	1993.161255
2697.762553	17475.550667	1633.800781	2183.882080
2697.762553	17475.550667	1632.767578	1999.828735
2697.762553	17475.550667	1631.734375	2174.265869
2697.762553	17475.550667	1630.700195	2152.091309
2697.762553	17475.550667	1629.666016	2208.510742
2697.762553	17475.550667	1628.631836	2313.438477
2697.762553	17475.550667	1627.597656	2085.587646
2697.762553	17475.550667	1626.563477	2500.060547
2697.762553	17475.550667	1625.528320	2447.785400
2697.762553	17475.550667	1624.493164	2460.192627
2697.762553	17475.550667	1623.458008	2384.862305
2697.762553	17475.550667	1622.422852	2383.434570
2697.762553	17475.550667	1621.387695	2245.846680
2697.762553	17475.550667	1620.351563	2343.668457
2697.762553	17475.550667	1619.315430	2464.532471
2697.762553	17475.550667	1618.279297	2292.422852
2697.762553	17475.550667	1617.243164	2145.761230
2697.762553	17475.550667	1616.207031	2179.018066
2697.762553	17475.550667	1615.169922	2050.891846
2697.762553	17475.550667	1614.132813	2446.027100
2697.762553	17475.550667	1613.095703	2075.980469
2697.762553	17475.550667	1612.058594	2328.157471
2697.762553	17475.550667	1611.020508	2082.690674
2697.762553	17475.550667	1609.983398	2162.089844
2697.762553	17475.550667	1608.945313	2266.795654
2697.762553	17475.550667	1607.907227	2102.140137
2697.762553	17475.550667	1606.868164	1776.445068
2697.762553	17475.550667	1605.830078	2023.930908
2697.762553	17475.550667	1604.791016	1852.595581
2697.762553	17475.550667	1603.751953	1955.100586
2697.762553	17475.550667	1602.712891	1901.211426
2697.762553	17475.550667	1601.673828	1801.392456
2697.762553	17475.550667	1600.633789	1860.264771
2697.762553	17475.550667	1599.594727	1785.858765
2697.762553	17475.550667	1598.554688	1955.104370
2697.762553	17475.550667	1597.513672	1809.534546
2697.762553	17475.550667	1596.473633	1735.300537
2697.762553	17475.550667	1595.433594	1927.564331
2697.762553	17475.550667	1594.392578	1814.379028
2697.762553	17475.550667	1593.351563	1976.790527
2697.762553	17475.550667	1592.310547	1735.202881
2697.762553	17475.550667	1591.268555	1828.807739
2697.762553	17475.550667	1590.227539	1771.013428
2697.762553	17475.550667	1589.185547	1743.106445
2697.762553	17475.550667	1588.143555	2132.704590
2697.762553	17475.550667	1587.100586	1726.470703
2697.762553	17475.550667	1586.058594	1870.724487
2697.762553	17475.550667	1585.015625	1865.971802
2697.762553	17475.550667	1583.972656	1969.003906
2697.762553	17475.550667	1582.929688	1900.209229
2697.762553	17475.550667	1581.886719	2001.038452
2697.762553	17475.550667	1580.843750	2067.541748
2697.762553	17475.550667	1579.799805	1946.294800
2697.762553	17475.550667	1578.755859	2232.711426
2697.762553	17475.550667	1577.711914	1903.316650
2697.762553	17475.550667	1576.666992	2015.826660
2697.762553	17475.550667	1575.623047	1915.583252
2697.762553	17475.550667	1574.578125	2067.095215
2697.762553	17475.550667	1573.533203	1886.969971
2697.762553	17475.550667	1572.488281	1837.349487
2697.762553	17475.550667	1571.443359	2075.922607
2697.762553	17475.550667	1570.397461	2044.726196
2697.762553	17475.550667	1569.351563	1894.783203
2697.762553	17475.550667	1568.305664	1772.407349
2697.762553	17475.550667	1567.259766	2173.352295
2697.762553	17475.550667	1566.213867	1799.892456
2697.762553	17475.550667	1565.166992	1659.598755
2697.762553	17475.550667	1564.120117	1745.499146
2697.762553	17475.550667	1563.073242	1644.270874
2697.762553	17475.550667	1562.026367	1673.276489
2697.762553	17475.550667	1560.978516	1670.407227
2697.762553	17475.550667	1559.930664	1375.608887
2697.762553	17475.550667	1558.883789	1649.021973
2697.762553	17475.550667	1557.834961	1742.235962
2697.762553	17475.550667	1556.787109	1607.517456
2697.762553	17475.550667	1555.739258	1586.943481
2697.762553	17475.550667	1554.690430	1409.202637
2697.762553	17475.550667	1553.641602	1746.650146
2697.762553	17475.550667	1552.592773	1787.888794
2697.762553	17475.550667	1551.542969	2152.673828
2697.762553	17475.550667	1550.494141	2153.045654
2697.762553	17475.550667	1549.444336	1814.245728
2697.762553	17475.550667	1548.394531	1833.113403
2697.762553	17475.550667	1547.344727	1877.128174
2697.762553	17475.550667	1546.293945	2037.290161
2697.762553	17475.550667	1545.244141	2161.118652
2697.762553	17475.550667	1544.193359	1784.556152
2697.762553	17475.550667	1543.142578	2131.499268
2697.762553	17475.550667	1542.090820	2030.462158
2697.762553	17475.550667	1541.040039	1818.203369
2697.762553	17475.550667	1539.988281	1694.789307
2697.762553	17475.550667	1538.936523	1519.282227
2697.762553	17475.550667	1537.884766	1596.175537
2697.762553	17475.550667	1536.833008	1309.704712
2697.762553	17475.550667	1535.780273	1375.499634
2697.762553	17475.550667	1534.727539	1305.155518
2697.762553	17475.550667	1533.674805	1055.620605
2697.762553	17475.550667	1532.622070	1153.604858
2697.762553	17475.550667	1531.569336	856.810730
2697.762553	17475.550667	1530.515625	800.767151
2697.762553	17475.550667	1529.461914	824.281311
2697.762553	17475.550667	1528.408203	614.315186
2697.762553	17475.550667	1527.354492	982.811218
2697.762553	17475.550667	1526.299805	764.097778
2697.762553	17475.550667	1525.246094	683.894104
2697.762553	17475.550667	1524.191406	408.955841
2697.762553	17475.550667	1523.136719	403.901764
2697.762553	17475.550667	1522.081055	539.437805
2697.762553	17475.550667	1521.026367	566.360046
2697.762553	17475.550667	1519.970703	378.285675
2697.762553	17475.550667	1518.915039	496.075928
2697.762553	17475.550667	1517.859375	410.248322
2697.762553	17475.550667	1516.802734	483.014252
2697.762553	17475.550667	1515.747070	562.697754
2697.762553	17475.550667	1514.690430	273.752136
2697.762553	17475.550667	1513.633789	154.706955
2697.762553	17475.550667	1512.577148	-79.465317
2697.762553	17475.550667	1511.519531	55.126091
2697.762553	17475.550667	1510.461914	135.569794
2697.762553	17475.550667	1509.405273	-43.752239
2697.762553	17475.550667	1508.346680	50.542545
2697.762553	17475.550667	1507.289063	108.821098
2697.762553	17475.550667	1506.231445	22.682455
2697.762553	17475.550667	1505.172852	60.932266
2697.762553	17475.550667	1504.114258	45.140594
2697.762553	17475.550667	1503.055664	-151.065918
2697.762553	17475.550667	1501.996094	-62.677078
2697.762553	17475.550667	1500.937500	-136.612518
2697.762553	17475.550667	1499.877930	15.233559
2697.762553	17475.550667	1498.818359	-180.164383
2697.762553	17475.550667	1497.757813	-115.992844
2697.762553	17475.550667	1496.698242	56.546970
2697.762553	17475.550667	1495.637695	-217.145981
2697.762553	17475.550667	1494.577148	-80.384995
2697.762553	17475.550667	1493.516602	101.555077
2697.762553	17475.550667	1492.456055	69.574165
2697.762553	17475.550667	1491.394531	69.303024
2697.762553	17475.550667	1490.333008	-119.960022
2697.762553	17475.550667	1489.271484	-9.529935
2697.762553	17475.550667	1488.209961	19.991215
2697.762553	17475.550667	1487.148438	-2.090455
2697.762553	17475.550667	1486.085938	-21.746002
2697.762553	17475.550667	1485.023438	138.755600
2697.762553	17475.550667	1483.960938	96.934288
2697.762553	17475.550667	1482.898438	1.335373
2697.762553	17475.550667	1481.834961	7.121206
2697.762553	17475.550667	1480.772461	76.027931
2697.762553	17475.550667	1479.708984	176.541138
2697.762553	17475.550667	1478.644531	-75.562950
2697.762553	17475.550667	1477.581055	-51.082432
2697.762553	17475.550667	1476.517578	88.096466
2697.762553	17475.550667	1475.453125	389.028595
2697.762553	17475.550667	1474.388672	86.139488
2697.762553	17475.550667	1473.323242	162.881744
2697.762553	17475.550667	1472.258789	-137.047379
2697.762553	17475.550667	1471.193359	133.041397
2697.762553	17475.550667	1470.127930	-7.282574
2697.762553	17475.550667	1469.062500	175.369553
2697.762553	17475.550667	1467.997070	273.171783
2697.762553	17475.550667	1466.930664	133.216324
2697.762553	17475.550667	1465.865234	211.523514
2697.762553	17475.550667	1464.798828	587.319702
2697.762553	17475.550667	1463.731445	435.280334
2697.762553	17475.550667	1462.665039	889.257690
2697.762553	17475.550667	1461.597656	854.089478
2697.762553	17475.550667	1460.530273	934.442932
2697.762553	17475.550667	1459.462891	914.562317
2697.762553	17475.550667	1458.395508	832.658569
2697.762553	17475.550667	1457.327148	882.997131
2697.762553	17475.550667	1456.259766	1032.975098
2697.762553	17475.550667	1455.191406	1077.131348
2697.762553	17475.550667	1454.123047	1004.612366
2697.762553	17475.550667	1453.053711	936.803528
2697.762553	17475.550667	1451.985352	952.367981
2697.762553	17475.550667	1450.916016	832.150513
2697.762553	17475.550667	1449.846680	1042.125244
2697.762553	17475.550667	1448.776367	994.109619
2697.762553	17475.550667	1447.707031	939.995850
2697.762553	17475.550667	1446.636719	991.860596
2697.762553	17475.550667	1445.566406	963.237671
2697.762553	17475.550667	1444.496094	1038.572266
2697.762553	17475.550667	1443.425781	1040.547729
2697.762553	17475.550667	1442.354492	1012.314514
2697.762553	17475.550667	1441.283203	965.495605
2697.762553	17475.550667	1440.211914	1099.348633
2697.762553	17475.550667	1439.140625	1079.842041
2697.762553	17475.550667	1438.069336	1011.856506
2697.762553	17475.550667	1436.997070	779.275635
2697.762553	17475.550667	1435.924805	931.381531
2697.762553	17475.550667	1434.852539	1067.547119
2697.762553	17475.550667	1433.780273	969.557068
2697.762553	17475.550667	1432.707031	1017.717590
2697.762553	17475.550667	1431.633789	949.599243
2697.762553	17475.550667	1430.560547	958.697693
2697.762553	17475.550667	1429.487305	1297.290039
2697.762553	17475.550667	1428.413086	1178.850708
2697.762553	17475.550667	1427.339844	1275.738281
2697.762553	17475.550667	1426.265625	1098.129028
2697.762553	17475.550667	1425.191406	1393.713501
2697.762553	17475.550667	1424.116211	1360.095947
2697.762553	17475.550667	1423.041992	1164.324585
2697.762553	17475.550667	1421.966797	1372.717651
2697.762553	17475.550667	1420.891602	1320.922241
2697.762553	17475.550667	1419.816406	1246.408325
2697.762553	17475.550667	1418.740234	1382.886475
2697.762553	17475.550667	1417.665039	1099.645386
2697.762553	17475.550667	1416.588867	995.147644
2697.762553	17475.550667	1415.512695	818.851563
2697.762553	17475.550667	1414.435547	731.233765
2697.762553	17475.550667	1413.359375	673.511475
2697.762553	17475.550667	1412.282227	634.763611
2697.762553	17475.550667	1411.205078	762.141235
2697.762553	17475.550667	1410.127930	738.061768
2697.762553	17475.550667	1409.049805	695.326660
2697.762553	17475.550667	1407.972656	593.218018
2697.762553	17475.550667	1406.894531	614.415710
2697.762553	17475.550667	1405.816406	712.669617
2697.762553	17475.550667	1404.737305	613.807312
2697.762553	17475.550667	1403.659180	683.548889
2697.762553	17475.550667	1402.580078	509.089172
2697.762553	17475.550667	1401.500977	735.245789
2697.762553	17475.550667	1400.421875	675.670349
2697.762553	17475.550667	1399.341797	508.962524
2697.762553	17475.550667	1398.262695	559.137695
2697.762553	17475.550667	1397.182617	799.659790
2697.762553	17475.550667	1396.102539	555.421692
2697.762553	17475.550667	1395.021484	246.135010
2697.762553	17475.550667	1393.941406	106.353928
2697.762553	17475.550667	1392.860352	270.466278
2697.762553	17475.550667	1391.779297	483.369324
2697.762553	17475.550667	1390.698242	302.167664
2697.762553	17475.550667	1389.616211	182.259048
2697.762553	17475.550667	1388.535156	490.704010
2697.762553	17475.550667	1387.453125	468.024567
2697.762553	17475.550667	1386.371094	502.088867
2697.762553	17475.550667	1385.288086	326.574493
2697.762553	17475.550667	1384.206055	332.424500
2697.762553	17475.550667	1383.123047	665.672852
2697.762553	17475.550667	1382.040039	715.058044
2697.762553	17475.550667	1380.957031	615.054810
2697.762553	17475.550667	1379.873047	789.331604
2697.762553	17475.550667	1378.789063	780.540588
2697.762553	17475.550667	1377.705078	999.172974
2697.762553	17475.550667	1376.621094	1117.950562
2697.762553	17475.550667	1375.537109	1055.958130
2697.762553	17475.550667	1374.452148	1029.112915
2697.762553	17475.550667	1373.367188	993.154297
2697.762553	17475.550667	1372.282227	908.548035
2697.762553	17475.550667	1371.197266	1084.027466
2697.762553	17475.550667	1370.112305	1194.220459
2697.762553	17475.550667	1369.026367	1027.437378
2697.762553	17475.550667	1367.940430	1076.338623
2697.762553	17475.550667	1366.854492	1064.438965
2697.762553	17475.550667	1365.767578	1349.195313
2697.762553	17475.550667	1364.681641	1159.514648
2697.762553	17475.550667	1363.594727	963.826172
2697.762553	17475.550667	1362.507813	939.992737
2697.762553	17475.550667	1361.419922	853.002197
2697.762553	17475.550667	1360.333008	741.653076
2697.762553	17475.550667	1359.245117	685.612671
2697.762553	17475.550667	1358.157227	894.588135
2697.762553	17475.550667	1357.069336	717.121338
2697.762553	17475.550667	1355.981445	691.816589
2697.762553	17475.550667	1354.892578	714.943726
2697.762553	17475.550667	1353.803711	682.185913
2697.762553	17475.550667	1352.714844	690.488220
2697.762553	17475.550667	1351.625000	754.096497
2697.762553	17475.550667	1350.536133	647.537292
2697.762553	17475.550667	1349.446289	557.154846
2697.762553	17475.550667	1348.356445	594.084961
2697.762553	17475.550667	1347.266602	573.147583
2697.762553	17475.550667	1346.175781	842.702393
2697.762553	17475.550667	1345.085938	932.031555
2697.762553	17475.550667	1343.995117	751.470764
2697.762553	17475.550667	1342.903320	1110.197754
2697.762553	17475.550667	1341.812500	983.182678
2697.762553	17475.550667	1340.720703	939.519470
2697.762553	17475.550667	1339.629883	1027.503174
2697.762553	17475.550667	1338.538086	1241.687134
2697.762553	17475.550667	1337.445313	1162.739136
2697.762553	17475.550667	1336.353516	1308.165649
2697.762553	17475.550667	1335.260742	1021.127930
2697.762553	17475.550667	1334.167969	1245.180176
2697.762553	17475.550667	1333.075195	1178.995850
2697.762553	17475.550667	1331.981445	1093.924072
2697.762553	17475.550667	1330.888672	1258.635986
2697.762553	17475.550667	1329.794922	1227.942261
2697.762553	17475.550667	1328.701172	1139.687744
2697.762553	17475.550667	1327.606445	948.863342
2697.762553	17475.550667	1326.512695	820.340637
2697.762553	17475.550667	1325.417969	1127.974121
2697.762553	17475.550667	1324.323242	1220.438110
2697.762553	17475.550667	1323.227539	1215.527710
2697.762553	17475.550667	1322.132813	1260.038574
2697.762553	17475.550667	1321.037109	1117.891113
2697.762553	17475.550667	1319.941406	986.140442
2697.762553	17475.550667	1318.845703	1028.869995
2697.762553	17475.550667	1317.750000	1017.073608
2697.762553	17475.550667	1316.653320	810.123840
2697.762553	17475.550667	1315.556641	959.947388
2697.762553	17475.550667	1314.459961	1128.681519
2697.762553	17475.550667	1313.363281	712.124634
2697.762553	17475.550667	1312.265625	626.082275
2697.762553	17475.550667	1311.167969	661.490540
2697.762553	17475.550667	1310.070313	651.336304
2697.762553	17475.550667	1308.972656	595.228516
2697.762553	17475.550667	1307.874023	416.762115
2697.762553	17475.550667	1306.776367	585.019653
2697.762553	17475.550667	1305.677734	566.128784
2697.762553	17475.550667	1304.579102	374.083710
2697.762553	17475.550667	1303.479492	582.048889
2697.762553	17475.550667	1302.380859	476.397430
2697.762553	17475.550667	1301.281250	762.539734
2697.762553	17475.550667	1300.181641	583.176697
2697.762553	17475.550667	1299.081055	840.137085
2697.762553	17475.550667	1297.981445	826.068970
2697.762553	17475.550667	1296.880859	572.535461
2697.762553	17475.550667	1295.780273	557.000000
2697.762553	17475.550667	1294.679688	890.730774
2697.762553	17475.550667	1293.578125	611.235413
2697.762553	17475.550667	1292.476563	671.878601
2697.762553	17475.550667	1291.375000	664.817139
2697.762553	17475.550667	1290.273438	535.297668
2697.762553	17475.550667	1289.171875	420.021912
2697.762553	17475.550667	1288.069336	524.597473
2697.762553	17475.550667	1286.966797	494.920837
2697.762553	17475.550667	1285.864258	564.598145
2697.762553	17475.550667	1284.761719	498.384827
2697.762553	17475.550667	1283.658203	720.253784
2697.762553	17475.550667	1282.554688	786.009705
2697.762553	17475.550667	1281.451172	750.783020
2697.762553	17475.550667	1280.347656	605.538147
2697.762553	17475.550667	1279.244141	799.635010
2697.762553	17475.550667	1278.139648	622.081909
2697.762553	17475.550667	1277.035156	568.822998
2697.762553	17475.550667	1275.930664	536.703491
2697.762553	17475.550667	1274.825195	497.463318
2697.762553	17475.550667	1273.720703	465.747498
2697.762553	17475.550667	1272.615234	484.326263
2697.762553	17475.550667	1271.508789	541.089966
2697.762553	17475.550667	1270.403320	491.146301
2697.762553	17475.550667	1269.297852	526.304565
2697.762553	17475.550667	1268.191406	678.426941
2697.762553	17475.550667	1267.084961	508.068481
2697.762553	17475.550667	1265.977539	535.177368
2697.762553	17475.550667	1264.871094	534.758484
2697.762553	17475.550667	1263.763672	541.140259
2697.762553	17475.550667	1262.656250	482.110931
2697.762553	17475.550667	1261.548828	198.719116
2697.762553	17475.550667	1260.440430	485.283081
2697.762553	17475.550667	1259.333008	433.524445
2697.762553	17475.550667	1258.224609	161.453308
2697.762553	17475.550667	1257.115234	196.202194
2697.762553	17475.550667	1256.006836	246.552170
2697.762553	17475.550667	1254.897461	194.042786
2697.762553	17475.550667	1253.788086	402.076569
2697.762553	17475.550667	1252.678711	322.815338
2697.762553	17475.550667	1251.569336	362.309479
2697.762553	17475.550667	1250.458984	777.697815
2697.762553	17475.550667	1249.349609	565.540649
2697.762553	17475.550667	1248.239258	453.236938
2697.762553	17475.550667	1247.127930	645.654602
2697.762553	17475.550667	1246.017578	667.669373
2697.762553	17475.550667	1244.906250	789.895081
2697.762553	17475.550667	1243.794922	701.162048
2697.762553	17475.550667	1242.683594	670.872314
2697.762553	17475.550667	1241.571289	675.122681
2697.762553	17475.550667	1240.459961	544.923706
2697.762553	17475.550667	1239.347656	166.926407
2697.762553	17475.550667	1238.234375	414.274017
2697.762553	17475.550667	1237.122070	234.156799
2697.762553	17475.550667	1236.008789	158.710114
2697.762553	17475.550667	1234.896484	178.723877
2697.762553	17475.550667	1233.782227	272.658020
2697.762553	17475.550667	1232.668945	121.279648
2697.762553	17475.550667	1231.555664	165.282272
2697.762553	17475.550667	1230.441406	-25.012682
2697.762553	17475.550667	1229.327148	24.547480
2697.762553	17475.550667	1228.211914	104.559540
2697.762553	17475.550667	1227.097656	149.289215
2697.762553	17475.550667	1225.982422	46.517216
2697.762553	17475.550667	1224.867188	215.883621
2697.762553	17475.550667	1223.751953	135.774963
2697.762553	17475.550667	1222.635742	4.147333
2697.762553	17475.550667	1221.520508	24.493238
2697.762553	17475.550667	1220.404297	-71.235886
2697.762553	17475.550667	1219.287109	45.701900
2697.762553	17475.550667	1218.170898	2.801226
2697.762553	17475.550667	1217.053711	-56.743439
2697.762553	17475.550667	1215.936523	-3.978298
2697.762553	17475.550667	1214.819336	12.160971
2697.762553	17475.550667	1213.702148	-78.558182
2697.762553	17475.550667	1212.583984	-19.971832
2697.762553	17475.550667	1211.465820	-64.168999
2697.762553	17475.550667	1210.347656	-128.197647
2697.762553	17475.550667	1209.229492	-28.578360
2697.762553	17475.550667	1208.110352	-105.163925
2697.762553	17475.550667	1206.992188	-31.111391
2697.762553	17475.550667	1205.873047	-59.392822
2697.762553	17475.550667	1204.752930	-14.295505
2697.762553	17475.550667	1203.633789	124.068680
2697.762553	17475.550667	1202.513672	303.997955
2697.762553	17475.550667	1201.393555	163.609756
2697.762553	17475.550667	1200.273438	274.794647
2697.762553	17475.550667	1199.152344	260.512146
2697.762553	17475.550667	1198.032227	184.243576
2697.762553	17475.550667	1196.911133	292.802429
2697.762553	17475.550667	1195.790039	235.374725
2697.762553	17475.550667	1194.667969	314.759674
2697.762553	17475.550667	1193.545898	209.933395
2697.762553	17475.550667	1192.424805	195.186707
2697.762553	17475.550667	1191.301758	236.172775
2697.762553	17475.550667	1190.179688	-72.268288
2697.762553	17475.550667	1189.056641	153.238937
2697.762553	17475.550667	1187.933594	91.095703
2697.762553	17475.550667	1186.810547	56.543293
2697.762553	17475.550667	1185.687500	69.789818
2697.762553	17475.550667	1184.563477	11.710304
2697.762553	17475.550667	1183.440430	82.515923
2697.762553	17475.550667	1182.316406	42.073761
2697.762553	17475.550667	1181.191406	161.532242
2697.762553	17475.550667	1180.067383	43.073578
2697.762553	17475.550667	1178.942383	-103.943230
2697.762553	17475.550667	1177.817383	-121.052933
2697.762553	17475.550667	1176.692383	-127.899879
2697.762553	17475.550667	1175.566406	-47.318394
2697.762553	17475.550667	1174.440430	-88.914307
2697.762553	17475.550667	1173.314453	14.674891
2697.762553	17475.550667	1172.188477	110.429893
2697.762553	17475.550667	1171.062500	82.811867
2697.762553	17475.550667	1169.935547	108.937424
2697.762553	17475.550667	1168.808594	-44.355583
2697.762553	17475.550667	1167.681641	184.997589
2697.762553	17475.550667	1166.553711	64.156326
2697.762553	17475.550667	1165.426758	5.752789
2697.762553	17475.550667	1164.298828	146.290054
2697.762553	17475.550667	1163.170898	278.145416
2697.762553	17475.550667	1162.041992	203.538635
2697.762553	17475.550667	1160.914063	374.178558
2697.762553	17475.550667	1159.785156	473.594177
2697.762553	17475.550667	1158.656250	521.753906
2697.762553	17475.550667	1157.526367	464.123383
2697.762553	17475.550667	1156.397461	502.461823
2697.762553	17475.550667	1155.267578	454.713776
2697.762553	17475.550667	1154.137695	716.968994
2697.762553	17475.550667	1153.006836	659.428284
2697.762553	17475.550667	1151.876953	652.569214
2697.762553	17475.550667	1150.746094	577.339783
2697.762553	17475.550667	1149.615234	468.858307
2697.762553	17475.550667	1148.484375	452.167328
2697.762553	17475.550667	1147.352539	317.974091
2697.762553	17475.550667	1146.220703	291.440308
2697.762553	17475.550667	1145.088867	107.524445
2697.762553	17475.550667	1143.957031	159.191864
2697.762553	17475.550667	1142.825195	133.147171
2697.762553	17475.550667	1141.692383	195.127594
2697.762553	17475.550667	1140.559570	19.343105
2697.762553	17475.550667	1139.426758	-45.866890
2697.762553	17475.550667	1138.292969	57.254189
2697.762553	17475.550667	1137.159180	-22.441841
2697.762553	17475.550667	1136.025391	-132.112610
2697.762553	17475.550667	1134.891602	-181.497757
2697.762553	17475.550667	1133.757813	-146.995117
2697.762553	17475.550667	1132.623047	-205.778107
2697.762553	17475.550667	1131.488281	-110.408569
2697.762553	17475.550667	1130.353516	81.617081
2697.762553	17475.550667	1129.217773	-58.474388
2697.762553	17475.550667	1128.083008	-116.856316
2697.762553	17475.550667	1126.947266	-163.467468
2697.762553	17475.550667	1125.811523	-130.690521
2697.762553	17475.550667	1124.674805	-67.539200
2697.762553	17475.550667	1123.539063	-51.355099
2697.762553	17475.550667	1122.402344	-130.822708
2697.762553	17475.550667	1121.265625	40.136616
2697.762553	17475.550667	1120.127930	-104.790939
2697.762553	17475.550667	1118.990234	-80.716011
2697.762553	17475.550667	1117.853516	-146.538940
2697.762553	17475.550667	1116.714844	-74.316376
2697.762553	17475.550667	1115.577148	-200.789902
2697.762553	17475.550667	1114.439453	-70.025406
2697.762553	17475.550667	1113.300781	-147.549011
2697.762553	17475.550667	1112.162109	-113.380005
2697.762553	17475.550667	1111.022461	-184.415741
2697.762553	17475.550667	1109.883789	28.597990
2697.762553	17475.550667	1108.744141	8.904597
2697.762553	17475.550667	1107.604492	71.494957
2697.762553	17475.550667	1106.463867	138.498749
2697.762553	17475.550667	1105.324219	128.462891
2697.762553	17475.550667	1104.183594	129.215149
2697.762553	17475.550667	1103.042969	74.918633
2697.762553	17475.550667	1101.902344	48.254932
2697.762553	17475.550667	1100.760742	97.160019
2697.762553	17475.550667	1099.619141	133.924255
2697.762553	17475.550667	1098.477539	164.166748
2697.762553	17475.550667	1097.335938	113.846474
2697.762553	17475.550667	1096.193359	192.094437
2697.762553	17475.550667	1095.051758	237.262833
2697.762553	17475.550667	1093.909180	424.140930
2697.762553	17475.550667	1092.765625	129.530304
2697.762553	17475.550667	1091.623047	243.539490
2697.762553	17475.550667	1090.479492	163.412415
2697.762553	17475.550667	1089.335938	208.080872
2697.762553	17475.550667	1088.192383	104.285187
2697.762553	17475.550667	1087.047852	216.883331
2697.762553	17475.550667	1085.903320	289.458771
2697.762553	17475.550667	1084.758789	133.732285
2697.762553	17475.550667	1083.614258	101.881760
2697.762553	17475.550667	1082.469727	62.246178
2697.762553	17475.550667	1081.324219	164.660690
2697.762553	17475.550667	1080.178711	263.828369
2697.762553	17475.550667	1079.033203	201.503265
2697.762553	17475.550667	1077.886719	301.225403
2697.762553	17475.550667	1076.740234	123.216690
2697.762553	17475.550667	1075.593750	271.747803
2697.762553	17475.550667	1074.447266	338.833588
2697.762553	17475.550667	1073.300781	281.891266
2697.762553	17475.550667	1072.153320	181.229034
2697.762553	17475.550667	1071.005859	300.684479
2697.762553	17475.550667	1069.858398	200.230515
2697.762553	17475.550667	1068.709961	244.096039
2697.762553	17475.550667	1067.561523	361.989990
2697.762553	17475.550667	1066.413086	299.657745
2697.762553	17475.550667	1065.264648	318.998016
2697.762553	17475.550667	1064.116211	609.462280
2697.762553	17475.550667	1062.966797	440.679474
2697.762553	17475.550667	1061.817383	409.441040
2697.762553	17475.550667	1060.667969	525.837097
2697.762553	17475.550667	1059.517578	557.272827
2697.762553	17475.550667	1058.368164	575.977844
2697.762553	17475.550667	1057.217773	649.508179
2697.762553	17475.550667	1056.067383	308.000427
2697.762553	17475.550667	1054.916016	553.405273
2697.762553	17475.550667	1053.764648	563.674927
2697.762553	17475.550667	1052.613281	320.825348
2697.762553	17475.550667	1051.461914	305.251495
2697.762553	17475.550667	1050.310547	292.759399
2697.762553	17475.550667	1049.158203	433.451813
2697.762553	17475.550667	1048.005859	357.974701
2697.762553	17475.550667	1046.853516	517.787476
2697.762553	17475.550667	1045.700195	589.135254
2697.762553	17475.550667	1044.547852	624.985046
2697.762553	17475.550667	1043.394531	499.143005
2697.762553	17475.550667	1042.240234	593.644531
2697.762553	17475.550667	1041.086914	579.757935
2697.762553	17475.550667	1039.932617	551.893372
2697.762553	17475.550667	1038.778320	537.429993
2697.762553	17475.550667	1037.624023	606.181641
2697.762553	17475.550667	1036.469727	539.348083
2697.762553	17475.550667	1035.314453	599.038086
2697.762553	17475.550667	1034.159180	690.647644
2697.762553	17475.550667	1033.003906	817.994629
2697.762553	17475.550667	1031.847656	696.493347
2697.762553	17475.550667	1030.692383	898.085205
2697.762553	17475.550667	1029.536133	1053.611938
2697.762553	17475.550667	1028.378906	779.735901
2697.762553	17475.550667	1027.222656	764.783875
2697.762553	17475.550667	1026.065430	802.015930
2697.762553	17475.550667	1024.908203	636.171570
2697.762553	17475.550667	1023.750977	691.125244
2697.762553	17475.550667	1022.593750	609.764282
2697.762553	17475.550667	1021.435547	479.634277
2697.762553	17475.550667	1020.277344	451.156464
2697.762553	17475.550667	1019.119141	112.828499
2697.762553	17475.550667	1017.959961	336.267059
2697.762553	17475.550667	1016.800781	377.973694
2697.762553	17475.550667	1015.641602	394.475403
2697.762553	17475.550667	1014.482422	444.937775
2697.762553	17475.550667	1013.323242	424.007965
2697.762553	17475.550667	1012.163086	329.367737
2697.762553	17475.550667	1011.002930	310.581512
2697.762553	17475.550667	1009.842773	314.397003
2697.762553	17475.550667	1008.681641	295.573944
2697.762553	17475.550667	1007.520508	234.594940
2697.762553	17475.550667	1006.359375	365.925446
2697.762553	17475.550667	1005.198242	189.859100
2697.762553	17475.550667	1004.037109	99.240273
2697.762553	17475.550667	1002.875000	195.063812
2697.762553	17475.550667	1001.712891	151.754028
2697.762553	17475.550667	1000.550781	20.120167
2697.762553	17475.550667	999.387695	95.023125
2697.762553	17475.550667	998.224609	85.656929
2697.762553	17475.550667	997.061523	74.423592
2697.762553	17475.550667	995.898438	150.478088
2697.762553	17475.550667	994.734375	164.319794
2697.762553	17475.550667	993.571289	88.535904
2697.762553	17475.550667	992.407227	-183.461502
2697.762553	17475.550667	991.242188	-61.939461
2697.762553	17475.550667	990.078125	-43.260662
2697.762553	17475.550667	988.913086	-31.482063
2697.762553	17475.550667	987.748047	-65.309532
2697.762553	17475.550667	986.583008	53.681442
2697.762553	17475.550667	985.416992	39.753521
2697.762553	17475.550667	984.250977	1.766423
2697.762553	17475.550667	983.084961	237.760880
2697.762553	17475.550667	981.918945	48.218060
2697.762553	17475.550667	980.751953	145.077179
2697.762553	17475.550667	979.584961	308.852478
2697.762553	17475.550667	978.417969	322.203827
2697.762553	17475.550667	977.250977	232.603577
2697.762553	17475.550667	976.083008	241.214447
2697.762553	17475.550667	974.915039	348.673889
2697.762553	17475.550667	973.747070	214.869324
2697.762553	17475.550667	972.579102	257.378601
2697.762553	17475.550667	971.410156	40.760689
2697.762553	17475.550667	970.242188	231.268845
2697.762553	17475.550667	969.072266	182.513077
2697.762553	17475.550667	967.903320	129.522461
2697.762553	17475.550667	966.733398	-30.881824
2697.762553	17475.550667	965.563477	162.731003
2697.762553	17475.550667	964.393555	31.386074
2697.762553	17475.550667	963.223633	240.597733
2697.762553	17475.550667	962.052734	238.988159
2697.762553	17475.550667	960.881836	185.679688
2697.762553	17475.550667	959.710938	254.211090
2697.762553	17475.550667	958.540039	235.103561
2697.762553	17475.550667	957.368164	273.305328
2697.762553	17475.550667	956.196289	532.136047
2697.762553	17475.550667	955.024414	386.276215
2697.762553	17475.550667	953.851563	323.434601
2697.762553	17475.550667	952.679688	337.185791
2697.762553	17475.550667	951.506836	402.632324
2697.762553	17475.550667	950.333984	276.771790
2697.762553	17475.550667	949.160156	381.606842
2697.762553	17475.550667	947.986328	424.686890
2697.762553	17475.550667	946.812500	360.749023
2697.762553	17475.550667	945.638672	353.169830
2697.762553	17475.550667	944.464844	106.554520
2697.762553	17475.550667	943.290039	399.819611
2697.762553	17475.550667	942.115234	91.393578
2697.762553	17475.550667	940.940430	-8.057832
2697.762553	17475.550667	939.764648	230.280243
2697.762553	17475.550667	938.588867	130.840286
2697.762553	17475.550667	937.413086	125.701096
2697.762553	17475.550667	936.237305	85.156273
2697.762553	17475.550667	935.060547	71.259857
2697.762553	17475.550667	933.883789	46.255936
2697.762553	17475.550667	932.707031	91.600243
2697.762553	17475.550667	931.530273	167.397903
2697.762553	17475.550667	930.352539	129.186218
2697.762553	17475.550667	929.175781	167.579956
2697.762553	17475.550667	927.998047	100.768303
2697.762553	17475.550667	926.819336	159.006699
2697.762553	17475.550667	925.641602	72.327980
2697.762553	17475.550667	924.462891	180.971985
2697.762553	17475.550667	923.284180	-10.970341
2697.762553	17475.550667	922.104492	213.829147
2697.762553	17475.550667	920.924805	155.665543
2697.762553	17475.550667	919.746094	160.827164
2697.762553	17475.550667	919.551758	78.621239
2697.762553	17475.550667	918.386719	283.424042
2697.762553	17475.550667	917.220703	117.783066
2697.762553	17475.550667	916.054688	226.059784
2697.762553	17475.550667	914.887695	58.274593
2697.762553	17475.550667	913.721680	52.601261
2697.762553	17475.550667	912.554688	-69.132935
2697.762553	17475.550667	911.387695	163.811508
2697.762553	17475.550667	910.220703	26.751511
2697.762553	17475.550667	909.052734	16.656574
2697.762553	17475.550667	907.885742	260.334381
2697.762553	17475.550667	906.717773	560.774109
2697.762553	17475.550667	905.548828	108.776100
2697.762553	17475.550667	904.380859	-113.474045
2697.762553	17475.550667	903.211914	-23.037958
2697.762553	17475.550667	902.042969	58.607121
2697.762553	17475.550667	900.874023	124.910881
2697.762553	17475.550667	899.704102	33.879784
2697.762553	17475.550667	898.535156	167.850937
2697.762553	17475.550667	897.365234	22.232281
2697.762553	17475.550667	896.194336	134.304489
2697.762553	17475.550667	895.024414	23.658630
2697.762553	17475.550667	893.853516	37.454502
2697.762553	17475.550667	892.682617	142.880920
2697.762553	17475.550667	891.511719	156.629700
2697.762553	17475.550667	890.340820	179.088943
2697.762553	17475.550667	889.168945	-84.137352
2697.762553	17475.550667	887.997070	112.771439
2697.762553	17475.550667	886.825195	69.813751
2697.762553	17475.550667	885.653320	-10.181890
2697.762553	17475.550667	884.480469	-22.600843
2697.762553	17475.550667	883.307617	293.930267
2697.762553	17475.550667	882.134766	-40.906532
2697.762553	17475.550667	880.961914	203.628342
2697.762553	17475.550667	879.788086	-96.224533
2697.762553	17475.550667	878.614258	-84.690399
2697.762553	17475.550667	877.440430	-38.346092
2697.762553	17475.550667	876.266602	-68.176643
2697.762553	17475.550667	875.091797	102.138557
2697.762553	17475.550667	873.916992	-45.157986
2697.762553	17475.550667	872.742188	-29.310131
2697.762553	17475.550667	871.567383	-15.646689
2697.762553	17475.550667	870.391602	-38.936943
2697.762553	17475.550667	869.215820	-53.528263
2697.762553	17475.550667	868.040039	-105.050262
2697.762553	17475.550667	866.864258	128.010971
2697.762553	17475.550667	865.687500	-103.785751
2697.762553	17475.550667	864.510742	48.841072
2697.762553	17475.550667	863.333984	-50.420826
2697.762553	17475.550667	862.157227	-38.949158
2697.762553	17475.550667	860.979492	-122.959587
2697.762553	17475.550667	859.802734	-55.069008
2697.762553	17475.550667	858.625000	-60.953114
2697.762553	17475.550667	857.446289	-88.516991
2697.762553	17475.550667	856.268555	83.404655
2697.762553	17475.550667	855.089844	77.500381
2697.762553	17475.550667	853.911133	112.780136
2697.762553	17475.550667	852.731445	15.867068
2697.762553	17475.550667	851.552734	-72.342102
2697.762553	17475.550667	850.373047	-52.209663
2697.762553	17475.550667	849.193359	-12.594816
2697.762553	17475.550667	848.013672	29.171488
2697.762553	17475.550667	846.833008	-310.059143
2697.762553	17475.550667	845.652344	-12.862739
2697.762553	17475.550667	844.471680	-122.580048
2697.762553	17475.550667	843.291016	-37.549862
2697.762553	17475.550667	842.110352	-354.852203
2697.762553	17475.550667	840.928711	-191.952881
2697.762553	17475.550667	839.747070	-89.655533
2697.762553	17475.550667	838.564453	-112.764854
2697.762553	17475.550667	837.382813	-159.639114
2697.762553	17475.550667	836.200195	-228.095795
2697.762553	17475.550667	835.017578	-134.504959
2697.762553	17475.550667	833.834961	-220.212311
2697.762553	17475.550667	832.651367	-206.549942
2697.762553	17475.550667	831.467773	-177.778564
2697.762553	17475.550667	830.284180	-166.283981
2697.762553	17475.550667	829.100586	-301.538849
2697.762553	17475.550667	827.916992	-93.681946
2697.762553	17475.550667	826.732422	-127.503380
2697.762553	17475.550667	825.547852	54.359123
2697.762553	17475.550667	824.363281	-20.444136
2697.762553	17475.550667	823.177734	-21.915236
2697.762553	17475.550667	821.992188	-70.801308
2697.762553	17475.550667	820.806641	16.092857
2697.762553	17475.550667	819.621094	23.237839
2697.762553	17475.550667	818.434570	-83.778633
2697.762553	17475.550667	817.249023	-83.075760
2697.762553	17475.550667	816.062500	102.800331
2697.762553	17475.550667	814.875000	-101.031364
2697.762553	17475.550667	813.688477	-22.839483
2697.762553	17475.550667	812.500977	-4.926044
2697.762553	17475.550667	811.313477	-4.230637
2697.762553	17475.550667	810.125977	9.370573
2697.762553	17475.550667	808.937500	-97.457619
2697.762553	17475.550667	807.749023	30.110788
2697.762553	17475.550667	806.560547	-7.892183
2697.762553	17475.550667	805.372070	143.242218
2697.762553	17475.550667	804.182617	66.557655
2697.762553	17475.550667	802.994141	101.606728
2697.762553	17475.550667	801.803711	46.440773
2697.762553	17475.550667	800.614258	29.943489
2697.762553	17475.550667	799.424805	-16.606148
2697.762553	17475.550667	798.234375	20.576675
2697.762553	17475.550667	797.043945	64.180214
2697.762553	17475.550667	795.852539	24.087891
2697.762553	17475.550667	794.662109	273.597412
2697.762553	17475.550667	793.470703	284.944611
2697.762553	17475.550667	792.279297	437.802155
2697.762553	17475.550667	791.087891	395.506592
2697.762553	17475.550667	789.895508	308.217682
2697.762553	17475.550667	788.703125	274.531830
2697.762553	17475.550667	787.510742	120.877403
2697.762553	17475.550667	786.318359	194.334137
2697.762553	17475.550667	785.125000	55.742359
2697.762553	17475.550667	783.931641	0.706315
2697.762553	17475.550667	782.738281	183.300827
2697.762553	17475.550667	781.544922	-38.692276
2697.762553	17475.550667	780.350586	98.888588
2697.762553	17475.550667	779.156250	163.665237
2697.762553	17475.550667	777.961914	102.212456
2697.762553	17475.550667	776.767578	45.052292
2697.762553	17475.550667	775.572266	-67.678146
2697.762553	17475.550667	774.376953	33.386112
2697.762553	17475.550667	773.181641	78.832535
2697.762553	17475.550667	771.986328	128.522995
2697.762553	17475.550667	770.790039	60.692181
2697.762553	17475.550667	769.593750	20.643559
2697.762553	17475.550667	768.397461	31.847382
2697.762553	17475.550667	767.201172	230.906708
2697.762553	17475.550667	766.003906	111.838394
2697.762553	17475.550667	764.806641	46.156853
2697.762553	17475.550667	763.609375	97.835251
2697.762553	17475.550667	762.412109	162.276443
2697.762553	17475.550667	761.213867	58.197384
2697.762553	17475.550667	760.015625	58.626209
2697.762553	17475.550667	758.817383	131.520432
2697.762553	17475.550667	757.618164	112.722954
2697.762553	17475.550667	756.419922	223.898026
2697.762553	17475.550667	755.220703	79.356934
2697.762553	17475.550667	754.021484	83.959862
2697.762553	17475.550667	752.821289	254.653152
2697.762553	17475.550667	751.621094	176.147614
2697.762553	17475.550667	750.420898	110.426117
2697.762553	17475.550667	749.220703	159.638535
2697.762553	17475.550667	748.020508	100.292168
2697.762553	17475.550667	746.819336	345.164276
2697.762553	17475.550667	745.618164	324.048798
2697.762553	17475.550667	744.416992	604.878723
2697.762553	17475.550667	743.214844	634.700806
2697.762553	17475.550667	742.012695	598.593262
2697.762553	17475.550667	740.810547	581.603271
2697.762553	17475.550667	739.608398	713.324097
2697.762553	17475.550667	738.406250	732.380249
2697.762553	17475.550667	737.203125	1072.101440
2697.762553	17475.550667	736.000000	1224.797485
2697.762553	17475.550667	734.795898	1591.822388
2697.762553	17475.550667	733.592773	1897.110840
2697.762553	17475.550667	732.388672	2123.731934
2697.762553	17475.550667	731.184570	2072.300049
2697.762553	17475.550667	729.979492	1925.411743
2697.762553	17475.550667	728.775391	1661.912598
2697.762553	17475.550667	727.570313	1512.991821
2697.762553	17475.550667	726.365234	1241.151733
2697.762553	17475.550667	725.160156	1121.989380
2697.762553	17475.550667	723.954102	854.522705
2697.762553	17475.550667	722.748047	805.339111
2697.762553	17475.550667	721.541992	504.096191
2697.762553	17475.550667	720.334961	414.708374
2697.762553	17475.550667	719.128906	407.891052
2697.762553	17475.550667	717.921875	422.210876
2697.762553	17475.550667	716.714844	275.652740
2697.762553	17475.550667	715.506836	217.987442
2697.762553	17475.550667	714.298828	321.079742
2697.762553	17475.550667	713.090820	240.091263
2697.762553	17475.550667	711.882813	110.465775
2697.762553	17475.550667	710.674805	319.105103
2697.762553	17475.550667	709.465820	282.441986
2697.762553	17475.550667	708.256836	342.961517
2697.762553	17475.550667	707.047852	363.272583
2697.762553	17475.550667	705.837891	527.173035
2697.762553	17475.550667	704.627930	399.529907
2697.762553	17475.550667	703.417969	343.686432
2697.762553	17475.550667	702.208008	484.143127
2697.762553	17475.550667	700.998047	350.130951
2697.762553	17475.550667	699.787109	294.207336
2697.762553	17475.550667	698.576172	354.293274
2697.762553	17475.550667	697.364258	471.259674
2697.762553	17475.550667	696.153320	379.364227
2697.762553	17475.550667	694.941406	357.039581
2697.762553	17475.550667	693.729492	362.079956
2697.762553	17475.550667	692.516602	428.189148
2697.762553	17475.550667	691.304688	397.300903
2697.762553	17475.550667	690.091797	435.896484
2697.762553	17475.550667	688.878906	541.822021
2697.762553	17475.550667	687.665039	430.777222
2697.762553	17475.550667	686.451172	483.934509
2697.762553	17475.550667	685.237305	549.649841
2697.762553	17475.550667	684.023438	714.190430
2697.762553	17475.550667	682.809570	584.070496
2697.762553	17475.550667	681.594727	590.679199
2697.762553	17475.550667	680.379883	658.221191
2697.762553	17475.550667	679.165039	530.146423
2697.762553	17475.550667	677.949219	536.611328
2697.762553	17475.550667	676.733398	549.324890
2697.762553	17475.550667	675.517578	641.827698
2697.762553	17475.550667	674.301758	303.580353
2697.762553	17475.550667	673.084961	446.399475
2697.762553	17475.550667	671.869141	601.702637
2697.762553	17475.550667	670.651367	435.674500
2697.762553	17475.550667	669.434570	601.302612
2697.762553	17475.550667	668.216797	674.471375
2697.762553	17475.550667	667.000000	531.448242
2697.762553	17475.550667	665.781250	648.542419
2697.762553	17475.550667	664.563477	824.253845
2697.762553	17475.550667	663.344727	590.963562
2697.762553	17475.550667	662.125977	770.694458
2697.762553	17475.550667	660.907227	736.511841
2697.762553	17475.550667	659.688477	721.146973
2697.762553	17475.550667	658.468750	695.256714
2697.762553	17475.550667	657.249023	635.807800
2697.762553	17475.550667	656.029297	551.196411
2697.762553	17475.550667	654.808594	468.658600
2697.762553	17475.550667	653.587891	551.463867
2697.762553	17475.550667	652.367188	569.300537
2697.762553	17475.550667	651.146484	442.697815
2697.762553	17475.550667	649.924805	598.500916
2697.762553	17475.550667	648.704102	530.391113
2697.762553	17475.550667	647.482422	455.978882
2697.762553	17475.550667	646.259766	661.681030
2697.762553	17475.550667	645.037109	616.417847
2697.762553	17475.550667	643.815430	594.103027
2697.762553	17475.550667	642.591797	686.648743
2697.762553	17475.550667	641.369141	540.969910
2697.762553	17475.550667	640.145508	645.900208
2697.762553	17475.550667	638.921875	481.383636
2697.762553	17475.550667	637.698242	703.064819
2697.762553	17475.550667	636.474609	749.280640
2697.762553	17475.550667	635.250000	709.867249
2697.762553	17475.550667	634.025391	611.999451
2697.762553	17475.550667	632.800781	925.003357
2697.762553	17475.550667	631.575195	701.896729
2697.762553	17475.550667	630.349609	812.401367
2697.762553	17475.550667	629.124023	701.854309
2697.762553	17475.550667	627.898438	883.050659
2697.762553	17475.550667	626.671875	549.481567
2697.762553	17475.550667	625.445313	615.947205
2697.762553	17475.550667	624.218750	453.237793
2697.762553	17475.550667	622.992188	500.840973
2697.762553	17475.550667	621.764648	246.511398
2697.762553	17475.550667	620.537109	404.333679
2697.762553	17475.550667	619.309570	389.319824
2697.762553	17475.550667	618.081055	407.541840
2697.762553	17475.550667	616.852539	325.860870
2697.762553	17475.550667	615.624023	352.293915
2697.762553	17475.550667	614.395508	276.784637
2697.762553	17475.550667	613.166992	334.287537
2697.762553	17475.550667	611.937500	271.172333
2697.762553	17475.550667	610.708008	297.373718
2697.762553	17475.550667	609.477539	392.062195
2697.762553	17475.550667	608.248047	175.120743
2697.762553	17475.550667	607.017578	207.393738
2697.762553	17475.550667	605.787109	44.453838
2697.762553	17475.550667	604.555664	-8.464165
2697.762553	17475.550667	603.325195	-5.383096
2697.762553	17475.550667	602.093750	66.110489
2697.762553	17475.550667	600.861328	135.446716
2697.762553	17475.550667	599.629883	179.817871
2697.762553	17475.550667	598.397461	327.787628
2697.762553	17475.550667	597.165039	104.591133
2697.762553	17475.550667	595.932617	260.705566
2697.762553	17475.550667	594.699219	298.597992
2697.762553	17475.550667	593.465820	164.482224
2697.762553	17475.550667	592.232422	150.504456
2697.762553	17475.550667	590.999023	22.597017
2697.762553	17475.550667	589.764648	12.702460
2697.762553	17475.550667	588.530273	4.837574
2697.762553	17475.550667	587.295898	27.972815
2697.762553	17475.550667	586.061523	44.847210
2697.762553	17475.550667	584.826172	144.411057
2697.762553	17475.550667	583.590820	39.150108
2697.762553	17475.550667	582.355469	113.777054
2697.762553	17475.550667	581.119141	97.373993
2697.762553	17475.550667	579.882813	78.871140
2697.762553	17475.550667	578.646484	171.917755
2697.762553	17475.550667	577.410156	16.981503
2697.762553	17475.550667	576.172852	223.523315
2697.762553	17475.550667	574.935547	2.486264
2697.762553	17475.550667	573.698242	101.514809
2697.762553	17475.550667	572.460938	119.964340
2697.762553	17475.550667	571.222656	-43.231606
2697.762553	17475.550667	569.984375	53.575298
2697.762553	17475.550667	568.746094	5.914313
2697.762553	17475.550667	567.506836	-10.825003
2697.762553	17475.550667	566.267578	56.951096
2697.762553	17475.550667	565.028320	40.148857
2697.762553	17475.550667	563.789063	128.437225
2697.762553	17475.550667	562.548828	128.054352
2697.762553	17475.550667	561.309570	63.781776
2697.762553	17475.550667	560.068359	156.044830
2697.762553	17475.550667	558.828125	85.563751
2697.762553	17475.550667	557.586914	148.912445
2697.762553	17475.550667	556.345703	45.480782
2697.762553	17475.550667	555.104492	14.100857
2697.762553	17475.550667	553.863281	-58.437222
2697.762553	17475.550667	552.621094	-116.565292
2697.762553	17475.550667	551.378906	187.279449
2697.762553	17475.550667	550.136719	5.717227
2697.762553	17475.550667	548.893555	-95.612549
2697.762553	17475.550667	547.650391	-36.600132
2697.762553	17475.550667	546.407227	-16.668282
2697.762553	17475.550667	545.164063	-93.317879
2697.762553	17475.550667	543.919922	-36.438831
2697.762553	17475.550667	542.675781	223.706589
2697.762553	17475.550667	541.431641	81.321602
2697.762553	17475.550667	540.186523	-97.962234
2697.762553	17475.550667	538.941406	90.171921
2697.762553	17475.550667	537.696289	187.940964
2697.762553	17475.550667	536.451172	57.962135
2697.762553	17475.550667	535.205078	-28.899603
2697.762553	17475.550667	533.959961	19.606546
2697.762553	17475.550667	532.712891	-15.966758
2697.762553	17475.550667	531.466797	85.798645
2697.762553	17475.550667	530.219727	13.340534
2697.762553	17475.550667	528.972656	-5.820175
2697.762553	17475.550667	527.725586	-137.626816
2697.762553	17475.550667	526.478516	-37.968052
2697.762553	17475.550667	525.230469	-259.792480
2697.762553	17475.550667	523.982422	-111.017723
2697.762553	17475.550667	522.734375	86.815178
2697.762553	17475.550667	521.485352	-132.833237
2697.762553	17475.550667	520.236328	-233.732193
2697.762553	17475.550667	518.987305	-269.133728
2697.762553	17475.550667	517.737305	-63.231640
2697.762553	17475.550667	516.488281	-65.926765
2697.762553	17475.550667	515.238281	-62.479645
2697.762553	17475.550667	513.988281	14.540534
2697.762553	17475.550667	512.737305	-33.084473
2697.762553	17475.550667	511.486328	-94.974716
2697.762553	17475.550667	510.235352	-193.582596
2697.762553	17475.550667	508.984375	-100.214058
2697.762553	17475.550667	507.732422	-180.379395
2697.762553	17475.550667	506.480469	-82.943962
2697.762553	17475.550667	505.228516	-275.266510
2697.762553	17475.550667	503.976563	-224.737137
2697.762553	17475.550667	502.723633	-86.515602
2697.762553	17475.550667	501.470703	-190.983093
2697.762553	17475.550667	500.217773	-60.945805
2697.762553	17475.550667	498.963867	-10.436647
2697.762553	17475.550667	497.709961	-27.175833
2697.762553	17475.550667	496.456055	-78.521446
2697.762553	17475.550667	495.202148	-17.797455
2697.762553	17475.550667	493.947266	-12.065209
2697.762553	17475.550667	492.692383	-22.602798
2697.762553	17475.550667	491.437500	156.190460
2697.762553	17475.550667	490.181641	33.728706
2697.762553	17475.550667	488.926758	61.908390
2697.762553	17475.550667	487.670898	222.320297
2697.762553	17475.550667	486.414063	-87.125481
2697.762553	17475.550667	485.158203	-87.346252
2697.762553	17475.550667	483.901367	40.526024
2697.762553	17475.550667	482.644531	150.070053
2697.762553	17475.550667	481.386719	-41.157806
2697.762553	17475.550667	480.128906	60.266685
2697.762553	17475.550667	478.871094	54.013866
2697.762553	17475.550667	477.613281	35.596775
2697.762553	17475.550667	476.355469	-51.825142
2697.762553	17475.550667	475.096680	35.372517
2697.762553	17475.550667	473.837891	-35.746849
2697.762553	17475.550667	472.578125	-9.431062
2697.762553	17475.550667	471.319336	73.686546
2697.762553	17475.550667	470.059570	122.301567
2697.762553	17475.550667	468.799805	-27.804277
2697.762553	17475.550667	467.539063	61.374763
2697.762553	17475.550667	466.278320	6.621167
2697.762553	17475.550667	465.017578	65.373795
2697.762553	17475.550667	463.756836	-5.552604
2697.762553	17475.550667	462.495117	0.522106
2697.762553	17475.550667	461.233398	73.420952
2697.762553	17475.550667	459.971680	160.459305
2697.762553	17475.550667	458.709961	83.501244
2697.762553	17475.550667	457.447266	97.636597
2697.762553	17475.550667	456.184570	85.455460
2697.762553	17475.550667	454.921875	129.909424
2697.762553	17475.550667	453.658203	-3.642570
2697.762553	17475.550667	452.394531	271.286652
2697.762553	17475.550667	451.130859	93.253738
2697.762553	17475.550667	449.867188	175.999756
2697.762553	17475.550667	448.602539	58.635960
2697.762553	17475.550667	447.337891	-0.117638
2697.762553	17475.550667	446.073242	-16.461817
2697.762553	17475.550667	444.807617	80.247322
2697.762553	17475.550667	443.542969	-6.843937
2697.762553	17475.550667	442.276367	79.644447
2697.762553	17475.550667	441.010742	99.454124
2697.762553	17475.550667	439.744141	18.322010
2697.762553	17475.550667	438.478516	175.195724
2697.762553	17475.550667	437.210938	283.535217
2697.762553	17475.550667	435.944336	34.877739
2697.762553	17475.550667	434.676758	64.444496
2697.762553	17475.550667	433.409180	91.906090
2697.762553	17475.550667	432.141602	131.363464
2697.762553	17475.550667	430.873047	158.625931
2697.762553	17475.550667	429.604492	209.951553
2697.762553	17475.550667	428.335938	249.073456
2697.762553	17475.550667	427.067383	74.666939
2697.762553	17475.550667	425.797852	167.923935
2697.762553	17475.550667	424.528320	144.303040
2697.762553	17475.550667	423.258789	11.920292
2697.762553	17475.550667	421.988281	-3.876163
2697.762553	17475.550667	420.717773	18.403084
2697.762553	17475.550667	419.447266	114.915314
2697.762553	17475.550667	418.175781	80.561295
2697.762553	17475.550667	416.905273	80.224068
2697.762553	17475.550667	415.633789	1.345333
2697.762553	17475.550667	414.362305	52.894234
2697.762553	17475.550667	413.089844	160.459366
2697.762553	17475.550667	411.817383	-53.507034
2697.762553	17475.550667	410.544922	113.845734
2697.762553	17475.550667	409.272461	186.567307
2697.762553	17475.550667	407.999023	80.422173
2697.762553	17475.550667	406.725586	-108.178017
2697.762553	17475.550667	405.452148	25.987312
2697.762553	17475.550667	404.177734	87.629379
2697.762553	17475.550667	402.903320	24.657457
2697.762553	17475.550667	401.628906	294.173981
2697.762553	17475.550667	400.354492	76.276146
2697.762553	17475.550667	399.079102	52.505955
2697.762553	17475.550667	397.803711	148.611023
2697.762553	17475.550667	396.528320	70.088898
2697.762553	17475.550667	395.251953	109.377136
2697.762553	17475.550667	393.976563	134.272171
2697.762553	17475.550667	392.700195	-49.391056
2697.762553	17475.550667	391.422852	178.833786
2697.762553	17475.550667	390.145508	142.463150
2697.762553	17475.550667	388.869141	9.676498
2697.762553	17475.550667	387.590820	-127.515556
2697.762553	17475.550667	386.313477	72.778763
2697.762553	17475.550667	385.035156	-41.327686
2697.762553	17475.550667	383.756836	101.914505
2697.762553	17475.550667	382.478516	8.813943
2697.762553	17475.550667	381.199219	-106.765488
2697.762553	17475.550667	379.919922	-160.937881
2697.762553	17475.550667	378.640625	-6.007313
2697.762553	17475.550667	377.360352	58.418640
2697.762553	17475.550667	376.080078	-23.494011
2697.762553	17475.550667	374.799805	41.654289
2697.762553	17475.550667	373.519531	-161.208084
2697.762553	17475.550667	372.238281	-217.079361
2697.762553	17475.550667	370.957031	-159.962570
2697.762553	17475.550667	369.675781	-79.671143
2697.762553	17475.550667	368.394531	-40.025814
2697.762553	17475.550667	367.112305	-56.983231
2697.762553	17475.550667	365.830078	-104.615799
2697.762553	17475.550667	364.546875	-19.606153
2697.762553	17475.550667	363.264648	-19.106230
2697.762553	17475.550667	361.981445	90.011177
2697.762553	17475.550667	360.698242	11.060510
2697.762553	17475.550667	359.414063	84.442009
2697.762553	17475.550667	358.129883	-8.315940
2697.762553	17475.550667	356.845703	128.741974
2697.762553	17475.550667	355.561523	22.082180
2697.762553	17475.550667	354.276367	59.557404
2697.762553	17475.550667	352.991211	101.903435
2697.762553	17475.550667	351.706055	-9.920123
2697.762553	17475.550667	350.420898	-112.898666
2697.762553	17475.550667	349.134766	-14.384712
2697.762553	17475.550667	347.848633	164.317062
2697.762553	17475.550667	346.561523	-41.599350
2697.762553	17475.550667	345.275391	-165.284790
2697.762553	17475.550667	343.988281	-40.149429
2697.762553	17475.550667	342.700195	160.949860
2697.762553	17475.550667	341.413086	74.892288
2697.762553	17475.550667	340.125000	-26.471083
2697.762553	17475.550667	338.836914	-61.822353
2697.762553	17475.550667	337.548828	-132.370010
2697.762553	17475.550667	336.259766	102.805672
2697.762553	17475.550667	334.970703	136.113281
2697.762553	17475.550667	333.681641	17.183708
2697.762553	17475.550667	332.391602	-71.708168
2697.762553	17475.550667	331.101563	233.856049
2697.762553	17475.550667	329.811523	151.380676
2697.762553	17475.550667	328.521484	37.438519
2697.762553	17475.550667	327.230469	-52.619389
2697.762553	17475.550667	325.939453	75.122093
2697.762553	17475.550667	324.648438	222.622726
2697.762553	17475.550667	323.356445	9.978321
2697.762553	17475.550667	322.064453	34.670879
2697.762553	17475.550667	320.772461	-69.289932
2697.762553	17475.550667	319.480469	-44.891468
2697.762553	17475.550667	318.187500	-48.460251
2697.762553	17475.550667	316.894531	-46.386082
2697.762553	17475.550667	315.601563	20.535027
2697.762553	17475.550667	314.307617	-114.489731
2697.762553	17475.550667	313.013672	-247.940063
2697.762553	17475.550667	311.719727	-77.826035
2697.762553	17475.550667	310.425781	-7.051362
2697.762553	17475.550667	309.130859	43.250237
2697.762553	17475.550667	307.835938	-35.411659
2697.762553	17475.550667	306.541016	11.430932
2697.762553	17475.550667	305.245117	82.982399
2697.762553	17475.550667	303.949219	98.398361
2697.762553	17475.550667	302.653320	99.040779
2697.762553	17475.550667	301.356445	157.688873
2697.762553	17475.550667	300.060547	233.020477
2697.762553	17475.550667	298.763672	210.535095
