#X		#Y		#Wave		#Intensity
2843.815000	17431.970333	2000.043945	64.655312
2843.815000	17431.970333	1999.080078	-113.100502
2843.815000	17431.970333	1998.116211	-71.276337
2843.815000	17431.970333	1997.151367	24.814440
2843.815000	17431.970333	1996.186523	56.217293
2843.815000	17431.970333	1995.222656	-34.002995
2843.815000	17431.970333	1994.256836	-37.715919
2843.815000	17431.970333	1993.291992	-83.735909
2843.815000	17431.970333	1992.327148	70.602882
2843.815000	17431.970333	1991.361328	-22.848658
2843.815000	17431.970333	1990.395508	-17.456764
2843.815000	17431.970333	1989.429688	96.628777
2843.815000	17431.970333	1988.463867	165.964569
2843.815000	17431.970333	1987.497070	24.854319
2843.815000	17431.970333	1986.531250	69.116516
2843.815000	17431.970333	1985.564453	71.172249
2843.815000	17431.970333	1984.597656	-25.809813
2843.815000	17431.970333	1983.630859	37.762836
2843.815000	17431.970333	1982.664063	108.587547
2843.815000	17431.970333	1981.696289	28.534660
2843.815000	17431.970333	1980.728516	180.598083
2843.815000	17431.970333	1979.761719	75.614891
2843.815000	17431.970333	1978.792969	-108.467514
2843.815000	17431.970333	1977.825195	134.541595
2843.815000	17431.970333	1976.857422	179.873016
2843.815000	17431.970333	1975.888672	22.705688
2843.815000	17431.970333	1974.919922	38.233204
2843.815000	17431.970333	1973.951172	51.197174
2843.815000	17431.970333	1972.982422	-49.398212
2843.815000	17431.970333	1972.013672	-26.726133
2843.815000	17431.970333	1971.043945	3.256093
2843.815000	17431.970333	1970.075195	30.689602
2843.815000	17431.970333	1969.105469	102.410400
2843.815000	17431.970333	1968.135742	206.076736
2843.815000	17431.970333	1967.165039	134.702271
2843.815000	17431.970333	1966.195313	-101.754883
2843.815000	17431.970333	1965.224609	28.811861
2843.815000	17431.970333	1964.253906	112.491226
2843.815000	17431.970333	1963.283203	104.994804
2843.815000	17431.970333	1962.312500	134.383698
2843.815000	17431.970333	1961.341797	48.046024
2843.815000	17431.970333	1960.370117	-30.915234
2843.815000	17431.970333	1959.399414	52.499969
2843.815000	17431.970333	1958.427734	69.436951
2843.815000	17431.970333	1957.455078	-12.035959
2843.815000	17431.970333	1956.483398	-76.288429
2843.815000	17431.970333	1955.511719	41.386959
2843.815000	17431.970333	1954.539063	112.296089
2843.815000	17431.970333	1953.566406	77.488991
2843.815000	17431.970333	1952.593750	8.282663
2843.815000	17431.970333	1951.621094	133.163467
2843.815000	17431.970333	1950.647461	110.617546
2843.815000	17431.970333	1949.674805	34.049767
2843.815000	17431.970333	1948.701172	60.625217
2843.815000	17431.970333	1947.727539	-13.457571
2843.815000	17431.970333	1946.753906	-35.971924
2843.815000	17431.970333	1945.780273	86.302902
2843.815000	17431.970333	1944.805664	-22.087830
2843.815000	17431.970333	1943.831055	58.446697
2843.815000	17431.970333	1942.856445	33.500542
2843.815000	17431.970333	1941.881836	55.161816
2843.815000	17431.970333	1940.907227	-23.689430
2843.815000	17431.970333	1939.932617	113.201775
2843.815000	17431.970333	1938.957031	41.745586
2843.815000	17431.970333	1937.981445	-49.270382
2843.815000	17431.970333	1937.005859	-47.144089
2843.815000	17431.970333	1936.030273	-120.929413
2843.815000	17431.970333	1935.054688	23.280146
2843.815000	17431.970333	1934.078125	-70.040039
2843.815000	17431.970333	1933.101563	-82.521713
2843.815000	17431.970333	1932.125000	-31.341049
2843.815000	17431.970333	1931.148438	-56.013668
2843.815000	17431.970333	1930.171875	44.122501
2843.815000	17431.970333	1929.194336	68.415710
2843.815000	17431.970333	1928.217773	26.695030
2843.815000	17431.970333	1927.240234	58.371811
2843.815000	17431.970333	1926.262695	-59.065136
2843.815000	17431.970333	1925.284180	65.554115
2843.815000	17431.970333	1924.306641	53.302334
2843.815000	17431.970333	1923.328125	-76.198631
2843.815000	17431.970333	1922.350586	-54.157974
2843.815000	17431.970333	1921.372070	-90.715057
2843.815000	17431.970333	1920.392578	-22.222376
2843.815000	17431.970333	1919.414063	80.460159
2843.815000	17431.970333	1918.434570	-97.591911
2843.815000	17431.970333	1917.456055	-9.513124
2843.815000	17431.970333	1916.476563	34.641247
2843.815000	17431.970333	1915.497070	27.576927
2843.815000	17431.970333	1914.516602	-30.677402
2843.815000	17431.970333	1913.537109	13.555304
2843.815000	17431.970333	1912.556641	-68.991547
2843.815000	17431.970333	1911.576172	111.821075
2843.815000	17431.970333	1910.595703	-2.333457
2843.815000	17431.970333	1909.615234	0.564849
2843.815000	17431.970333	1908.633789	-15.997823
2843.815000	17431.970333	1907.653320	28.382973
2843.815000	17431.970333	1906.671875	-31.953201
2843.815000	17431.970333	1905.690430	10.043896
2843.815000	17431.970333	1904.708984	32.581116
2843.815000	17431.970333	1903.727539	-71.439896
2843.815000	17431.970333	1902.745117	-0.154538
2843.815000	17431.970333	1901.762695	22.469114
2843.815000	17431.970333	1900.780273	96.208107
2843.815000	17431.970333	1899.797852	36.165623
2843.815000	17431.970333	1898.815430	68.593750
2843.815000	17431.970333	1897.832031	-22.969046
2843.815000	17431.970333	1896.849609	43.555431
2843.815000	17431.970333	1895.866211	-174.299973
2843.815000	17431.970333	1894.882813	42.959137
2843.815000	17431.970333	1893.898438	-16.823574
2843.815000	17431.970333	1892.915039	-35.256279
2843.815000	17431.970333	1891.930664	-5.077476
2843.815000	17431.970333	1890.947266	-25.877422
2843.815000	17431.970333	1889.962891	-107.340340
2843.815000	17431.970333	1888.977539	61.282299
2843.815000	17431.970333	1887.993164	26.000097
2843.815000	17431.970333	1887.007813	41.713905
2843.815000	17431.970333	1886.023438	-42.022377
2843.815000	17431.970333	1885.038086	-26.251684
2843.815000	17431.970333	1884.051758	88.969238
2843.815000	17431.970333	1883.066406	-4.356687
2843.815000	17431.970333	1882.081055	-46.714890
2843.815000	17431.970333	1881.094727	24.883894
2843.815000	17431.970333	1880.108398	33.469509
2843.815000	17431.970333	1879.122070	-18.500774
2843.815000	17431.970333	1878.135742	36.156364
2843.815000	17431.970333	1877.148438	129.563995
2843.815000	17431.970333	1876.162109	-21.622007
2843.815000	17431.970333	1875.174805	-39.573696
2843.815000	17431.970333	1874.187500	97.419250
2843.815000	17431.970333	1873.199219	108.526802
2843.815000	17431.970333	1872.211914	56.731792
2843.815000	17431.970333	1871.223633	-86.962929
2843.815000	17431.970333	1870.236328	-20.151270
2843.815000	17431.970333	1869.248047	32.137444
2843.815000	17431.970333	1868.258789	74.746147
2843.815000	17431.970333	1867.270508	-34.951401
2843.815000	17431.970333	1866.282227	92.270920
2843.815000	17431.970333	1865.292969	-43.952030
2843.815000	17431.970333	1864.303711	-83.470711
2843.815000	17431.970333	1863.314453	55.791630
2843.815000	17431.970333	1862.324219	-36.851921
2843.815000	17431.970333	1861.334961	3.356529
2843.815000	17431.970333	1860.344727	94.254471
2843.815000	17431.970333	1859.354492	-49.020813
2843.815000	17431.970333	1858.364258	-71.569832
2843.815000	17431.970333	1857.374023	-0.003364
2843.815000	17431.970333	1856.383789	-44.262737
2843.815000	17431.970333	1855.392578	89.985626
2843.815000	17431.970333	1854.401367	36.079674
2843.815000	17431.970333	1853.410156	71.403732
2843.815000	17431.970333	1852.418945	125.996941
2843.815000	17431.970333	1851.426758	52.824699
2843.815000	17431.970333	1850.435547	95.344566
2843.815000	17431.970333	1849.443359	-30.809092
2843.815000	17431.970333	1848.451172	71.920410
2843.815000	17431.970333	1847.458984	61.408634
2843.815000	17431.970333	1846.466797	53.301155
2843.815000	17431.970333	1845.473633	52.409534
2843.815000	17431.970333	1844.480469	-39.959011
2843.815000	17431.970333	1843.487305	-14.380584
2843.815000	17431.970333	1842.494141	76.142456
2843.815000	17431.970333	1841.500977	55.956867
2843.815000	17431.970333	1840.506836	-89.306976
2843.815000	17431.970333	1839.513672	44.424408
2843.815000	17431.970333	1838.519531	38.639210
2843.815000	17431.970333	1837.525391	-60.911900
2843.815000	17431.970333	1836.530273	36.638706
2843.815000	17431.970333	1835.536133	-10.044032
2843.815000	17431.970333	1834.541016	53.787724
2843.815000	17431.970333	1833.545898	-0.125528
2843.815000	17431.970333	1832.550781	30.017607
2843.815000	17431.970333	1831.555664	-69.535675
2843.815000	17431.970333	1830.560547	133.416901
2843.815000	17431.970333	1829.564453	-2.167764
2843.815000	17431.970333	1828.568359	-32.133533
2843.815000	17431.970333	1827.572266	177.822968
2843.815000	17431.970333	1826.576172	59.024181
2843.815000	17431.970333	1825.580078	-42.966747
2843.815000	17431.970333	1824.583008	121.230797
2843.815000	17431.970333	1823.585938	43.185726
2843.815000	17431.970333	1822.588867	25.068642
2843.815000	17431.970333	1821.591797	62.051613
2843.815000	17431.970333	1820.594727	-6.442784
2843.815000	17431.970333	1819.596680	-15.049667
2843.815000	17431.970333	1818.599609	26.616564
2843.815000	17431.970333	1817.601563	13.152153
2843.815000	17431.970333	1816.603516	100.222946
2843.815000	17431.970333	1815.604492	139.347534
2843.815000	17431.970333	1814.606445	56.355183
2843.815000	17431.970333	1813.607422	160.014267
2843.815000	17431.970333	1812.608398	65.012756
2843.815000	17431.970333	1811.609375	103.969604
2843.815000	17431.970333	1810.610352	11.331406
2843.815000	17431.970333	1809.610352	21.510637
2843.815000	17431.970333	1808.611328	38.820435
2843.815000	17431.970333	1807.611328	103.888672
2843.815000	17431.970333	1806.611328	68.517372
2843.815000	17431.970333	1805.610352	-2.724357
2843.815000	17431.970333	1804.610352	59.801685
2843.815000	17431.970333	1803.609375	141.368591
2843.815000	17431.970333	1802.608398	146.443161
2843.815000	17431.970333	1801.607422	118.045792
2843.815000	17431.970333	1800.606445	-1.098020
2843.815000	17431.970333	1799.605469	156.616165
2843.815000	17431.970333	1798.603516	73.212288
2843.815000	17431.970333	1797.601563	61.367378
2843.815000	17431.970333	1796.599609	11.314298
2843.815000	17431.970333	1795.597656	20.855755
2843.815000	17431.970333	1794.595703	116.185097
2843.815000	17431.970333	1793.592773	166.132751
2843.815000	17431.970333	1792.589844	68.232956
2843.815000	17431.970333	1791.587891	72.795013
2843.815000	17431.970333	1790.583984	8.205515
2843.815000	17431.970333	1789.581055	41.261547
2843.815000	17431.970333	1788.577148	7.563164
2843.815000	17431.970333	1787.574219	9.547644
2843.815000	17431.970333	1786.570313	11.477954
2843.815000	17431.970333	1785.566406	108.570374
2843.815000	17431.970333	1784.561523	15.176492
2843.815000	17431.970333	1783.557617	116.884422
2843.815000	17431.970333	1782.552734	109.062729
2843.815000	17431.970333	1781.547852	86.918678
2843.815000	17431.970333	1780.542969	57.594498
2843.815000	17431.970333	1779.538086	149.487823
2843.815000	17431.970333	1778.532227	-29.714556
2843.815000	17431.970333	1777.527344	14.515142
2843.815000	17431.970333	1776.521484	63.422379
2843.815000	17431.970333	1775.515625	48.106392
2843.815000	17431.970333	1774.508789	-126.415619
2843.815000	17431.970333	1773.502930	33.945137
2843.815000	17431.970333	1772.496094	42.216957
2843.815000	17431.970333	1771.489258	88.412910
2843.815000	17431.970333	1770.482422	113.171455
2843.815000	17431.970333	1769.475586	-14.019818
2843.815000	17431.970333	1768.467773	27.239838
2843.815000	17431.970333	1767.460938	-47.813091
2843.815000	17431.970333	1766.453125	-99.180191
2843.815000	17431.970333	1765.445313	-164.814285
2843.815000	17431.970333	1764.437500	-0.503621
2843.815000	17431.970333	1763.428711	-2.249998
2843.815000	17431.970333	1762.420898	33.868740
2843.815000	17431.970333	1761.412109	-53.305737
2843.815000	17431.970333	1760.403320	41.915195
2843.815000	17431.970333	1759.393555	137.037354
2843.815000	17431.970333	1758.384766	66.291969
2843.815000	17431.970333	1757.375000	116.266930
2843.815000	17431.970333	1756.366211	-1.912734
2843.815000	17431.970333	1755.356445	88.172676
2843.815000	17431.970333	1754.345703	14.878444
2843.815000	17431.970333	1753.335938	19.632238
2843.815000	17431.970333	1752.325195	-72.665108
2843.815000	17431.970333	1751.315430	-172.078354
2843.815000	17431.970333	1750.304688	-136.735168
2843.815000	17431.970333	1749.292969	-89.648895
2843.815000	17431.970333	1748.282227	-14.271582
2843.815000	17431.970333	1747.270508	-2.795198
2843.815000	17431.970333	1746.259766	-26.820498
2843.815000	17431.970333	1745.248047	45.955479
2843.815000	17431.970333	1744.235352	-11.264696
2843.815000	17431.970333	1743.223633	18.854624
2843.815000	17431.970333	1742.211914	30.015455
2843.815000	17431.970333	1741.199219	-24.987633
2843.815000	17431.970333	1740.186523	71.017273
2843.815000	17431.970333	1739.173828	34.785686
2843.815000	17431.970333	1738.160156	-1.495355
2843.815000	17431.970333	1737.147461	141.447525
2843.815000	17431.970333	1736.133789	29.575592
2843.815000	17431.970333	1735.120117	-89.385231
2843.815000	17431.970333	1734.106445	-73.987938
2843.815000	17431.970333	1733.091797	-195.362625
2843.815000	17431.970333	1732.078125	-15.112748
2843.815000	17431.970333	1731.063477	-65.887413
2843.815000	17431.970333	1730.048828	15.212999
2843.815000	17431.970333	1729.034180	23.215601
2843.815000	17431.970333	1728.019531	14.674380
2843.815000	17431.970333	1727.003906	-38.656246
2843.815000	17431.970333	1725.988281	9.189998
2843.815000	17431.970333	1724.972656	5.187537
2843.815000	17431.970333	1723.957031	-100.044174
2843.815000	17431.970333	1722.941406	-71.202560
2843.815000	17431.970333	1721.924805	-77.713097
2843.815000	17431.970333	1720.909180	-32.536861
2843.815000	17431.970333	1719.892578	59.583717
2843.815000	17431.970333	1718.875977	128.107040
2843.815000	17431.970333	1717.858398	-69.027786
2843.815000	17431.970333	1716.841797	-7.663715
2843.815000	17431.970333	1715.824219	-66.196381
2843.815000	17431.970333	1714.806641	11.472519
2843.815000	17431.970333	1713.789063	-7.225464
2843.815000	17431.970333	1712.770508	70.291153
2843.815000	17431.970333	1711.752930	-131.620819
2843.815000	17431.970333	1710.734375	-44.826202
2843.815000	17431.970333	1709.715820	91.161758
2843.815000	17431.970333	1708.697266	-143.644272
2843.815000	17431.970333	1707.678711	-21.865427
2843.815000	17431.970333	1706.659180	90.429665
2843.815000	17431.970333	1705.640625	8.019796
2843.815000	17431.970333	1704.621094	108.445396
2843.815000	17431.970333	1703.600586	68.142876
2843.815000	17431.970333	1702.581055	112.178413
2843.815000	17431.970333	1701.561523	128.032639
2843.815000	17431.970333	1700.541016	-78.715340
2843.815000	17431.970333	1699.520508	0.305533
2843.815000	17431.970333	1698.500000	-5.050191
2843.815000	17431.970333	1697.478516	83.191978
2843.815000	17431.970333	1696.458008	-41.646805
2843.815000	17431.970333	1695.436523	13.713420
2843.815000	17431.970333	1694.415039	-43.304253
2843.815000	17431.970333	1693.393555	42.358845
2843.815000	17431.970333	1692.372070	50.760906
2843.815000	17431.970333	1691.349609	-90.554436
2843.815000	17431.970333	1690.327148	67.413254
2843.815000	17431.970333	1689.304688	35.932621
2843.815000	17431.970333	1688.282227	-30.634403
2843.815000	17431.970333	1687.259766	120.097069
2843.815000	17431.970333	1686.236328	37.098251
2843.815000	17431.970333	1685.213867	66.217575
2843.815000	17431.970333	1684.190430	106.956902
2843.815000	17431.970333	1683.166016	184.993515
2843.815000	17431.970333	1682.142578	-7.827346
2843.815000	17431.970333	1681.119141	72.467926
2843.815000	17431.970333	1680.094727	8.008118
2843.815000	17431.970333	1679.070313	20.530424
2843.815000	17431.970333	1678.045898	7.352885
2843.815000	17431.970333	1677.020508	96.756546
2843.815000	17431.970333	1675.996094	62.515255
2843.815000	17431.970333	1674.970703	-4.391121
2843.815000	17431.970333	1673.945313	119.826073
2843.815000	17431.970333	1672.919922	17.913599
2843.815000	17431.970333	1671.893555	53.469776
2843.815000	17431.970333	1670.868164	165.862503
2843.815000	17431.970333	1669.841797	173.367294
2843.815000	17431.970333	1668.815430	71.394554
2843.815000	17431.970333	1667.789063	27.637341
2843.815000	17431.970333	1666.761719	225.943390
2843.815000	17431.970333	1665.735352	135.572464
2843.815000	17431.970333	1664.708008	187.138733
2843.815000	17431.970333	1663.680664	73.486313
2843.815000	17431.970333	1662.653320	129.645218
2843.815000	17431.970333	1661.625000	-14.240048
2843.815000	17431.970333	1660.597656	130.216995
2843.815000	17431.970333	1659.569336	118.840744
2843.815000	17431.970333	1658.541016	81.881706
2843.815000	17431.970333	1657.512695	75.122841
2843.815000	17431.970333	1656.483398	228.640701
2843.815000	17431.970333	1655.455078	261.302429
2843.815000	17431.970333	1654.425781	266.056763
2843.815000	17431.970333	1653.396484	1.452688
2843.815000	17431.970333	1652.366211	43.353783
2843.815000	17431.970333	1651.336914	85.228882
2843.815000	17431.970333	1650.306641	101.537880
2843.815000	17431.970333	1649.276367	166.546570
2843.815000	17431.970333	1648.246094	301.103851
2843.815000	17431.970333	1647.215820	233.826187
2843.815000	17431.970333	1646.185547	256.991211
2843.815000	17431.970333	1645.154297	268.535706
2843.815000	17431.970333	1644.123047	354.234314
2843.815000	17431.970333	1643.091797	495.505280
2843.815000	17431.970333	1642.060547	472.208740
2843.815000	17431.970333	1641.028320	323.813232
2843.815000	17431.970333	1639.997070	518.247681
2843.815000	17431.970333	1638.964844	397.670166
2843.815000	17431.970333	1637.931641	284.070099
2843.815000	17431.970333	1636.899414	381.151459
2843.815000	17431.970333	1635.867188	499.017517
2843.815000	17431.970333	1634.833984	468.741760
2843.815000	17431.970333	1633.800781	429.220490
2843.815000	17431.970333	1632.767578	368.893890
2843.815000	17431.970333	1631.734375	338.649933
2843.815000	17431.970333	1630.700195	280.663696
2843.815000	17431.970333	1629.666016	532.445740
2843.815000	17431.970333	1628.631836	580.752625
2843.815000	17431.970333	1627.597656	501.955322
2843.815000	17431.970333	1626.563477	476.323547
2843.815000	17431.970333	1625.528320	540.776062
2843.815000	17431.970333	1624.493164	625.989380
2843.815000	17431.970333	1623.458008	475.669434
2843.815000	17431.970333	1622.422852	480.075165
2843.815000	17431.970333	1621.387695	489.099487
2843.815000	17431.970333	1620.351563	500.425262
2843.815000	17431.970333	1619.315430	458.690460
2843.815000	17431.970333	1618.279297	500.016937
2843.815000	17431.970333	1617.243164	534.416199
2843.815000	17431.970333	1616.207031	695.624756
2843.815000	17431.970333	1615.169922	598.582520
2843.815000	17431.970333	1614.132813	646.791016
2843.815000	17431.970333	1613.095703	641.990784
2843.815000	17431.970333	1612.058594	637.203613
2843.815000	17431.970333	1611.020508	823.611511
2843.815000	17431.970333	1609.983398	664.513184
2843.815000	17431.970333	1608.945313	894.617798
2843.815000	17431.970333	1607.907227	696.452271
2843.815000	17431.970333	1606.868164	756.158630
2843.815000	17431.970333	1605.830078	652.478455
2843.815000	17431.970333	1604.791016	778.925049
2843.815000	17431.970333	1603.751953	797.224487
2843.815000	17431.970333	1602.712891	886.830750
2843.815000	17431.970333	1601.673828	893.641357
2843.815000	17431.970333	1600.633789	787.810791
2843.815000	17431.970333	1599.594727	895.813171
2843.815000	17431.970333	1598.554688	829.132324
2843.815000	17431.970333	1597.513672	879.670898
2843.815000	17431.970333	1596.473633	817.657349
2843.815000	17431.970333	1595.433594	859.044312
2843.815000	17431.970333	1594.392578	794.802307
2843.815000	17431.970333	1593.351563	934.939331
2843.815000	17431.970333	1592.310547	889.120117
2843.815000	17431.970333	1591.268555	930.545166
2843.815000	17431.970333	1590.227539	717.298523
2843.815000	17431.970333	1589.185547	678.503113
2843.815000	17431.970333	1588.143555	903.514954
2843.815000	17431.970333	1587.100586	910.610840
2843.815000	17431.970333	1586.058594	871.885742
2843.815000	17431.970333	1585.015625	819.445740
2843.815000	17431.970333	1583.972656	922.899719
2843.815000	17431.970333	1582.929688	767.420654
2843.815000	17431.970333	1581.886719	834.252869
2843.815000	17431.970333	1580.843750	800.311035
2843.815000	17431.970333	1579.799805	933.580078
2843.815000	17431.970333	1578.755859	764.608154
2843.815000	17431.970333	1577.711914	794.890076
2843.815000	17431.970333	1576.666992	797.724670
2843.815000	17431.970333	1575.623047	933.317322
2843.815000	17431.970333	1574.578125	954.498657
2843.815000	17431.970333	1573.533203	685.218018
2843.815000	17431.970333	1572.488281	740.817383
2843.815000	17431.970333	1571.443359	716.408081
2843.815000	17431.970333	1570.397461	616.603821
2843.815000	17431.970333	1569.351563	532.877197
2843.815000	17431.970333	1568.305664	510.920593
2843.815000	17431.970333	1567.259766	642.084229
2843.815000	17431.970333	1566.213867	510.556213
2843.815000	17431.970333	1565.166992	513.856079
2843.815000	17431.970333	1564.120117	576.562683
2843.815000	17431.970333	1563.073242	527.428894
2843.815000	17431.970333	1562.026367	585.630615
2843.815000	17431.970333	1560.978516	447.600708
2843.815000	17431.970333	1559.930664	526.411865
2843.815000	17431.970333	1558.883789	399.949615
2843.815000	17431.970333	1557.834961	483.385651
2843.815000	17431.970333	1556.787109	514.398438
2843.815000	17431.970333	1555.739258	499.852539
2843.815000	17431.970333	1554.690430	378.228333
2843.815000	17431.970333	1553.641602	434.447876
2843.815000	17431.970333	1552.592773	461.075134
2843.815000	17431.970333	1551.542969	439.899292
2843.815000	17431.970333	1550.494141	366.405487
2843.815000	17431.970333	1549.444336	318.032959
2843.815000	17431.970333	1548.394531	495.109711
2843.815000	17431.970333	1547.344727	410.415009
2843.815000	17431.970333	1546.293945	303.043396
2843.815000	17431.970333	1545.244141	423.293976
2843.815000	17431.970333	1544.193359	500.323730
2843.815000	17431.970333	1543.142578	545.536072
2843.815000	17431.970333	1542.090820	329.283051
2843.815000	17431.970333	1541.040039	406.447296
2843.815000	17431.970333	1539.988281	399.529938
2843.815000	17431.970333	1538.936523	347.220276
2843.815000	17431.970333	1537.884766	174.566086
2843.815000	17431.970333	1536.833008	338.238159
2843.815000	17431.970333	1535.780273	197.558563
2843.815000	17431.970333	1534.727539	320.396545
2843.815000	17431.970333	1533.674805	118.591850
2843.815000	17431.970333	1532.622070	182.496384
2843.815000	17431.970333	1531.569336	117.078316
2843.815000	17431.970333	1530.515625	237.793716
2843.815000	17431.970333	1529.461914	292.733704
2843.815000	17431.970333	1528.408203	182.143753
2843.815000	17431.970333	1527.354492	182.769775
2843.815000	17431.970333	1526.299805	163.046616
2843.815000	17431.970333	1525.246094	181.930359
2843.815000	17431.970333	1524.191406	325.507660
2843.815000	17431.970333	1523.136719	142.812088
2843.815000	17431.970333	1522.081055	297.785522
2843.815000	17431.970333	1521.026367	133.410446
2843.815000	17431.970333	1519.970703	211.456543
2843.815000	17431.970333	1518.915039	239.726166
2843.815000	17431.970333	1517.859375	188.822144
2843.815000	17431.970333	1516.802734	264.732513
2843.815000	17431.970333	1515.747070	109.887817
2843.815000	17431.970333	1514.690430	170.075424
2843.815000	17431.970333	1513.633789	139.832718
2843.815000	17431.970333	1512.577148	-12.446020
2843.815000	17431.970333	1511.519531	41.137180
2843.815000	17431.970333	1510.461914	144.494003
2843.815000	17431.970333	1509.405273	121.319099
2843.815000	17431.970333	1508.346680	-78.032112
2843.815000	17431.970333	1507.289063	-73.917091
2843.815000	17431.970333	1506.231445	176.455292
2843.815000	17431.970333	1505.172852	29.348101
2843.815000	17431.970333	1504.114258	-9.262465
2843.815000	17431.970333	1503.055664	35.729733
2843.815000	17431.970333	1501.996094	60.456078
2843.815000	17431.970333	1500.937500	-83.987732
2843.815000	17431.970333	1499.877930	182.274734
2843.815000	17431.970333	1498.818359	-128.912033
2843.815000	17431.970333	1497.757813	-11.448126
2843.815000	17431.970333	1496.698242	18.110229
2843.815000	17431.970333	1495.637695	-55.969921
2843.815000	17431.970333	1494.577148	-37.549427
2843.815000	17431.970333	1493.516602	131.901123
2843.815000	17431.970333	1492.456055	-23.053713
2843.815000	17431.970333	1491.394531	36.095463
2843.815000	17431.970333	1490.333008	45.747280
2843.815000	17431.970333	1489.271484	114.003395
2843.815000	17431.970333	1488.209961	44.987892
2843.815000	17431.970333	1487.148438	-122.956367
2843.815000	17431.970333	1486.085938	-86.003799
2843.815000	17431.970333	1485.023438	58.988522
2843.815000	17431.970333	1483.960938	42.047489
2843.815000	17431.970333	1482.898438	151.115524
2843.815000	17431.970333	1481.834961	-14.088943
2843.815000	17431.970333	1480.772461	90.590668
2843.815000	17431.970333	1479.708984	98.651268
2843.815000	17431.970333	1478.644531	43.880173
2843.815000	17431.970333	1477.581055	195.849579
2843.815000	17431.970333	1476.517578	80.586601
2843.815000	17431.970333	1475.453125	129.314392
2843.815000	17431.970333	1474.388672	119.778175
2843.815000	17431.970333	1473.323242	301.048401
2843.815000	17431.970333	1472.258789	246.761475
2843.815000	17431.970333	1471.193359	62.450993
2843.815000	17431.970333	1470.127930	261.648956
2843.815000	17431.970333	1469.062500	100.145386
2843.815000	17431.970333	1467.997070	209.642349
2843.815000	17431.970333	1466.930664	173.856171
2843.815000	17431.970333	1465.865234	214.233994
2843.815000	17431.970333	1464.798828	169.420456
2843.815000	17431.970333	1463.731445	315.186188
2843.815000	17431.970333	1462.665039	306.651276
2843.815000	17431.970333	1461.597656	45.620846
2843.815000	17431.970333	1460.530273	213.864120
2843.815000	17431.970333	1459.462891	183.270630
2843.815000	17431.970333	1458.395508	148.701584
2843.815000	17431.970333	1457.327148	292.964661
2843.815000	17431.970333	1456.259766	189.416382
2843.815000	17431.970333	1455.191406	212.828506
2843.815000	17431.970333	1454.123047	383.848206
2843.815000	17431.970333	1453.053711	394.806305
2843.815000	17431.970333	1451.985352	284.609619
2843.815000	17431.970333	1450.916016	225.853622
2843.815000	17431.970333	1449.846680	293.900970
2843.815000	17431.970333	1448.776367	386.510040
2843.815000	17431.970333	1447.707031	297.175934
2843.815000	17431.970333	1446.636719	191.669403
2843.815000	17431.970333	1445.566406	256.125336
2843.815000	17431.970333	1444.496094	210.085068
2843.815000	17431.970333	1443.425781	228.869171
2843.815000	17431.970333	1442.354492	283.030762
2843.815000	17431.970333	1441.283203	309.658081
2843.815000	17431.970333	1440.211914	342.396851
2843.815000	17431.970333	1439.140625	277.399261
2843.815000	17431.970333	1438.069336	252.915527
2843.815000	17431.970333	1436.997070	195.619659
2843.815000	17431.970333	1435.924805	143.828537
2843.815000	17431.970333	1434.852539	329.865143
2843.815000	17431.970333	1433.780273	242.931412
2843.815000	17431.970333	1432.707031	72.044792
2843.815000	17431.970333	1431.633789	-20.176830
2843.815000	17431.970333	1430.560547	118.673019
2843.815000	17431.970333	1429.487305	95.347496
2843.815000	17431.970333	1428.413086	97.881371
2843.815000	17431.970333	1427.339844	131.093491
2843.815000	17431.970333	1426.265625	58.169933
2843.815000	17431.970333	1425.191406	32.298023
2843.815000	17431.970333	1424.116211	56.628479
2843.815000	17431.970333	1423.041992	125.155426
2843.815000	17431.970333	1421.966797	33.030727
2843.815000	17431.970333	1420.891602	-35.816845
2843.815000	17431.970333	1419.816406	28.744711
2843.815000	17431.970333	1418.740234	113.594894
2843.815000	17431.970333	1417.665039	-42.603821
2843.815000	17431.970333	1416.588867	-65.257607
2843.815000	17431.970333	1415.512695	271.146942
2843.815000	17431.970333	1414.435547	108.920197
2843.815000	17431.970333	1413.359375	65.267601
2843.815000	17431.970333	1412.282227	281.327881
2843.815000	17431.970333	1411.205078	24.993063
2843.815000	17431.970333	1410.127930	-24.828482
2843.815000	17431.970333	1409.049805	189.745148
2843.815000	17431.970333	1407.972656	333.596069
2843.815000	17431.970333	1406.894531	238.351334
2843.815000	17431.970333	1405.816406	170.058914
2843.815000	17431.970333	1404.737305	278.939819
2843.815000	17431.970333	1403.659180	308.994873
2843.815000	17431.970333	1402.580078	263.431091
2843.815000	17431.970333	1401.500977	318.278656
2843.815000	17431.970333	1400.421875	199.808212
2843.815000	17431.970333	1399.341797	197.795654
2843.815000	17431.970333	1398.262695	234.108429
2843.815000	17431.970333	1397.182617	357.670410
2843.815000	17431.970333	1396.102539	331.549072
2843.815000	17431.970333	1395.021484	165.024445
2843.815000	17431.970333	1393.941406	441.835632
2843.815000	17431.970333	1392.860352	389.733551
2843.815000	17431.970333	1391.779297	370.470520
2843.815000	17431.970333	1390.698242	415.338654
2843.815000	17431.970333	1389.616211	289.595673
2843.815000	17431.970333	1388.535156	356.583710
2843.815000	17431.970333	1387.453125	356.188385
2843.815000	17431.970333	1386.371094	395.027557
2843.815000	17431.970333	1385.288086	318.115509
2843.815000	17431.970333	1384.206055	355.389679
2843.815000	17431.970333	1383.123047	317.144226
2843.815000	17431.970333	1382.040039	380.371857
2843.815000	17431.970333	1380.957031	366.890411
2843.815000	17431.970333	1379.873047	322.162170
2843.815000	17431.970333	1378.789063	397.890594
2843.815000	17431.970333	1377.705078	559.658691
2843.815000	17431.970333	1376.621094	484.883423
2843.815000	17431.970333	1375.537109	567.008240
2843.815000	17431.970333	1374.452148	487.734924
2843.815000	17431.970333	1373.367188	596.095154
2843.815000	17431.970333	1372.282227	657.024109
2843.815000	17431.970333	1371.197266	628.439697
2843.815000	17431.970333	1370.112305	646.065552
2843.815000	17431.970333	1369.026367	623.959656
2843.815000	17431.970333	1367.940430	651.736511
2843.815000	17431.970333	1366.854492	703.627136
2843.815000	17431.970333	1365.767578	540.626953
2843.815000	17431.970333	1364.681641	580.523438
2843.815000	17431.970333	1363.594727	599.972534
2843.815000	17431.970333	1362.507813	478.959320
2843.815000	17431.970333	1361.419922	481.005768
2843.815000	17431.970333	1360.333008	539.220703
2843.815000	17431.970333	1359.245117	453.241516
2843.815000	17431.970333	1358.157227	528.733582
2843.815000	17431.970333	1357.069336	649.633484
2843.815000	17431.970333	1355.981445	576.963196
2843.815000	17431.970333	1354.892578	548.610596
2843.815000	17431.970333	1353.803711	593.194214
2843.815000	17431.970333	1352.714844	634.397583
2843.815000	17431.970333	1351.625000	637.018860
2843.815000	17431.970333	1350.536133	891.560364
2843.815000	17431.970333	1349.446289	707.217102
2843.815000	17431.970333	1348.356445	725.515137
2843.815000	17431.970333	1347.266602	976.005127
2843.815000	17431.970333	1346.175781	769.798035
2843.815000	17431.970333	1345.085938	1138.164185
2843.815000	17431.970333	1343.995117	1007.955811
2843.815000	17431.970333	1342.903320	1158.591431
2843.815000	17431.970333	1341.812500	1218.106934
2843.815000	17431.970333	1340.720703	960.697327
2843.815000	17431.970333	1339.629883	1090.466309
2843.815000	17431.970333	1338.538086	1012.869812
2843.815000	17431.970333	1337.445313	980.934814
2843.815000	17431.970333	1336.353516	938.552734
2843.815000	17431.970333	1335.260742	854.452271
2843.815000	17431.970333	1334.167969	788.399170
2843.815000	17431.970333	1333.075195	729.749878
2843.815000	17431.970333	1331.981445	662.354370
2843.815000	17431.970333	1330.888672	707.186462
2843.815000	17431.970333	1329.794922	714.783081
2843.815000	17431.970333	1328.701172	753.560303
2843.815000	17431.970333	1327.606445	708.942017
2843.815000	17431.970333	1326.512695	702.346008
2843.815000	17431.970333	1325.417969	672.798340
2843.815000	17431.970333	1324.323242	647.486877
2843.815000	17431.970333	1323.227539	681.077271
2843.815000	17431.970333	1322.132813	587.667847
2843.815000	17431.970333	1321.037109	636.099304
2843.815000	17431.970333	1319.941406	550.408936
2843.815000	17431.970333	1318.845703	655.411804
2843.815000	17431.970333	1317.750000	541.434509
2843.815000	17431.970333	1316.653320	524.719421
2843.815000	17431.970333	1315.556641	432.779053
2843.815000	17431.970333	1314.459961	619.905823
2843.815000	17431.970333	1313.363281	618.710571
2843.815000	17431.970333	1312.265625	588.667786
2843.815000	17431.970333	1311.167969	616.244324
2843.815000	17431.970333	1310.070313	589.232300
2843.815000	17431.970333	1308.972656	616.286865
2843.815000	17431.970333	1307.874023	464.166260
2843.815000	17431.970333	1306.776367	461.987396
2843.815000	17431.970333	1305.677734	482.129425
2843.815000	17431.970333	1304.579102	462.845428
2843.815000	17431.970333	1303.479492	400.270569
2843.815000	17431.970333	1302.380859	438.671539
2843.815000	17431.970333	1301.281250	383.319763
2843.815000	17431.970333	1300.181641	318.314880
2843.815000	17431.970333	1299.081055	378.945496
2843.815000	17431.970333	1297.981445	320.194977
2843.815000	17431.970333	1296.880859	320.535553
2843.815000	17431.970333	1295.780273	209.371964
2843.815000	17431.970333	1294.679688	325.428833
2843.815000	17431.970333	1293.578125	265.477234
2843.815000	17431.970333	1292.476563	413.257385
2843.815000	17431.970333	1291.375000	399.209717
2843.815000	17431.970333	1290.273438	309.671112
2843.815000	17431.970333	1289.171875	280.745148
2843.815000	17431.970333	1288.069336	432.457825
2843.815000	17431.970333	1286.966797	297.056610
2843.815000	17431.970333	1285.864258	250.282745
2843.815000	17431.970333	1284.761719	289.090851
2843.815000	17431.970333	1283.658203	417.008392
2843.815000	17431.970333	1282.554688	366.065613
2843.815000	17431.970333	1281.451172	419.988556
2843.815000	17431.970333	1280.347656	462.333923
2843.815000	17431.970333	1279.244141	378.054871
2843.815000	17431.970333	1278.139648	332.161835
2843.815000	17431.970333	1277.035156	395.111755
2843.815000	17431.970333	1275.930664	359.272827
2843.815000	17431.970333	1274.825195	349.610596
2843.815000	17431.970333	1273.720703	341.891846
2843.815000	17431.970333	1272.615234	375.620911
2843.815000	17431.970333	1271.508789	389.962402
2843.815000	17431.970333	1270.403320	228.253357
2843.815000	17431.970333	1269.297852	338.636139
2843.815000	17431.970333	1268.191406	349.072449
2843.815000	17431.970333	1267.084961	344.591919
2843.815000	17431.970333	1265.977539	366.504395
2843.815000	17431.970333	1264.871094	324.005798
2843.815000	17431.970333	1263.763672	349.994110
2843.815000	17431.970333	1262.656250	337.309021
2843.815000	17431.970333	1261.548828	338.555084
2843.815000	17431.970333	1260.440430	369.308289
2843.815000	17431.970333	1259.333008	267.645477
2843.815000	17431.970333	1258.224609	368.950378
2843.815000	17431.970333	1257.115234	296.951172
2843.815000	17431.970333	1256.006836	244.306686
2843.815000	17431.970333	1254.897461	324.945160
2843.815000	17431.970333	1253.788086	355.207794
2843.815000	17431.970333	1252.678711	279.837860
2843.815000	17431.970333	1251.569336	343.418457
2843.815000	17431.970333	1250.458984	327.237976
2843.815000	17431.970333	1249.349609	369.277130
2843.815000	17431.970333	1248.239258	363.563202
2843.815000	17431.970333	1247.127930	324.197906
2843.815000	17431.970333	1246.017578	277.508148
2843.815000	17431.970333	1244.906250	250.081772
2843.815000	17431.970333	1243.794922	284.778625
2843.815000	17431.970333	1242.683594	348.028503
2843.815000	17431.970333	1241.571289	318.919098
2843.815000	17431.970333	1240.459961	313.794495
2843.815000	17431.970333	1239.347656	263.470062
2843.815000	17431.970333	1238.234375	367.923431
2843.815000	17431.970333	1237.122070	126.563728
2843.815000	17431.970333	1236.008789	248.624695
2843.815000	17431.970333	1234.896484	244.467148
2843.815000	17431.970333	1233.782227	134.423996
2843.815000	17431.970333	1232.668945	251.671936
2843.815000	17431.970333	1231.555664	156.192657
2843.815000	17431.970333	1230.441406	201.315948
2843.815000	17431.970333	1229.327148	88.705017
2843.815000	17431.970333	1228.211914	133.175980
2843.815000	17431.970333	1227.097656	166.872528
2843.815000	17431.970333	1225.982422	72.735291
2843.815000	17431.970333	1224.867188	99.004196
2843.815000	17431.970333	1223.751953	14.110105
2843.815000	17431.970333	1222.635742	99.899353
2843.815000	17431.970333	1221.520508	33.708645
2843.815000	17431.970333	1220.404297	-24.346193
2843.815000	17431.970333	1219.287109	10.687160
2843.815000	17431.970333	1218.170898	14.703109
2843.815000	17431.970333	1217.053711	53.515171
2843.815000	17431.970333	1215.936523	-6.474989
2843.815000	17431.970333	1214.819336	-72.288139
2843.815000	17431.970333	1213.702148	0.519789
2843.815000	17431.970333	1212.583984	-145.480820
2843.815000	17431.970333	1211.465820	-45.226601
2843.815000	17431.970333	1210.347656	-37.862343
2843.815000	17431.970333	1209.229492	-97.208115
2843.815000	17431.970333	1208.110352	-42.090546
2843.815000	17431.970333	1206.992188	-133.217453
2843.815000	17431.970333	1205.873047	-134.821472
2843.815000	17431.970333	1204.752930	-98.748085
2843.815000	17431.970333	1203.633789	-78.728935
2843.815000	17431.970333	1202.513672	29.692728
2843.815000	17431.970333	1201.393555	-13.656875
2843.815000	17431.970333	1200.273438	5.784541
2843.815000	17431.970333	1199.152344	-19.003601
2843.815000	17431.970333	1198.032227	-46.494461
2843.815000	17431.970333	1196.911133	-125.121574
2843.815000	17431.970333	1195.790039	-34.779312
2843.815000	17431.970333	1194.667969	-70.767609
2843.815000	17431.970333	1193.545898	112.974762
2843.815000	17431.970333	1192.424805	24.436348
2843.815000	17431.970333	1191.301758	-34.108505
2843.815000	17431.970333	1190.179688	115.503967
2843.815000	17431.970333	1189.056641	36.099796
2843.815000	17431.970333	1187.933594	154.572815
2843.815000	17431.970333	1186.810547	142.447296
2843.815000	17431.970333	1185.687500	133.163483
2843.815000	17431.970333	1184.563477	139.191849
2843.815000	17431.970333	1183.440430	18.948399
2843.815000	17431.970333	1182.316406	63.070976
2843.815000	17431.970333	1181.191406	124.799614
2843.815000	17431.970333	1180.067383	66.972816
2843.815000	17431.970333	1178.942383	49.295704
2843.815000	17431.970333	1177.817383	52.797089
2843.815000	17431.970333	1176.692383	76.093544
2843.815000	17431.970333	1175.566406	87.155884
2843.815000	17431.970333	1174.440430	2.033514
2843.815000	17431.970333	1173.314453	55.797596
2843.815000	17431.970333	1172.188477	81.712662
2843.815000	17431.970333	1171.062500	15.002720
2843.815000	17431.970333	1169.935547	64.435883
2843.815000	17431.970333	1168.808594	62.019657
2843.815000	17431.970333	1167.681641	29.498579
2843.815000	17431.970333	1166.553711	39.081623
2843.815000	17431.970333	1165.426758	123.139587
2843.815000	17431.970333	1164.298828	144.411804
2843.815000	17431.970333	1163.170898	116.064102
2843.815000	17431.970333	1162.041992	77.246811
2843.815000	17431.970333	1160.914063	117.179039
2843.815000	17431.970333	1159.785156	143.399780
2843.815000	17431.970333	1158.656250	53.197521
2843.815000	17431.970333	1157.526367	79.399269
2843.815000	17431.970333	1156.397461	116.582237
2843.815000	17431.970333	1155.267578	100.128029
2843.815000	17431.970333	1154.137695	141.606003
2843.815000	17431.970333	1153.006836	58.992004
2843.815000	17431.970333	1151.876953	60.504066
2843.815000	17431.970333	1150.746094	4.619341
2843.815000	17431.970333	1149.615234	-35.240185
2843.815000	17431.970333	1148.484375	-24.682461
2843.815000	17431.970333	1147.352539	38.656467
2843.815000	17431.970333	1146.220703	-29.695377
2843.815000	17431.970333	1145.088867	-87.588608
2843.815000	17431.970333	1143.957031	-61.681465
2843.815000	17431.970333	1142.825195	18.492348
2843.815000	17431.970333	1141.692383	-129.014343
2843.815000	17431.970333	1140.559570	-16.950254
2843.815000	17431.970333	1139.426758	-64.790001
2843.815000	17431.970333	1138.292969	-25.673197
2843.815000	17431.970333	1137.159180	-123.771812
2843.815000	17431.970333	1136.025391	4.186113
2843.815000	17431.970333	1134.891602	-109.864845
2843.815000	17431.970333	1133.757813	-2.673220
2843.815000	17431.970333	1132.623047	110.609077
2843.815000	17431.970333	1131.488281	-81.861191
2843.815000	17431.970333	1130.353516	-84.013214
2843.815000	17431.970333	1129.217773	-17.529718
2843.815000	17431.970333	1128.083008	-116.030090
2843.815000	17431.970333	1126.947266	-53.246021
2843.815000	17431.970333	1125.811523	-2.288695
2843.815000	17431.970333	1124.674805	-4.956148
2843.815000	17431.970333	1123.539063	60.528416
2843.815000	17431.970333	1122.402344	-109.590790
2843.815000	17431.970333	1121.265625	-31.130411
2843.815000	17431.970333	1120.127930	-9.334847
2843.815000	17431.970333	1118.990234	108.774216
2843.815000	17431.970333	1117.853516	0.672753
2843.815000	17431.970333	1116.714844	52.724533
2843.815000	17431.970333	1115.577148	32.575153
2843.815000	17431.970333	1114.439453	127.955276
2843.815000	17431.970333	1113.300781	213.167755
2843.815000	17431.970333	1112.162109	54.651512
2843.815000	17431.970333	1111.022461	157.343628
2843.815000	17431.970333	1109.883789	8.335405
2843.815000	17431.970333	1108.744141	155.722641
2843.815000	17431.970333	1107.604492	122.880363
2843.815000	17431.970333	1106.463867	132.560532
2843.815000	17431.970333	1105.324219	92.735016
2843.815000	17431.970333	1104.183594	79.674721
2843.815000	17431.970333	1103.042969	176.339752
2843.815000	17431.970333	1101.902344	58.735050
2843.815000	17431.970333	1100.760742	89.270699
2843.815000	17431.970333	1099.619141	85.441040
2843.815000	17431.970333	1098.477539	152.166565
2843.815000	17431.970333	1097.335938	172.053802
2843.815000	17431.970333	1096.193359	93.894585
2843.815000	17431.970333	1095.051758	90.497566
2843.815000	17431.970333	1093.909180	126.543976
2843.815000	17431.970333	1092.765625	82.153473
2843.815000	17431.970333	1091.623047	83.356026
2843.815000	17431.970333	1090.479492	1.603747
2843.815000	17431.970333	1089.335938	62.060120
2843.815000	17431.970333	1088.192383	64.063133
2843.815000	17431.970333	1087.047852	128.589523
2843.815000	17431.970333	1085.903320	56.779423
2843.815000	17431.970333	1084.758789	194.680283
2843.815000	17431.970333	1083.614258	111.961647
2843.815000	17431.970333	1082.469727	-6.605387
2843.815000	17431.970333	1081.324219	135.504181
2843.815000	17431.970333	1080.178711	46.004292
2843.815000	17431.970333	1079.033203	-11.435014
2843.815000	17431.970333	1077.886719	70.259544
2843.815000	17431.970333	1076.740234	69.089081
2843.815000	17431.970333	1075.593750	32.497562
2843.815000	17431.970333	1074.447266	-123.133545
2843.815000	17431.970333	1073.300781	-25.463808
2843.815000	17431.970333	1072.153320	-15.865335
2843.815000	17431.970333	1071.005859	3.265145
2843.815000	17431.970333	1069.858398	67.460953
2843.815000	17431.970333	1068.709961	0.277648
2843.815000	17431.970333	1067.561523	23.344934
2843.815000	17431.970333	1066.413086	119.399254
2843.815000	17431.970333	1065.264648	74.161926
2843.815000	17431.970333	1064.116211	39.675064
2843.815000	17431.970333	1062.966797	114.657234
2843.815000	17431.970333	1061.817383	101.621033
2843.815000	17431.970333	1060.667969	33.588558
2843.815000	17431.970333	1059.517578	65.602547
2843.815000	17431.970333	1058.368164	40.788830
2843.815000	17431.970333	1057.217773	58.706852
2843.815000	17431.970333	1056.067383	-7.995932
2843.815000	17431.970333	1054.916016	-69.274902
2843.815000	17431.970333	1053.764648	73.509148
2843.815000	17431.970333	1052.613281	117.998909
2843.815000	17431.970333	1051.461914	32.027031
2843.815000	17431.970333	1050.310547	38.226948
2843.815000	17431.970333	1049.158203	38.500614
2843.815000	17431.970333	1048.005859	29.761240
2843.815000	17431.970333	1046.853516	79.013832
2843.815000	17431.970333	1045.700195	138.212555
2843.815000	17431.970333	1044.547852	45.161362
2843.815000	17431.970333	1043.394531	94.368538
2843.815000	17431.970333	1042.240234	102.272133
2843.815000	17431.970333	1041.086914	68.144981
2843.815000	17431.970333	1039.932617	-110.507202
2843.815000	17431.970333	1038.778320	9.448169
2843.815000	17431.970333	1037.624023	12.601543
2843.815000	17431.970333	1036.469727	32.226002
2843.815000	17431.970333	1035.314453	29.419600
2843.815000	17431.970333	1034.159180	35.246613
2843.815000	17431.970333	1033.003906	26.752089
2843.815000	17431.970333	1031.847656	-36.635883
2843.815000	17431.970333	1030.692383	128.597000
2843.815000	17431.970333	1029.536133	121.296028
2843.815000	17431.970333	1028.378906	59.987648
2843.815000	17431.970333	1027.222656	97.301483
2843.815000	17431.970333	1026.065430	174.336166
2843.815000	17431.970333	1024.908203	129.138977
2843.815000	17431.970333	1023.750977	202.558197
2843.815000	17431.970333	1022.593750	212.796570
2843.815000	17431.970333	1021.435547	176.268890
2843.815000	17431.970333	1020.277344	123.658714
2843.815000	17431.970333	1019.119141	42.155628
2843.815000	17431.970333	1017.959961	77.594765
2843.815000	17431.970333	1016.800781	-75.438400
2843.815000	17431.970333	1015.641602	-35.892960
2843.815000	17431.970333	1014.482422	79.032944
2843.815000	17431.970333	1013.323242	14.968832
2843.815000	17431.970333	1012.163086	16.514893
2843.815000	17431.970333	1011.002930	-0.966471
2843.815000	17431.970333	1009.842773	69.515083
2843.815000	17431.970333	1008.681641	-25.290874
2843.815000	17431.970333	1007.520508	-83.214294
2843.815000	17431.970333	1006.359375	-119.723816
2843.815000	17431.970333	1005.198242	94.300293
2843.815000	17431.970333	1004.037109	-25.988548
2843.815000	17431.970333	1002.875000	-2.797382
2843.815000	17431.970333	1001.712891	3.764117
2843.815000	17431.970333	1000.550781	126.478271
2843.815000	17431.970333	999.387695	14.265928
2843.815000	17431.970333	998.224609	185.461777
2843.815000	17431.970333	997.061523	252.685059
2843.815000	17431.970333	995.898438	108.552559
2843.815000	17431.970333	994.734375	142.544632
2843.815000	17431.970333	993.571289	167.513336
2843.815000	17431.970333	992.407227	147.777664
2843.815000	17431.970333	991.242188	148.698013
2843.815000	17431.970333	990.078125	154.631882
2843.815000	17431.970333	988.913086	118.424545
2843.815000	17431.970333	987.748047	75.105141
2843.815000	17431.970333	986.583008	32.225506
2843.815000	17431.970333	985.416992	-67.899155
2843.815000	17431.970333	984.250977	-91.601006
2843.815000	17431.970333	983.084961	2.736710
2843.815000	17431.970333	981.918945	-24.282412
2843.815000	17431.970333	980.751953	-23.868607
2843.815000	17431.970333	979.584961	-55.410652
2843.815000	17431.970333	978.417969	20.290243
2843.815000	17431.970333	977.250977	46.139908
2843.815000	17431.970333	976.083008	-21.259937
2843.815000	17431.970333	974.915039	70.955391
2843.815000	17431.970333	973.747070	-47.499702
2843.815000	17431.970333	972.579102	13.899252
2843.815000	17431.970333	971.410156	-1.250954
2843.815000	17431.970333	970.242188	90.116974
2843.815000	17431.970333	969.072266	76.033028
2843.815000	17431.970333	967.903320	89.334007
2843.815000	17431.970333	966.733398	146.087891
2843.815000	17431.970333	965.563477	79.406990
2843.815000	17431.970333	964.393555	63.759594
2843.815000	17431.970333	963.223633	75.058350
2843.815000	17431.970333	962.052734	64.290070
2843.815000	17431.970333	960.881836	114.181839
2843.815000	17431.970333	959.710938	111.246384
2843.815000	17431.970333	958.540039	134.924164
2843.815000	17431.970333	957.368164	110.605263
2843.815000	17431.970333	956.196289	142.841507
2843.815000	17431.970333	955.024414	97.784767
2843.815000	17431.970333	953.851563	53.597565
2843.815000	17431.970333	952.679688	40.056465
2843.815000	17431.970333	951.506836	5.227670
2843.815000	17431.970333	950.333984	34.096157
2843.815000	17431.970333	949.160156	-74.109215
2843.815000	17431.970333	947.986328	-11.740848
2843.815000	17431.970333	946.812500	43.275955
2843.815000	17431.970333	945.638672	-195.123260
2843.815000	17431.970333	944.464844	-34.399433
2843.815000	17431.970333	943.290039	-107.321808
2843.815000	17431.970333	942.115234	-20.676363
2843.815000	17431.970333	940.940430	13.903111
2843.815000	17431.970333	939.764648	67.101913
2843.815000	17431.970333	938.588867	-69.323906
2843.815000	17431.970333	937.413086	-25.494974
2843.815000	17431.970333	936.237305	-93.001160
2843.815000	17431.970333	935.060547	-80.816383
2843.815000	17431.970333	933.883789	-166.984375
2843.815000	17431.970333	932.707031	53.238480
2843.815000	17431.970333	931.530273	-64.510635
2843.815000	17431.970333	930.352539	8.979351
2843.815000	17431.970333	929.175781	-28.941860
2843.815000	17431.970333	927.998047	42.618610
2843.815000	17431.970333	926.819336	93.817909
2843.815000	17431.970333	925.641602	122.658127
2843.815000	17431.970333	924.462891	121.825050
2843.815000	17431.970333	923.284180	17.088991
2843.815000	17431.970333	922.104492	131.230255
2843.815000	17431.970333	920.924805	87.713524
2843.815000	17431.970333	919.746094	89.579666
2843.815000	17431.970333	919.551758	-31.500927
2843.815000	17431.970333	918.386719	-115.792603
2843.815000	17431.970333	917.220703	26.014746
2843.815000	17431.970333	916.054688	186.278412
2843.815000	17431.970333	914.887695	231.621384
2843.815000	17431.970333	913.721680	169.517181
2843.815000	17431.970333	912.554688	114.832939
2843.815000	17431.970333	911.387695	304.516327
2843.815000	17431.970333	910.220703	307.175659
2843.815000	17431.970333	909.052734	319.074524
2843.815000	17431.970333	907.885742	310.601990
2843.815000	17431.970333	906.717773	178.191559
2843.815000	17431.970333	905.548828	371.302551
2843.815000	17431.970333	904.380859	394.216736
2843.815000	17431.970333	903.211914	267.375275
2843.815000	17431.970333	902.042969	310.604828
2843.815000	17431.970333	900.874023	451.736328
2843.815000	17431.970333	899.704102	251.021530
2843.815000	17431.970333	898.535156	172.279419
2843.815000	17431.970333	897.365234	219.129715
2843.815000	17431.970333	896.194336	179.171921
2843.815000	17431.970333	895.024414	96.757301
2843.815000	17431.970333	893.853516	121.405434
2843.815000	17431.970333	892.682617	120.195473
2843.815000	17431.970333	891.511719	93.143906
2843.815000	17431.970333	890.340820	-5.844596
2843.815000	17431.970333	889.168945	7.679807
2843.815000	17431.970333	887.997070	-41.501053
2843.815000	17431.970333	886.825195	30.979404
2843.815000	17431.970333	885.653320	3.897424
2843.815000	17431.970333	884.480469	100.261375
2843.815000	17431.970333	883.307617	-0.541389
2843.815000	17431.970333	882.134766	95.752182
2843.815000	17431.970333	880.961914	9.690295
2843.815000	17431.970333	879.788086	-2.710433
2843.815000	17431.970333	878.614258	19.849499
2843.815000	17431.970333	877.440430	-34.908363
2843.815000	17431.970333	876.266602	-10.544709
2843.815000	17431.970333	875.091797	-28.516130
2843.815000	17431.970333	873.916992	6.838253
2843.815000	17431.970333	872.742188	-5.648208
2843.815000	17431.970333	871.567383	20.459892
2843.815000	17431.970333	870.391602	-98.663734
2843.815000	17431.970333	869.215820	-15.615003
2843.815000	17431.970333	868.040039	-15.295417
2843.815000	17431.970333	866.864258	75.013618
2843.815000	17431.970333	865.687500	-45.931244
2843.815000	17431.970333	864.510742	22.277077
2843.815000	17431.970333	863.333984	86.767326
2843.815000	17431.970333	862.157227	120.011040
2843.815000	17431.970333	860.979492	19.266256
2843.815000	17431.970333	859.802734	70.818161
2843.815000	17431.970333	858.625000	-17.073853
2843.815000	17431.970333	857.446289	23.423990
2843.815000	17431.970333	856.268555	40.048626
2843.815000	17431.970333	855.089844	-69.839088
2843.815000	17431.970333	853.911133	-47.743073
2843.815000	17431.970333	852.731445	76.937363
2843.815000	17431.970333	851.552734	80.633629
2843.815000	17431.970333	850.373047	45.844131
2843.815000	17431.970333	849.193359	31.191483
2843.815000	17431.970333	848.013672	-131.776642
2843.815000	17431.970333	846.833008	-34.767723
2843.815000	17431.970333	845.652344	-54.947689
2843.815000	17431.970333	844.471680	-139.182190
2843.815000	17431.970333	843.291016	-82.542427
2843.815000	17431.970333	842.110352	-124.713394
2843.815000	17431.970333	840.928711	-126.658783
2843.815000	17431.970333	839.747070	-57.324699
2843.815000	17431.970333	838.564453	-90.401192
2843.815000	17431.970333	837.382813	-103.384903
2843.815000	17431.970333	836.200195	13.339574
2843.815000	17431.970333	835.017578	-145.844940
2843.815000	17431.970333	833.834961	-1.810923
2843.815000	17431.970333	832.651367	8.844248
2843.815000	17431.970333	831.467773	-66.332726
2843.815000	17431.970333	830.284180	-10.085668
2843.815000	17431.970333	829.100586	24.216112
2843.815000	17431.970333	827.916992	-7.201968
2843.815000	17431.970333	826.732422	-9.445684
2843.815000	17431.970333	825.547852	159.718292
2843.815000	17431.970333	824.363281	18.817123
2843.815000	17431.970333	823.177734	34.725460
2843.815000	17431.970333	821.992188	6.859296
2843.815000	17431.970333	820.806641	35.468952
2843.815000	17431.970333	819.621094	0.275946
2843.815000	17431.970333	818.434570	52.503460
2843.815000	17431.970333	817.249023	106.503922
2843.815000	17431.970333	816.062500	11.156948
2843.815000	17431.970333	814.875000	65.091713
2843.815000	17431.970333	813.688477	-39.360222
2843.815000	17431.970333	812.500977	27.247038
2843.815000	17431.970333	811.313477	-64.472549
2843.815000	17431.970333	810.125977	56.623440
2843.815000	17431.970333	808.937500	23.072960
2843.815000	17431.970333	807.749023	47.687302
2843.815000	17431.970333	806.560547	-49.522465
2843.815000	17431.970333	805.372070	-41.314793
2843.815000	17431.970333	804.182617	15.920461
2843.815000	17431.970333	802.994141	58.570927
2843.815000	17431.970333	801.803711	-5.981455
2843.815000	17431.970333	800.614258	-54.192654
2843.815000	17431.970333	799.424805	-20.716705
2843.815000	17431.970333	798.234375	32.681919
2843.815000	17431.970333	797.043945	38.847923
2843.815000	17431.970333	795.852539	-14.891417
2843.815000	17431.970333	794.662109	22.060364
2843.815000	17431.970333	793.470703	-19.017057
2843.815000	17431.970333	792.279297	41.433041
2843.815000	17431.970333	791.087891	51.068729
2843.815000	17431.970333	789.895508	73.357315
2843.815000	17431.970333	788.703125	-13.118044
2843.815000	17431.970333	787.510742	-9.002484
2843.815000	17431.970333	786.318359	-39.334217
2843.815000	17431.970333	785.125000	-37.086948
2843.815000	17431.970333	783.931641	24.877289
2843.815000	17431.970333	782.738281	37.909935
2843.815000	17431.970333	781.544922	-7.008162
2843.815000	17431.970333	780.350586	67.484657
2843.815000	17431.970333	779.156250	42.416107
2843.815000	17431.970333	777.961914	111.378860
2843.815000	17431.970333	776.767578	88.056892
2843.815000	17431.970333	775.572266	-0.373286
2843.815000	17431.970333	774.376953	-3.842822
2843.815000	17431.970333	773.181641	46.873283
2843.815000	17431.970333	771.986328	178.843307
2843.815000	17431.970333	770.790039	95.758797
2843.815000	17431.970333	769.593750	14.482666
2843.815000	17431.970333	768.397461	18.075380
2843.815000	17431.970333	767.201172	-3.639897
2843.815000	17431.970333	766.003906	54.038074
2843.815000	17431.970333	764.806641	-41.728863
2843.815000	17431.970333	763.609375	-9.390961
2843.815000	17431.970333	762.412109	73.408157
2843.815000	17431.970333	761.213867	85.804207
2843.815000	17431.970333	760.015625	45.873230
2843.815000	17431.970333	758.817383	78.034111
2843.815000	17431.970333	757.618164	135.379532
2843.815000	17431.970333	756.419922	116.987160
2843.815000	17431.970333	755.220703	39.117077
2843.815000	17431.970333	754.021484	9.878197
2843.815000	17431.970333	752.821289	61.653629
2843.815000	17431.970333	751.621094	131.378510
2843.815000	17431.970333	750.420898	111.037674
2843.815000	17431.970333	749.220703	148.261978
2843.815000	17431.970333	748.020508	162.046021
2843.815000	17431.970333	746.819336	139.810898
2843.815000	17431.970333	745.618164	218.270721
2843.815000	17431.970333	744.416992	160.002136
2843.815000	17431.970333	743.214844	231.165436
2843.815000	17431.970333	742.012695	160.267776
2843.815000	17431.970333	740.810547	247.507904
2843.815000	17431.970333	739.608398	393.968353
2843.815000	17431.970333	738.406250	362.498749
2843.815000	17431.970333	737.203125	426.191895
2843.815000	17431.970333	736.000000	489.825134
2843.815000	17431.970333	734.795898	583.914551
2843.815000	17431.970333	733.592773	672.548218
2843.815000	17431.970333	732.388672	579.871460
2843.815000	17431.970333	731.184570	594.843445
2843.815000	17431.970333	729.979492	572.106628
2843.815000	17431.970333	728.775391	572.660339
2843.815000	17431.970333	727.570313	485.324738
2843.815000	17431.970333	726.365234	487.620483
2843.815000	17431.970333	725.160156	330.376770
2843.815000	17431.970333	723.954102	368.471802
2843.815000	17431.970333	722.748047	205.876633
2843.815000	17431.970333	721.541992	107.794502
2843.815000	17431.970333	720.334961	235.345230
2843.815000	17431.970333	719.128906	65.619019
2843.815000	17431.970333	717.921875	101.772430
2843.815000	17431.970333	716.714844	159.352356
2843.815000	17431.970333	715.506836	132.781769
2843.815000	17431.970333	714.298828	170.587128
2843.815000	17431.970333	713.090820	145.749039
2843.815000	17431.970333	711.882813	33.272991
2843.815000	17431.970333	710.674805	-82.762711
2843.815000	17431.970333	709.465820	42.503288
2843.815000	17431.970333	708.256836	-86.061104
2843.815000	17431.970333	707.047852	-102.049469
2843.815000	17431.970333	705.837891	-18.037987
2843.815000	17431.970333	704.627930	-14.455546
2843.815000	17431.970333	703.417969	31.945114
2843.815000	17431.970333	702.208008	40.808228
2843.815000	17431.970333	700.998047	128.163300
2843.815000	17431.970333	699.787109	131.585403
2843.815000	17431.970333	698.576172	197.413895
2843.815000	17431.970333	697.364258	184.704788
2843.815000	17431.970333	696.153320	125.609856
2843.815000	17431.970333	694.941406	168.128128
2843.815000	17431.970333	693.729492	69.785072
2843.815000	17431.970333	692.516602	24.914011
2843.815000	17431.970333	691.304688	92.281181
2843.815000	17431.970333	690.091797	75.866875
2843.815000	17431.970333	688.878906	150.258240
2843.815000	17431.970333	687.665039	91.044357
2843.815000	17431.970333	686.451172	129.737717
2843.815000	17431.970333	685.237305	97.194046
2843.815000	17431.970333	684.023438	174.961502
2843.815000	17431.970333	682.809570	90.773285
2843.815000	17431.970333	681.594727	68.844383
2843.815000	17431.970333	680.379883	41.562904
2843.815000	17431.970333	679.165039	16.044395
2843.815000	17431.970333	677.949219	50.944725
2843.815000	17431.970333	676.733398	11.161360
2843.815000	17431.970333	675.517578	117.069138
2843.815000	17431.970333	674.301758	-0.926815
2843.815000	17431.970333	673.084961	241.643280
2843.815000	17431.970333	671.869141	221.284729
2843.815000	17431.970333	670.651367	55.327026
2843.815000	17431.970333	669.434570	169.861313
2843.815000	17431.970333	668.216797	208.013260
2843.815000	17431.970333	667.000000	203.547607
2843.815000	17431.970333	665.781250	239.852783
2843.815000	17431.970333	664.563477	265.482025
2843.815000	17431.970333	663.344727	392.141022
2843.815000	17431.970333	662.125977	371.589294
2843.815000	17431.970333	660.907227	340.390778
2843.815000	17431.970333	659.688477	353.482849
2843.815000	17431.970333	658.468750	421.464600
2843.815000	17431.970333	657.249023	363.641052
2843.815000	17431.970333	656.029297	431.551727
2843.815000	17431.970333	654.808594	591.474854
2843.815000	17431.970333	653.587891	446.855682
2843.815000	17431.970333	652.367188	350.060394
2843.815000	17431.970333	651.146484	297.521545
2843.815000	17431.970333	649.924805	287.439240
2843.815000	17431.970333	648.704102	286.189575
2843.815000	17431.970333	647.482422	322.053070
2843.815000	17431.970333	646.259766	326.060455
2843.815000	17431.970333	645.037109	262.885651
2843.815000	17431.970333	643.815430	254.504883
2843.815000	17431.970333	642.591797	161.303894
2843.815000	17431.970333	641.369141	163.513153
2843.815000	17431.970333	640.145508	162.172348
2843.815000	17431.970333	638.921875	76.069252
2843.815000	17431.970333	637.698242	210.643341
2843.815000	17431.970333	636.474609	212.783310
2843.815000	17431.970333	635.250000	202.555374
2843.815000	17431.970333	634.025391	220.546188
2843.815000	17431.970333	632.800781	226.171295
2843.815000	17431.970333	631.575195	120.688820
2843.815000	17431.970333	630.349609	38.159073
2843.815000	17431.970333	629.124023	156.593338
2843.815000	17431.970333	627.898438	63.498489
2843.815000	17431.970333	626.671875	136.047668
2843.815000	17431.970333	625.445313	150.428207
2843.815000	17431.970333	624.218750	67.933121
2843.815000	17431.970333	622.992188	108.718727
2843.815000	17431.970333	621.764648	73.781395
2843.815000	17431.970333	620.537109	24.772837
2843.815000	17431.970333	619.309570	69.039810
2843.815000	17431.970333	618.081055	72.817459
2843.815000	17431.970333	616.852539	169.809753
2843.815000	17431.970333	615.624023	134.869324
2843.815000	17431.970333	614.395508	43.680321
2843.815000	17431.970333	613.166992	184.551941
2843.815000	17431.970333	611.937500	37.146557
2843.815000	17431.970333	610.708008	35.635464
2843.815000	17431.970333	609.477539	-50.198322
2843.815000	17431.970333	608.248047	4.509136
2843.815000	17431.970333	607.017578	-23.336863
2843.815000	17431.970333	605.787109	69.961334
2843.815000	17431.970333	604.555664	-8.786395
2843.815000	17431.970333	603.325195	-40.116501
2843.815000	17431.970333	602.093750	-59.152958
2843.815000	17431.970333	600.861328	-37.838036
2843.815000	17431.970333	599.629883	9.779585
2843.815000	17431.970333	598.397461	102.963654
2843.815000	17431.970333	597.165039	-70.328926
2843.815000	17431.970333	595.932617	-34.990131
2843.815000	17431.970333	594.699219	61.662529
2843.815000	17431.970333	593.465820	0.620131
2843.815000	17431.970333	592.232422	-16.603550
2843.815000	17431.970333	590.999023	13.466688
2843.815000	17431.970333	589.764648	-72.014954
2843.815000	17431.970333	588.530273	-19.177055
2843.815000	17431.970333	587.295898	-94.096184
2843.815000	17431.970333	586.061523	-79.745369
2843.815000	17431.970333	584.826172	-86.382988
2843.815000	17431.970333	583.590820	-0.319303
2843.815000	17431.970333	582.355469	-50.657734
2843.815000	17431.970333	581.119141	-31.042353
2843.815000	17431.970333	579.882813	74.215065
2843.815000	17431.970333	578.646484	-58.193497
2843.815000	17431.970333	577.410156	-87.460823
2843.815000	17431.970333	576.172852	35.248051
2843.815000	17431.970333	574.935547	7.747765
2843.815000	17431.970333	573.698242	-7.504092
2843.815000	17431.970333	572.460938	97.704468
2843.815000	17431.970333	571.222656	35.354454
2843.815000	17431.970333	569.984375	41.093433
2843.815000	17431.970333	568.746094	-80.488693
2843.815000	17431.970333	567.506836	-39.813225
2843.815000	17431.970333	566.267578	-95.032944
2843.815000	17431.970333	565.028320	-61.304054
2843.815000	17431.970333	563.789063	-31.054754
2843.815000	17431.970333	562.548828	-101.863510
2843.815000	17431.970333	561.309570	-75.059113
2843.815000	17431.970333	560.068359	-6.447306
2843.815000	17431.970333	558.828125	41.264496
2843.815000	17431.970333	557.586914	38.487751
2843.815000	17431.970333	556.345703	86.214493
2843.815000	17431.970333	555.104492	149.607315
2843.815000	17431.970333	553.863281	65.109055
2843.815000	17431.970333	552.621094	105.913826
2843.815000	17431.970333	551.378906	157.161972
2843.815000	17431.970333	550.136719	112.783134
2843.815000	17431.970333	548.893555	118.861107
2843.815000	17431.970333	547.650391	32.848652
2843.815000	17431.970333	546.407227	80.699310
2843.815000	17431.970333	545.164063	69.491119
2843.815000	17431.970333	543.919922	20.101868
2843.815000	17431.970333	542.675781	-32.710636
2843.815000	17431.970333	541.431641	174.952423
2843.815000	17431.970333	540.186523	169.052841
2843.815000	17431.970333	538.941406	15.675973
2843.815000	17431.970333	537.696289	89.685921
2843.815000	17431.970333	536.451172	108.185547
2843.815000	17431.970333	535.205078	-83.143066
2843.815000	17431.970333	533.959961	-111.367714
2843.815000	17431.970333	532.712891	-139.552124
2843.815000	17431.970333	531.466797	-84.497711
2843.815000	17431.970333	530.219727	-22.505621
2843.815000	17431.970333	528.972656	8.309480
2843.815000	17431.970333	527.725586	-63.047298
2843.815000	17431.970333	526.478516	104.632759
2843.815000	17431.970333	525.230469	99.140717
2843.815000	17431.970333	523.982422	130.034576
2843.815000	17431.970333	522.734375	12.119683
2843.815000	17431.970333	521.485352	179.771133
2843.815000	17431.970333	520.236328	174.402252
2843.815000	17431.970333	518.987305	181.175766
2843.815000	17431.970333	517.737305	186.250000
2843.815000	17431.970333	516.488281	289.896027
2843.815000	17431.970333	515.238281	319.211121
2843.815000	17431.970333	513.988281	355.460449
2843.815000	17431.970333	512.737305	457.376129
2843.815000	17431.970333	511.486328	597.282288
2843.815000	17431.970333	510.235352	659.454834
2843.815000	17431.970333	508.984375	561.071411
2843.815000	17431.970333	507.732422	740.668823
2843.815000	17431.970333	506.480469	866.726379
2843.815000	17431.970333	505.228516	785.718506
2843.815000	17431.970333	503.976563	849.680786
2843.815000	17431.970333	502.723633	836.040161
2843.815000	17431.970333	501.470703	741.399719
2843.815000	17431.970333	500.217773	770.954041
2843.815000	17431.970333	498.963867	588.535461
2843.815000	17431.970333	497.709961	537.188721
2843.815000	17431.970333	496.456055	654.730469
2843.815000	17431.970333	495.202148	520.783020
2843.815000	17431.970333	493.947266	560.850952
2843.815000	17431.970333	492.692383	568.223083
2843.815000	17431.970333	491.437500	505.051270
2843.815000	17431.970333	490.181641	350.728424
2843.815000	17431.970333	488.926758	256.724548
2843.815000	17431.970333	487.670898	305.566864
2843.815000	17431.970333	486.414063	299.383942
2843.815000	17431.970333	485.158203	291.516113
2843.815000	17431.970333	483.901367	304.309540
2843.815000	17431.970333	482.644531	291.346008
2843.815000	17431.970333	481.386719	369.488007
2843.815000	17431.970333	480.128906	390.931915
2843.815000	17431.970333	478.871094	396.935944
2843.815000	17431.970333	477.613281	411.550659
2843.815000	17431.970333	476.355469	474.257324
2843.815000	17431.970333	475.096680	346.432068
2843.815000	17431.970333	473.837891	422.904846
2843.815000	17431.970333	472.578125	283.184082
2843.815000	17431.970333	471.319336	279.062012
2843.815000	17431.970333	470.059570	367.574402
2843.815000	17431.970333	468.799805	296.609009
2843.815000	17431.970333	467.539063	349.121521
2843.815000	17431.970333	466.278320	283.372223
2843.815000	17431.970333	465.017578	186.827393
2843.815000	17431.970333	463.756836	205.123230
2843.815000	17431.970333	462.495117	257.683105
2843.815000	17431.970333	461.233398	253.726028
2843.815000	17431.970333	459.971680	222.393509
2843.815000	17431.970333	458.709961	93.522240
2843.815000	17431.970333	457.447266	-52.394196
2843.815000	17431.970333	456.184570	-28.854710
2843.815000	17431.970333	454.921875	-56.631569
2843.815000	17431.970333	453.658203	103.732086
2843.815000	17431.970333	452.394531	-28.345800
2843.815000	17431.970333	451.130859	43.064533
2843.815000	17431.970333	449.867188	78.557373
2843.815000	17431.970333	448.602539	-20.951078
2843.815000	17431.970333	447.337891	40.169823
2843.815000	17431.970333	446.073242	31.236900
2843.815000	17431.970333	444.807617	78.656960
2843.815000	17431.970333	443.542969	4.840131
2843.815000	17431.970333	442.276367	48.822884
2843.815000	17431.970333	441.010742	176.398895
2843.815000	17431.970333	439.744141	32.636566
2843.815000	17431.970333	438.478516	49.268177
2843.815000	17431.970333	437.210938	105.103409
2843.815000	17431.970333	435.944336	150.671173
2843.815000	17431.970333	434.676758	63.240345
2843.815000	17431.970333	433.409180	16.732183
2843.815000	17431.970333	432.141602	171.286285
2843.815000	17431.970333	430.873047	209.909973
2843.815000	17431.970333	429.604492	234.867676
2843.815000	17431.970333	428.335938	145.700699
2843.815000	17431.970333	427.067383	151.880524
2843.815000	17431.970333	425.797852	186.961578
2843.815000	17431.970333	424.528320	215.188156
2843.815000	17431.970333	423.258789	142.989105
2843.815000	17431.970333	421.988281	26.557302
2843.815000	17431.970333	420.717773	58.088638
2843.815000	17431.970333	419.447266	198.378036
2843.815000	17431.970333	418.175781	117.579582
2843.815000	17431.970333	416.905273	193.122711
2843.815000	17431.970333	415.633789	141.148514
2843.815000	17431.970333	414.362305	240.332764
2843.815000	17431.970333	413.089844	364.893158
2843.815000	17431.970333	411.817383	227.847290
2843.815000	17431.970333	410.544922	145.125000
2843.815000	17431.970333	409.272461	250.772324
2843.815000	17431.970333	407.999023	66.134521
2843.815000	17431.970333	406.725586	119.023079
2843.815000	17431.970333	405.452148	-9.674793
2843.815000	17431.970333	404.177734	107.498154
2843.815000	17431.970333	402.903320	80.429115
2843.815000	17431.970333	401.628906	-14.512430
2843.815000	17431.970333	400.354492	107.423813
2843.815000	17431.970333	399.079102	154.666321
2843.815000	17431.970333	397.803711	39.176094
2843.815000	17431.970333	396.528320	138.727676
2843.815000	17431.970333	395.251953	38.334652
2843.815000	17431.970333	393.976563	174.886566
2843.815000	17431.970333	392.700195	74.322395
2843.815000	17431.970333	391.422852	87.062767
2843.815000	17431.970333	390.145508	87.843224
2843.815000	17431.970333	388.869141	90.201347
2843.815000	17431.970333	387.590820	33.247910
2843.815000	17431.970333	386.313477	31.989424
2843.815000	17431.970333	385.035156	28.911404
2843.815000	17431.970333	383.756836	-11.474523
2843.815000	17431.970333	382.478516	46.016338
2843.815000	17431.970333	381.199219	34.083061
2843.815000	17431.970333	379.919922	-52.295300
2843.815000	17431.970333	378.640625	-0.330668
2843.815000	17431.970333	377.360352	12.631120
2843.815000	17431.970333	376.080078	50.747528
2843.815000	17431.970333	374.799805	137.620956
2843.815000	17431.970333	373.519531	-22.006123
2843.815000	17431.970333	372.238281	-50.179420
2843.815000	17431.970333	370.957031	-39.728973
2843.815000	17431.970333	369.675781	-24.402664
2843.815000	17431.970333	368.394531	-34.546062
2843.815000	17431.970333	367.112305	-113.966347
2843.815000	17431.970333	365.830078	-78.976608
2843.815000	17431.970333	364.546875	-0.407346
2843.815000	17431.970333	363.264648	-6.268629
2843.815000	17431.970333	361.981445	-20.754421
2843.815000	17431.970333	360.698242	-16.925932
2843.815000	17431.970333	359.414063	54.000294
2843.815000	17431.970333	358.129883	32.135632
2843.815000	17431.970333	356.845703	48.747913
2843.815000	17431.970333	355.561523	-39.148483
2843.815000	17431.970333	354.276367	109.843323
2843.815000	17431.970333	352.991211	24.857685
2843.815000	17431.970333	351.706055	27.065603
2843.815000	17431.970333	350.420898	45.828972
2843.815000	17431.970333	349.134766	69.364601
2843.815000	17431.970333	347.848633	-28.301958
2843.815000	17431.970333	346.561523	-0.249777
2843.815000	17431.970333	345.275391	74.538849
2843.815000	17431.970333	343.988281	-74.232643
2843.815000	17431.970333	342.700195	-80.579620
2843.815000	17431.970333	341.413086	-20.087259
2843.815000	17431.970333	340.125000	-40.436256
2843.815000	17431.970333	338.836914	-12.434844
2843.815000	17431.970333	337.548828	-11.572492
2843.815000	17431.970333	336.259766	-7.671903
2843.815000	17431.970333	334.970703	-24.195026
2843.815000	17431.970333	333.681641	-34.324760
2843.815000	17431.970333	332.391602	-38.079899
2843.815000	17431.970333	331.101563	-72.307991
2843.815000	17431.970333	329.811523	-19.778427
2843.815000	17431.970333	328.521484	-19.508158
2843.815000	17431.970333	327.230469	38.990768
2843.815000	17431.970333	325.939453	-66.881218
2843.815000	17431.970333	324.648438	10.975580
2843.815000	17431.970333	323.356445	128.572220
2843.815000	17431.970333	322.064453	113.637009
2843.815000	17431.970333	320.772461	-48.796291
2843.815000	17431.970333	319.480469	-127.955154
2843.815000	17431.970333	318.187500	-37.008381
2843.815000	17431.970333	316.894531	-53.425812
2843.815000	17431.970333	315.601563	-18.443712
2843.815000	17431.970333	314.307617	2.748700
2843.815000	17431.970333	313.013672	63.601398
2843.815000	17431.970333	311.719727	62.248241
2843.815000	17431.970333	310.425781	-51.346828
2843.815000	17431.970333	309.130859	39.919224
2843.815000	17431.970333	307.835938	33.955132
2843.815000	17431.970333	306.541016	-9.134988
2843.815000	17431.970333	305.245117	65.737785
2843.815000	17431.970333	303.949219	76.779083
2843.815000	17431.970333	302.653320	-9.312696
2843.815000	17431.970333	301.356445	95.807274
2843.815000	17431.970333	300.060547	160.449615
2843.815000	17431.970333	298.763672	106.310799
