#X		#Y		#Wave		#Intensity
2707.643989	17475.550667	2000.043945	-73.627602
2707.643989	17475.550667	1999.080078	-172.973068
2707.643989	17475.550667	1998.116211	45.656506
2707.643989	17475.550667	1997.151367	-142.743088
2707.643989	17475.550667	1996.186523	-29.313618
2707.643989	17475.550667	1995.222656	110.814682
2707.643989	17475.550667	1994.256836	91.906265
2707.643989	17475.550667	1993.291992	-21.569538
2707.643989	17475.550667	1992.327148	65.087242
2707.643989	17475.550667	1991.361328	57.216957
2707.643989	17475.550667	1990.395508	-151.539963
2707.643989	17475.550667	1989.429688	-9.247885
2707.643989	17475.550667	1988.463867	-189.022293
2707.643989	17475.550667	1987.497070	189.923447
2707.643989	17475.550667	1986.531250	81.163971
2707.643989	17475.550667	1985.564453	-107.022766
2707.643989	17475.550667	1984.597656	-11.171659
2707.643989	17475.550667	1983.630859	15.115816
2707.643989	17475.550667	1982.664063	33.675346
2707.643989	17475.550667	1981.696289	210.069016
2707.643989	17475.550667	1980.728516	99.553078
2707.643989	17475.550667	1979.761719	233.329880
2707.643989	17475.550667	1978.792969	87.756195
2707.643989	17475.550667	1977.825195	65.440811
2707.643989	17475.550667	1976.857422	116.955513
2707.643989	17475.550667	1975.888672	136.146240
2707.643989	17475.550667	1974.919922	-170.605896
2707.643989	17475.550667	1973.951172	144.276291
2707.643989	17475.550667	1972.982422	-98.618546
2707.643989	17475.550667	1972.013672	215.762787
2707.643989	17475.550667	1971.043945	505.199493
2707.643989	17475.550667	1970.075195	91.756409
2707.643989	17475.550667	1969.105469	-53.016773
2707.643989	17475.550667	1968.135742	70.741005
2707.643989	17475.550667	1967.165039	216.492889
2707.643989	17475.550667	1966.195313	219.186707
2707.643989	17475.550667	1965.224609	248.856369
2707.643989	17475.550667	1964.253906	118.337135
2707.643989	17475.550667	1963.283203	108.412361
2707.643989	17475.550667	1962.312500	327.330017
2707.643989	17475.550667	1961.341797	196.593674
2707.643989	17475.550667	1960.370117	73.207100
2707.643989	17475.550667	1959.399414	-160.915359
2707.643989	17475.550667	1958.427734	104.327614
2707.643989	17475.550667	1957.455078	184.960022
2707.643989	17475.550667	1956.483398	137.649841
2707.643989	17475.550667	1955.511719	188.649612
2707.643989	17475.550667	1954.539063	207.635315
2707.643989	17475.550667	1953.566406	-48.662857
2707.643989	17475.550667	1952.593750	-44.444435
2707.643989	17475.550667	1951.621094	58.014687
2707.643989	17475.550667	1950.647461	189.889587
2707.643989	17475.550667	1949.674805	-98.219109
2707.643989	17475.550667	1948.701172	60.623081
2707.643989	17475.550667	1947.727539	-163.544128
2707.643989	17475.550667	1946.753906	383.035614
2707.643989	17475.550667	1945.780273	259.507172
2707.643989	17475.550667	1944.805664	57.522995
2707.643989	17475.550667	1943.831055	69.034241
2707.643989	17475.550667	1942.856445	-7.730797
2707.643989	17475.550667	1941.881836	52.868111
2707.643989	17475.550667	1940.907227	47.273762
2707.643989	17475.550667	1939.932617	323.590912
2707.643989	17475.550667	1938.957031	-29.993658
2707.643989	17475.550667	1937.981445	202.192734
2707.643989	17475.550667	1937.005859	-50.728081
2707.643989	17475.550667	1936.030273	-4.698850
2707.643989	17475.550667	1935.054688	251.954697
2707.643989	17475.550667	1934.078125	160.881699
2707.643989	17475.550667	1933.101563	35.615192
2707.643989	17475.550667	1932.125000	162.534103
2707.643989	17475.550667	1931.148438	34.964497
2707.643989	17475.550667	1930.171875	-163.459152
2707.643989	17475.550667	1929.194336	12.499734
2707.643989	17475.550667	1928.217773	102.849144
2707.643989	17475.550667	1927.240234	232.343689
2707.643989	17475.550667	1926.262695	70.917442
2707.643989	17475.550667	1925.284180	163.816483
2707.643989	17475.550667	1924.306641	-163.600601
2707.643989	17475.550667	1923.328125	29.604338
2707.643989	17475.550667	1922.350586	-141.198868
2707.643989	17475.550667	1921.372070	22.738503
2707.643989	17475.550667	1920.392578	54.807693
2707.643989	17475.550667	1919.414063	-25.385841
2707.643989	17475.550667	1918.434570	-90.841400
2707.643989	17475.550667	1917.456055	-7.330949
2707.643989	17475.550667	1916.476563	-323.982666
2707.643989	17475.550667	1915.497070	162.219666
2707.643989	17475.550667	1914.516602	-44.453079
2707.643989	17475.550667	1913.537109	-150.996429
2707.643989	17475.550667	1912.556641	-37.985695
2707.643989	17475.550667	1911.576172	18.971611
2707.643989	17475.550667	1910.595703	195.402267
2707.643989	17475.550667	1909.615234	159.809540
2707.643989	17475.550667	1908.633789	-255.815170
2707.643989	17475.550667	1907.653320	-140.158112
2707.643989	17475.550667	1906.671875	-287.536591
2707.643989	17475.550667	1905.690430	-127.969154
2707.643989	17475.550667	1904.708984	-29.273281
2707.643989	17475.550667	1903.727539	74.307701
2707.643989	17475.550667	1902.745117	204.673279
2707.643989	17475.550667	1901.762695	-95.662422
2707.643989	17475.550667	1900.780273	154.002350
2707.643989	17475.550667	1899.797852	-73.140465
2707.643989	17475.550667	1898.815430	-210.164642
2707.643989	17475.550667	1897.832031	71.133888
2707.643989	17475.550667	1896.849609	109.262199
2707.643989	17475.550667	1895.866211	237.352570
2707.643989	17475.550667	1894.882813	71.383156
2707.643989	17475.550667	1893.898438	-14.303376
2707.643989	17475.550667	1892.915039	-39.188812
2707.643989	17475.550667	1891.930664	193.427567
2707.643989	17475.550667	1890.947266	49.591095
2707.643989	17475.550667	1889.962891	51.516178
2707.643989	17475.550667	1888.977539	4.921548
2707.643989	17475.550667	1887.993164	135.541626
2707.643989	17475.550667	1887.007813	18.629942
2707.643989	17475.550667	1886.023438	71.612122
2707.643989	17475.550667	1885.038086	-86.434067
2707.643989	17475.550667	1884.051758	51.469597
2707.643989	17475.550667	1883.066406	-222.866730
2707.643989	17475.550667	1882.081055	135.649277
2707.643989	17475.550667	1881.094727	195.914703
2707.643989	17475.550667	1880.108398	-172.773132
2707.643989	17475.550667	1879.122070	-160.916718
2707.643989	17475.550667	1878.135742	-175.708023
2707.643989	17475.550667	1877.148438	284.222534
2707.643989	17475.550667	1876.162109	95.001183
2707.643989	17475.550667	1875.174805	-203.101135
2707.643989	17475.550667	1874.187500	43.548626
2707.643989	17475.550667	1873.199219	-89.875374
2707.643989	17475.550667	1872.211914	120.342812
2707.643989	17475.550667	1871.223633	-88.067009
2707.643989	17475.550667	1870.236328	-100.494331
2707.643989	17475.550667	1869.248047	24.913593
2707.643989	17475.550667	1868.258789	92.222305
2707.643989	17475.550667	1867.270508	48.274773
2707.643989	17475.550667	1866.282227	18.819164
2707.643989	17475.550667	1865.292969	-78.322250
2707.643989	17475.550667	1864.303711	54.071396
2707.643989	17475.550667	1863.314453	77.673042
2707.643989	17475.550667	1862.324219	161.607544
2707.643989	17475.550667	1861.334961	226.147858
2707.643989	17475.550667	1860.344727	-177.754318
2707.643989	17475.550667	1859.354492	2.596606
2707.643989	17475.550667	1858.364258	-193.659668
2707.643989	17475.550667	1857.374023	-8.652972
2707.643989	17475.550667	1856.383789	12.178246
2707.643989	17475.550667	1855.392578	218.667419
2707.643989	17475.550667	1854.401367	15.049425
2707.643989	17475.550667	1853.410156	264.731537
2707.643989	17475.550667	1852.418945	155.060425
2707.643989	17475.550667	1851.426758	202.023575
2707.643989	17475.550667	1850.435547	207.928329
2707.643989	17475.550667	1849.443359	459.502411
2707.643989	17475.550667	1848.451172	217.084641
2707.643989	17475.550667	1847.458984	56.558811
2707.643989	17475.550667	1846.466797	-36.570122
2707.643989	17475.550667	1845.473633	-117.715561
2707.643989	17475.550667	1844.480469	157.319046
2707.643989	17475.550667	1843.487305	-8.252378
2707.643989	17475.550667	1842.494141	194.282181
2707.643989	17475.550667	1841.500977	341.306610
2707.643989	17475.550667	1840.506836	-53.008980
2707.643989	17475.550667	1839.513672	38.484642
2707.643989	17475.550667	1838.519531	69.724243
2707.643989	17475.550667	1837.525391	151.321182
2707.643989	17475.550667	1836.530273	86.160049
2707.643989	17475.550667	1835.536133	174.697601
2707.643989	17475.550667	1834.541016	315.936218
2707.643989	17475.550667	1833.545898	48.641998
2707.643989	17475.550667	1832.550781	290.466583
2707.643989	17475.550667	1831.555664	368.790039
2707.643989	17475.550667	1830.560547	180.471085
2707.643989	17475.550667	1829.564453	80.895493
2707.643989	17475.550667	1828.568359	312.394562
2707.643989	17475.550667	1827.572266	363.711823
2707.643989	17475.550667	1826.576172	107.807503
2707.643989	17475.550667	1825.580078	139.667374
2707.643989	17475.550667	1824.583008	209.731323
2707.643989	17475.550667	1823.585938	-3.293559
2707.643989	17475.550667	1822.588867	16.127337
2707.643989	17475.550667	1821.591797	193.559891
2707.643989	17475.550667	1820.594727	-5.433864
2707.643989	17475.550667	1819.596680	-53.586555
2707.643989	17475.550667	1818.599609	209.506912
2707.643989	17475.550667	1817.601563	91.549667
2707.643989	17475.550667	1816.603516	26.144543
2707.643989	17475.550667	1815.604492	144.921677
2707.643989	17475.550667	1814.606445	184.498505
2707.643989	17475.550667	1813.607422	238.237106
2707.643989	17475.550667	1812.608398	45.340687
2707.643989	17475.550667	1811.609375	74.805115
2707.643989	17475.550667	1810.610352	15.581346
2707.643989	17475.550667	1809.610352	188.138489
2707.643989	17475.550667	1808.611328	238.518127
2707.643989	17475.550667	1807.611328	248.049149
2707.643989	17475.550667	1806.611328	90.092278
2707.643989	17475.550667	1805.610352	216.334747
2707.643989	17475.550667	1804.610352	335.171295
2707.643989	17475.550667	1803.609375	-64.549034
2707.643989	17475.550667	1802.608398	-103.722496
2707.643989	17475.550667	1801.607422	12.111944
2707.643989	17475.550667	1800.606445	492.930969
2707.643989	17475.550667	1799.605469	42.547237
2707.643989	17475.550667	1798.603516	307.994537
2707.643989	17475.550667	1797.601563	184.244934
2707.643989	17475.550667	1796.599609	446.755768
2707.643989	17475.550667	1795.597656	243.898392
2707.643989	17475.550667	1794.595703	-199.928406
2707.643989	17475.550667	1793.592773	-26.357700
2707.643989	17475.550667	1792.589844	223.200989
2707.643989	17475.550667	1791.587891	-54.209827
2707.643989	17475.550667	1790.583984	380.653259
2707.643989	17475.550667	1789.581055	214.823242
2707.643989	17475.550667	1788.577148	234.596741
2707.643989	17475.550667	1787.574219	313.676788
2707.643989	17475.550667	1786.570313	159.167816
2707.643989	17475.550667	1785.566406	213.958908
2707.643989	17475.550667	1784.561523	13.835311
2707.643989	17475.550667	1783.557617	108.621094
2707.643989	17475.550667	1782.552734	10.422992
2707.643989	17475.550667	1781.547852	118.963165
2707.643989	17475.550667	1780.542969	-17.722353
2707.643989	17475.550667	1779.538086	-23.822100
2707.643989	17475.550667	1778.532227	43.524223
2707.643989	17475.550667	1777.527344	36.934635
2707.643989	17475.550667	1776.521484	-10.303014
2707.643989	17475.550667	1775.515625	96.667854
2707.643989	17475.550667	1774.508789	103.572014
2707.643989	17475.550667	1773.502930	219.490417
2707.643989	17475.550667	1772.496094	149.894791
2707.643989	17475.550667	1771.489258	8.855664
2707.643989	17475.550667	1770.482422	247.401672
2707.643989	17475.550667	1769.475586	-119.549843
2707.643989	17475.550667	1768.467773	-35.808475
2707.643989	17475.550667	1767.460938	31.061337
2707.643989	17475.550667	1766.453125	294.499451
2707.643989	17475.550667	1765.445313	-42.367229
2707.643989	17475.550667	1764.437500	-298.748138
2707.643989	17475.550667	1763.428711	189.026642
2707.643989	17475.550667	1762.420898	43.586647
2707.643989	17475.550667	1761.412109	262.844177
2707.643989	17475.550667	1760.403320	55.324017
2707.643989	17475.550667	1759.393555	-88.433655
2707.643989	17475.550667	1758.384766	-5.025726
2707.643989	17475.550667	1757.375000	42.561878
2707.643989	17475.550667	1756.366211	288.746948
2707.643989	17475.550667	1755.356445	-113.953369
2707.643989	17475.550667	1754.345703	27.499228
2707.643989	17475.550667	1753.335938	206.516296
2707.643989	17475.550667	1752.325195	285.840210
2707.643989	17475.550667	1751.315430	452.401093
2707.643989	17475.550667	1750.304688	195.362366
2707.643989	17475.550667	1749.292969	23.254719
2707.643989	17475.550667	1748.282227	108.619255
2707.643989	17475.550667	1747.270508	4.616080
2707.643989	17475.550667	1746.259766	4.379120
2707.643989	17475.550667	1745.248047	22.766817
2707.643989	17475.550667	1744.235352	326.661652
2707.643989	17475.550667	1743.223633	122.492119
2707.643989	17475.550667	1742.211914	163.690262
2707.643989	17475.550667	1741.199219	232.925568
2707.643989	17475.550667	1740.186523	61.148289
2707.643989	17475.550667	1739.173828	198.298492
2707.643989	17475.550667	1738.160156	99.199333
2707.643989	17475.550667	1737.147461	-148.694199
2707.643989	17475.550667	1736.133789	-26.513922
2707.643989	17475.550667	1735.120117	-39.028866
2707.643989	17475.550667	1734.106445	33.076206
2707.643989	17475.550667	1733.091797	-206.237839
2707.643989	17475.550667	1732.078125	53.890808
2707.643989	17475.550667	1731.063477	45.056732
2707.643989	17475.550667	1730.048828	-25.265579
2707.643989	17475.550667	1729.034180	99.667053
2707.643989	17475.550667	1728.019531	-67.677567
2707.643989	17475.550667	1727.003906	44.927887
2707.643989	17475.550667	1725.988281	-266.439484
2707.643989	17475.550667	1724.972656	-121.382019
2707.643989	17475.550667	1723.957031	-26.033363
2707.643989	17475.550667	1722.941406	33.748337
2707.643989	17475.550667	1721.924805	-14.949213
2707.643989	17475.550667	1720.909180	-343.676788
2707.643989	17475.550667	1719.892578	-70.662727
2707.643989	17475.550667	1718.875977	-75.367126
2707.643989	17475.550667	1717.858398	23.078257
2707.643989	17475.550667	1716.841797	86.028801
2707.643989	17475.550667	1715.824219	233.270248
2707.643989	17475.550667	1714.806641	-26.129177
2707.643989	17475.550667	1713.789063	191.064484
2707.643989	17475.550667	1712.770508	-244.810730
2707.643989	17475.550667	1711.752930	77.522812
2707.643989	17475.550667	1710.734375	-1.867901
2707.643989	17475.550667	1709.715820	-165.932938
2707.643989	17475.550667	1708.697266	54.610649
2707.643989	17475.550667	1707.678711	-62.932682
2707.643989	17475.550667	1706.659180	-86.870415
2707.643989	17475.550667	1705.640625	-96.922302
2707.643989	17475.550667	1704.621094	-72.048965
2707.643989	17475.550667	1703.600586	130.705948
2707.643989	17475.550667	1702.581055	84.789978
2707.643989	17475.550667	1701.561523	230.807510
2707.643989	17475.550667	1700.541016	-28.733509
2707.643989	17475.550667	1699.520508	269.037537
2707.643989	17475.550667	1698.500000	140.306229
2707.643989	17475.550667	1697.478516	304.041016
2707.643989	17475.550667	1696.458008	179.625488
2707.643989	17475.550667	1695.436523	80.769691
2707.643989	17475.550667	1694.415039	136.183212
2707.643989	17475.550667	1693.393555	308.348694
2707.643989	17475.550667	1692.372070	396.051514
2707.643989	17475.550667	1691.349609	200.536575
2707.643989	17475.550667	1690.327148	259.752533
2707.643989	17475.550667	1689.304688	314.082550
2707.643989	17475.550667	1688.282227	312.114838
2707.643989	17475.550667	1687.259766	543.631042
2707.643989	17475.550667	1686.236328	253.861679
2707.643989	17475.550667	1685.213867	650.780334
2707.643989	17475.550667	1684.190430	671.345642
2707.643989	17475.550667	1683.166016	558.606384
2707.643989	17475.550667	1682.142578	585.836060
2707.643989	17475.550667	1681.119141	820.610657
2707.643989	17475.550667	1680.094727	611.718567
2707.643989	17475.550667	1679.070313	477.399597
2707.643989	17475.550667	1678.045898	559.906311
2707.643989	17475.550667	1677.020508	870.743530
2707.643989	17475.550667	1675.996094	1029.770508
2707.643989	17475.550667	1674.970703	1078.974731
2707.643989	17475.550667	1673.945313	769.053772
2707.643989	17475.550667	1672.919922	957.809265
2707.643989	17475.550667	1671.893555	1132.331299
2707.643989	17475.550667	1670.868164	896.677979
2707.643989	17475.550667	1669.841797	928.780762
2707.643989	17475.550667	1668.815430	986.345886
2707.643989	17475.550667	1667.789063	796.964050
2707.643989	17475.550667	1666.761719	1133.551147
2707.643989	17475.550667	1665.735352	1018.418457
2707.643989	17475.550667	1664.708008	1177.730835
2707.643989	17475.550667	1663.680664	1353.138428
2707.643989	17475.550667	1662.653320	1442.294556
2707.643989	17475.550667	1661.625000	1289.411743
2707.643989	17475.550667	1660.597656	1627.083374
2707.643989	17475.550667	1659.569336	1043.942139
2707.643989	17475.550667	1658.541016	1179.068726
2707.643989	17475.550667	1657.512695	1430.214233
2707.643989	17475.550667	1656.483398	1551.020020
2707.643989	17475.550667	1655.455078	1406.912964
2707.643989	17475.550667	1654.425781	1357.940796
2707.643989	17475.550667	1653.396484	1543.397705
2707.643989	17475.550667	1652.366211	1717.046021
2707.643989	17475.550667	1651.336914	1630.617798
2707.643989	17475.550667	1650.306641	2003.562744
2707.643989	17475.550667	1649.276367	2065.386230
2707.643989	17475.550667	1648.246094	2038.954590
2707.643989	17475.550667	1647.215820	2142.327393
2707.643989	17475.550667	1646.185547	2016.027466
2707.643989	17475.550667	1645.154297	2281.455566
2707.643989	17475.550667	1644.123047	2558.298828
2707.643989	17475.550667	1643.091797	2580.052734
2707.643989	17475.550667	1642.060547	2585.515381
2707.643989	17475.550667	1641.028320	2715.966309
2707.643989	17475.550667	1639.997070	2746.752197
2707.643989	17475.550667	1638.964844	2761.225830
2707.643989	17475.550667	1637.931641	2958.501953
2707.643989	17475.550667	1636.899414	3114.020996
2707.643989	17475.550667	1635.867188	3033.380859
2707.643989	17475.550667	1634.833984	3049.872803
2707.643989	17475.550667	1633.800781	3096.389648
2707.643989	17475.550667	1632.767578	3133.598633
2707.643989	17475.550667	1631.734375	3217.007324
2707.643989	17475.550667	1630.700195	2935.023438
2707.643989	17475.550667	1629.666016	3221.759033
2707.643989	17475.550667	1628.631836	3610.049316
2707.643989	17475.550667	1627.597656	3422.813721
2707.643989	17475.550667	1626.563477	3378.865967
2707.643989	17475.550667	1625.528320	3540.451904
2707.643989	17475.550667	1624.493164	3561.095947
2707.643989	17475.550667	1623.458008	3334.676270
2707.643989	17475.550667	1622.422852	3763.924561
2707.643989	17475.550667	1621.387695	3666.791016
2707.643989	17475.550667	1620.351563	3595.043945
2707.643989	17475.550667	1619.315430	3846.316650
2707.643989	17475.550667	1618.279297	4079.045410
2707.643989	17475.550667	1617.243164	3753.605225
2707.643989	17475.550667	1616.207031	3829.499023
2707.643989	17475.550667	1615.169922	3674.818848
2707.643989	17475.550667	1614.132813	3621.631836
2707.643989	17475.550667	1613.095703	3840.403809
2707.643989	17475.550667	1612.058594	3695.099365
2707.643989	17475.550667	1611.020508	3413.941162
2707.643989	17475.550667	1609.983398	4042.656982
2707.643989	17475.550667	1608.945313	4026.408936
2707.643989	17475.550667	1607.907227	3319.569824
2707.643989	17475.550667	1606.868164	3462.332031
2707.643989	17475.550667	1605.830078	3786.920654
2707.643989	17475.550667	1604.791016	3694.954834
2707.643989	17475.550667	1603.751953	4083.846924
2707.643989	17475.550667	1602.712891	4164.461426
2707.643989	17475.550667	1601.673828	4079.545410
2707.643989	17475.550667	1600.633789	3902.730957
2707.643989	17475.550667	1599.594727	4360.484863
2707.643989	17475.550667	1598.554688	4337.792480
2707.643989	17475.550667	1597.513672	4301.361816
2707.643989	17475.550667	1596.473633	4019.259033
2707.643989	17475.550667	1595.433594	4102.528320
2707.643989	17475.550667	1594.392578	4077.885498
2707.643989	17475.550667	1593.351563	4227.824707
2707.643989	17475.550667	1592.310547	4083.983154
2707.643989	17475.550667	1591.268555	4289.087402
2707.643989	17475.550667	1590.227539	4347.395996
2707.643989	17475.550667	1589.185547	4148.811035
2707.643989	17475.550667	1588.143555	4390.778809
2707.643989	17475.550667	1587.100586	4442.393066
2707.643989	17475.550667	1586.058594	4290.077148
2707.643989	17475.550667	1585.015625	4007.242432
2707.643989	17475.550667	1583.972656	4458.010254
2707.643989	17475.550667	1582.929688	4074.666504
2707.643989	17475.550667	1581.886719	4245.994141
2707.643989	17475.550667	1580.843750	3918.060059
2707.643989	17475.550667	1579.799805	3707.139160
2707.643989	17475.550667	1578.755859	3702.490723
2707.643989	17475.550667	1577.711914	4077.974854
2707.643989	17475.550667	1576.666992	3700.442871
2707.643989	17475.550667	1575.623047	3398.742676
2707.643989	17475.550667	1574.578125	3817.921143
2707.643989	17475.550667	1573.533203	3701.848145
2707.643989	17475.550667	1572.488281	3448.757080
2707.643989	17475.550667	1571.443359	3509.158691
2707.643989	17475.550667	1570.397461	3603.949707
2707.643989	17475.550667	1569.351563	3424.600830
2707.643989	17475.550667	1568.305664	3311.749756
2707.643989	17475.550667	1567.259766	3299.631836
2707.643989	17475.550667	1566.213867	3242.003906
2707.643989	17475.550667	1565.166992	3390.073730
2707.643989	17475.550667	1564.120117	3284.813477
2707.643989	17475.550667	1563.073242	3300.762695
2707.643989	17475.550667	1562.026367	3047.562988
2707.643989	17475.550667	1560.978516	2931.532715
2707.643989	17475.550667	1559.930664	3037.039063
2707.643989	17475.550667	1558.883789	2985.327637
2707.643989	17475.550667	1557.834961	3034.115967
2707.643989	17475.550667	1556.787109	2476.590576
2707.643989	17475.550667	1555.739258	2726.493408
2707.643989	17475.550667	1554.690430	2725.751221
2707.643989	17475.550667	1553.641602	2672.800781
2707.643989	17475.550667	1552.592773	2421.859131
2707.643989	17475.550667	1551.542969	2893.291260
2707.643989	17475.550667	1550.494141	2253.377441
2707.643989	17475.550667	1549.444336	2360.762939
2707.643989	17475.550667	1548.394531	2026.666138
2707.643989	17475.550667	1547.344727	1875.011475
2707.643989	17475.550667	1546.293945	1709.955688
2707.643989	17475.550667	1545.244141	1977.509399
2707.643989	17475.550667	1544.193359	1721.960205
2707.643989	17475.550667	1543.142578	1791.968994
2707.643989	17475.550667	1542.090820	1798.488159
2707.643989	17475.550667	1541.040039	1452.885742
2707.643989	17475.550667	1539.988281	1644.052979
2707.643989	17475.550667	1538.936523	1583.133667
2707.643989	17475.550667	1537.884766	1520.208374
2707.643989	17475.550667	1536.833008	1278.095825
2707.643989	17475.550667	1535.780273	1190.739990
2707.643989	17475.550667	1534.727539	1610.043701
2707.643989	17475.550667	1533.674805	1741.108765
2707.643989	17475.550667	1532.622070	1659.009644
2707.643989	17475.550667	1531.569336	1202.750488
2707.643989	17475.550667	1530.515625	1448.012817
2707.643989	17475.550667	1529.461914	1459.783813
2707.643989	17475.550667	1528.408203	1458.206421
2707.643989	17475.550667	1527.354492	1207.460327
2707.643989	17475.550667	1526.299805	1011.470154
2707.643989	17475.550667	1525.246094	922.387207
2707.643989	17475.550667	1524.191406	958.234680
2707.643989	17475.550667	1523.136719	944.494324
2707.643989	17475.550667	1522.081055	776.970581
2707.643989	17475.550667	1521.026367	131.918030
2707.643989	17475.550667	1519.970703	279.943878
2707.643989	17475.550667	1518.915039	430.460358
2707.643989	17475.550667	1517.859375	560.830688
2707.643989	17475.550667	1516.802734	202.581161
2707.643989	17475.550667	1515.747070	184.186234
2707.643989	17475.550667	1514.690430	430.751770
2707.643989	17475.550667	1513.633789	279.440491
2707.643989	17475.550667	1512.577148	390.798981
2707.643989	17475.550667	1511.519531	4.997501
2707.643989	17475.550667	1510.461914	229.967361
2707.643989	17475.550667	1509.405273	416.748047
2707.643989	17475.550667	1508.346680	346.133789
2707.643989	17475.550667	1507.289063	187.767075
2707.643989	17475.550667	1506.231445	93.011986
2707.643989	17475.550667	1505.172852	364.413391
2707.643989	17475.550667	1504.114258	374.119415
2707.643989	17475.550667	1503.055664	241.922531
2707.643989	17475.550667	1501.996094	-97.553452
2707.643989	17475.550667	1500.937500	217.794067
2707.643989	17475.550667	1499.877930	-224.682999
2707.643989	17475.550667	1498.818359	-172.711166
2707.643989	17475.550667	1497.757813	-66.331596
2707.643989	17475.550667	1496.698242	51.614422
2707.643989	17475.550667	1495.637695	97.690063
2707.643989	17475.550667	1494.577148	44.907719
2707.643989	17475.550667	1493.516602	-5.272457
2707.643989	17475.550667	1492.456055	32.754204
2707.643989	17475.550667	1491.394531	179.194336
2707.643989	17475.550667	1490.333008	461.023834
2707.643989	17475.550667	1489.271484	-17.928162
2707.643989	17475.550667	1488.209961	5.624576
2707.643989	17475.550667	1487.148438	157.784592
2707.643989	17475.550667	1486.085938	271.955261
2707.643989	17475.550667	1485.023438	152.448608
2707.643989	17475.550667	1483.960938	116.550735
2707.643989	17475.550667	1482.898438	272.160950
2707.643989	17475.550667	1481.834961	30.097790
2707.643989	17475.550667	1480.772461	76.238678
2707.643989	17475.550667	1479.708984	-376.178284
2707.643989	17475.550667	1478.644531	407.674835
2707.643989	17475.550667	1477.581055	230.147964
2707.643989	17475.550667	1476.517578	59.691059
2707.643989	17475.550667	1475.453125	89.565826
2707.643989	17475.550667	1474.388672	74.799583
2707.643989	17475.550667	1473.323242	268.965210
2707.643989	17475.550667	1472.258789	436.655334
2707.643989	17475.550667	1471.193359	135.753708
2707.643989	17475.550667	1470.127930	319.682648
2707.643989	17475.550667	1469.062500	6.057892
2707.643989	17475.550667	1467.997070	262.065399
2707.643989	17475.550667	1466.930664	265.613831
2707.643989	17475.550667	1465.865234	244.879593
2707.643989	17475.550667	1464.798828	212.738434
2707.643989	17475.550667	1463.731445	315.789276
2707.643989	17475.550667	1462.665039	342.579590
2707.643989	17475.550667	1461.597656	470.455658
2707.643989	17475.550667	1460.530273	692.565186
2707.643989	17475.550667	1459.462891	427.299011
2707.643989	17475.550667	1458.395508	527.377930
2707.643989	17475.550667	1457.327148	403.055054
2707.643989	17475.550667	1456.259766	299.442047
2707.643989	17475.550667	1455.191406	284.689819
2707.643989	17475.550667	1454.123047	310.107910
2707.643989	17475.550667	1453.053711	496.542419
2707.643989	17475.550667	1451.985352	66.192055
2707.643989	17475.550667	1450.916016	718.798157
2707.643989	17475.550667	1449.846680	475.356262
2707.643989	17475.550667	1448.776367	195.787949
2707.643989	17475.550667	1447.707031	197.632904
2707.643989	17475.550667	1446.636719	313.127136
2707.643989	17475.550667	1445.566406	194.085098
2707.643989	17475.550667	1444.496094	235.772202
2707.643989	17475.550667	1443.425781	244.981110
2707.643989	17475.550667	1442.354492	-80.597275
2707.643989	17475.550667	1441.283203	302.883270
2707.643989	17475.550667	1440.211914	184.432159
2707.643989	17475.550667	1439.140625	-114.433449
2707.643989	17475.550667	1438.069336	68.604385
2707.643989	17475.550667	1436.997070	401.228271
2707.643989	17475.550667	1435.924805	10.366629
2707.643989	17475.550667	1434.852539	-2.590440
2707.643989	17475.550667	1433.780273	-51.231377
2707.643989	17475.550667	1432.707031	-142.036438
2707.643989	17475.550667	1431.633789	144.692841
2707.643989	17475.550667	1430.560547	297.688232
2707.643989	17475.550667	1429.487305	137.767441
2707.643989	17475.550667	1428.413086	33.146694
2707.643989	17475.550667	1427.339844	-268.606323
2707.643989	17475.550667	1426.265625	-57.548443
2707.643989	17475.550667	1425.191406	215.403427
2707.643989	17475.550667	1424.116211	367.388550
2707.643989	17475.550667	1423.041992	339.257050
2707.643989	17475.550667	1421.966797	347.372589
2707.643989	17475.550667	1420.891602	347.361694
2707.643989	17475.550667	1419.816406	334.344574
2707.643989	17475.550667	1418.740234	485.387695
2707.643989	17475.550667	1417.665039	302.271484
2707.643989	17475.550667	1416.588867	435.001251
2707.643989	17475.550667	1415.512695	7.805355
2707.643989	17475.550667	1414.435547	392.913574
2707.643989	17475.550667	1413.359375	228.269684
2707.643989	17475.550667	1412.282227	630.186096
2707.643989	17475.550667	1411.205078	499.137848
2707.643989	17475.550667	1410.127930	290.365936
2707.643989	17475.550667	1409.049805	296.009766
2707.643989	17475.550667	1407.972656	489.841858
2707.643989	17475.550667	1406.894531	647.251831
2707.643989	17475.550667	1405.816406	521.318481
2707.643989	17475.550667	1404.737305	523.572998
2707.643989	17475.550667	1403.659180	756.947388
2707.643989	17475.550667	1402.580078	370.484100
2707.643989	17475.550667	1401.500977	437.360107
2707.643989	17475.550667	1400.421875	463.525238
2707.643989	17475.550667	1399.341797	725.162354
2707.643989	17475.550667	1398.262695	612.499146
2707.643989	17475.550667	1397.182617	599.932556
2707.643989	17475.550667	1396.102539	843.171143
2707.643989	17475.550667	1395.021484	332.037567
2707.643989	17475.550667	1393.941406	497.259094
2707.643989	17475.550667	1392.860352	536.238647
2707.643989	17475.550667	1391.779297	385.804688
2707.643989	17475.550667	1390.698242	711.154785
2707.643989	17475.550667	1389.616211	532.575867
2707.643989	17475.550667	1388.535156	812.260803
2707.643989	17475.550667	1387.453125	873.490356
2707.643989	17475.550667	1386.371094	1069.671509
2707.643989	17475.550667	1385.288086	743.299194
2707.643989	17475.550667	1384.206055	911.942871
2707.643989	17475.550667	1383.123047	644.928467
2707.643989	17475.550667	1382.040039	850.888245
2707.643989	17475.550667	1380.957031	956.892639
2707.643989	17475.550667	1379.873047	933.240540
2707.643989	17475.550667	1378.789063	950.641479
2707.643989	17475.550667	1377.705078	1237.972412
2707.643989	17475.550667	1376.621094	1035.571289
2707.643989	17475.550667	1375.537109	879.529785
2707.643989	17475.550667	1374.452148	910.218445
2707.643989	17475.550667	1373.367188	1042.159790
2707.643989	17475.550667	1372.282227	1200.086060
2707.643989	17475.550667	1371.197266	1003.547974
2707.643989	17475.550667	1370.112305	1063.945801
2707.643989	17475.550667	1369.026367	1137.608276
2707.643989	17475.550667	1367.940430	971.503662
2707.643989	17475.550667	1366.854492	769.366272
2707.643989	17475.550667	1365.767578	978.296814
2707.643989	17475.550667	1364.681641	784.681213
2707.643989	17475.550667	1363.594727	1150.518311
2707.643989	17475.550667	1362.507813	656.033142
2707.643989	17475.550667	1361.419922	1020.727722
2707.643989	17475.550667	1360.333008	1011.604919
2707.643989	17475.550667	1359.245117	907.552307
2707.643989	17475.550667	1358.157227	1165.916870
2707.643989	17475.550667	1357.069336	1032.875732
2707.643989	17475.550667	1355.981445	1214.655396
2707.643989	17475.550667	1354.892578	1305.811768
2707.643989	17475.550667	1353.803711	877.593079
2707.643989	17475.550667	1352.714844	1425.532104
2707.643989	17475.550667	1351.625000	1345.308838
2707.643989	17475.550667	1350.536133	1168.892334
2707.643989	17475.550667	1349.446289	1229.963379
2707.643989	17475.550667	1348.356445	1532.282471
2707.643989	17475.550667	1347.266602	1843.206543
2707.643989	17475.550667	1346.175781	1730.031738
2707.643989	17475.550667	1345.085938	1550.102051
2707.643989	17475.550667	1343.995117	1700.529663
2707.643989	17475.550667	1342.903320	1715.273926
2707.643989	17475.550667	1341.812500	1871.444824
2707.643989	17475.550667	1340.720703	1809.644409
2707.643989	17475.550667	1339.629883	1568.732056
2707.643989	17475.550667	1338.538086	1968.351318
2707.643989	17475.550667	1337.445313	1763.840088
2707.643989	17475.550667	1336.353516	1573.708862
2707.643989	17475.550667	1335.260742	1734.577271
2707.643989	17475.550667	1334.167969	2014.276978
2707.643989	17475.550667	1333.075195	1925.219604
2707.643989	17475.550667	1331.981445	1803.439819
2707.643989	17475.550667	1330.888672	1946.459961
2707.643989	17475.550667	1329.794922	1677.957886
2707.643989	17475.550667	1328.701172	2167.813477
2707.643989	17475.550667	1327.606445	2145.882080
2707.643989	17475.550667	1326.512695	2502.956543
2707.643989	17475.550667	1325.417969	2307.750977
2707.643989	17475.550667	1324.323242	2721.277100
2707.643989	17475.550667	1323.227539	2519.311279
2707.643989	17475.550667	1322.132813	2589.676025
2707.643989	17475.550667	1321.037109	2801.260254
2707.643989	17475.550667	1319.941406	2619.528809
2707.643989	17475.550667	1318.845703	2709.189453
2707.643989	17475.550667	1317.750000	2776.048096
2707.643989	17475.550667	1316.653320	2540.237549
2707.643989	17475.550667	1315.556641	2441.014160
2707.643989	17475.550667	1314.459961	2325.375488
2707.643989	17475.550667	1313.363281	2382.113281
2707.643989	17475.550667	1312.265625	2442.544434
2707.643989	17475.550667	1311.167969	2379.243652
2707.643989	17475.550667	1310.070313	2297.184082
2707.643989	17475.550667	1308.972656	2146.212891
2707.643989	17475.550667	1307.874023	1796.784180
2707.643989	17475.550667	1306.776367	2102.147217
2707.643989	17475.550667	1305.677734	1750.627197
2707.643989	17475.550667	1304.579102	1563.942261
2707.643989	17475.550667	1303.479492	1790.533081
2707.643989	17475.550667	1302.380859	1607.351563
2707.643989	17475.550667	1301.281250	1542.571045
2707.643989	17475.550667	1300.181641	1306.468018
2707.643989	17475.550667	1299.081055	1277.356567
2707.643989	17475.550667	1297.981445	1381.705078
2707.643989	17475.550667	1296.880859	1231.955688
2707.643989	17475.550667	1295.780273	1263.995483
2707.643989	17475.550667	1294.679688	1116.266846
2707.643989	17475.550667	1293.578125	1357.076660
2707.643989	17475.550667	1292.476563	1247.444580
2707.643989	17475.550667	1291.375000	1181.312866
2707.643989	17475.550667	1290.273438	1042.420898
2707.643989	17475.550667	1289.171875	1185.488525
2707.643989	17475.550667	1288.069336	1002.674683
2707.643989	17475.550667	1286.966797	835.424133
2707.643989	17475.550667	1285.864258	1040.665771
2707.643989	17475.550667	1284.761719	1040.947266
2707.643989	17475.550667	1283.658203	751.418396
2707.643989	17475.550667	1282.554688	886.632813
2707.643989	17475.550667	1281.451172	795.857361
2707.643989	17475.550667	1280.347656	787.426941
2707.643989	17475.550667	1279.244141	895.867981
2707.643989	17475.550667	1278.139648	1008.566711
2707.643989	17475.550667	1277.035156	1398.924316
2707.643989	17475.550667	1275.930664	1054.707397
2707.643989	17475.550667	1274.825195	1255.407837
2707.643989	17475.550667	1273.720703	1468.174194
2707.643989	17475.550667	1272.615234	1671.674438
2707.643989	17475.550667	1271.508789	1733.019409
2707.643989	17475.550667	1270.403320	1658.521240
2707.643989	17475.550667	1269.297852	1720.699097
2707.643989	17475.550667	1268.191406	1628.765991
2707.643989	17475.550667	1267.084961	1758.806152
2707.643989	17475.550667	1265.977539	1662.065674
2707.643989	17475.550667	1264.871094	1730.594849
2707.643989	17475.550667	1263.763672	1936.298706
2707.643989	17475.550667	1262.656250	1813.777344
2707.643989	17475.550667	1261.548828	1652.527710
2707.643989	17475.550667	1260.440430	1623.495361
2707.643989	17475.550667	1259.333008	1399.425537
2707.643989	17475.550667	1258.224609	1481.823486
2707.643989	17475.550667	1257.115234	1187.623901
2707.643989	17475.550667	1256.006836	1309.970337
2707.643989	17475.550667	1254.897461	987.311340
2707.643989	17475.550667	1253.788086	1115.899048
2707.643989	17475.550667	1252.678711	984.890930
2707.643989	17475.550667	1251.569336	857.565491
2707.643989	17475.550667	1250.458984	642.473755
2707.643989	17475.550667	1249.349609	738.757446
2707.643989	17475.550667	1248.239258	882.203064
2707.643989	17475.550667	1247.127930	681.001404
2707.643989	17475.550667	1246.017578	600.838928
2707.643989	17475.550667	1244.906250	643.664368
2707.643989	17475.550667	1243.794922	748.067749
2707.643989	17475.550667	1242.683594	630.523010
2707.643989	17475.550667	1241.571289	650.938660
2707.643989	17475.550667	1240.459961	753.480042
2707.643989	17475.550667	1239.347656	467.513733
2707.643989	17475.550667	1238.234375	488.910034
2707.643989	17475.550667	1237.122070	850.832520
2707.643989	17475.550667	1236.008789	694.813599
2707.643989	17475.550667	1234.896484	586.444763
2707.643989	17475.550667	1233.782227	371.809875
2707.643989	17475.550667	1232.668945	482.550446
2707.643989	17475.550667	1231.555664	446.244843
2707.643989	17475.550667	1230.441406	547.322937
2707.643989	17475.550667	1229.327148	636.418152
2707.643989	17475.550667	1228.211914	670.505249
2707.643989	17475.550667	1227.097656	482.533630
2707.643989	17475.550667	1225.982422	392.236359
2707.643989	17475.550667	1224.867188	367.321411
2707.643989	17475.550667	1223.751953	525.132019
2707.643989	17475.550667	1222.635742	594.724792
2707.643989	17475.550667	1221.520508	378.332916
2707.643989	17475.550667	1220.404297	430.712463
2707.643989	17475.550667	1219.287109	455.761322
2707.643989	17475.550667	1218.170898	425.422119
2707.643989	17475.550667	1217.053711	556.548218
2707.643989	17475.550667	1215.936523	402.521973
2707.643989	17475.550667	1214.819336	453.358704
2707.643989	17475.550667	1213.702148	475.442841
2707.643989	17475.550667	1212.583984	666.568787
2707.643989	17475.550667	1211.465820	694.992188
2707.643989	17475.550667	1210.347656	694.236328
2707.643989	17475.550667	1209.229492	894.420105
2707.643989	17475.550667	1208.110352	889.405945
2707.643989	17475.550667	1206.992188	877.505371
2707.643989	17475.550667	1205.873047	835.005920
2707.643989	17475.550667	1204.752930	1042.454224
2707.643989	17475.550667	1203.633789	1320.789063
2707.643989	17475.550667	1202.513672	1288.295654
2707.643989	17475.550667	1201.393555	1280.246460
2707.643989	17475.550667	1200.273438	1560.598145
2707.643989	17475.550667	1199.152344	1555.212891
2707.643989	17475.550667	1198.032227	1234.553955
2707.643989	17475.550667	1196.911133	1065.995605
2707.643989	17475.550667	1195.790039	815.421936
2707.643989	17475.550667	1194.667969	965.606689
2707.643989	17475.550667	1193.545898	839.826843
2707.643989	17475.550667	1192.424805	731.547241
2707.643989	17475.550667	1191.301758	592.451599
2707.643989	17475.550667	1190.179688	411.358459
2707.643989	17475.550667	1189.056641	505.587860
2707.643989	17475.550667	1187.933594	528.694763
2707.643989	17475.550667	1186.810547	572.214478
2707.643989	17475.550667	1185.687500	395.729340
2707.643989	17475.550667	1184.563477	661.269897
2707.643989	17475.550667	1183.440430	746.890686
2707.643989	17475.550667	1182.316406	820.893005
2707.643989	17475.550667	1181.191406	815.378296
2707.643989	17475.550667	1180.067383	840.772888
2707.643989	17475.550667	1178.942383	803.209473
2707.643989	17475.550667	1177.817383	845.498169
2707.643989	17475.550667	1176.692383	776.408875
2707.643989	17475.550667	1175.566406	671.125732
2707.643989	17475.550667	1174.440430	818.896851
2707.643989	17475.550667	1173.314453	832.849548
2707.643989	17475.550667	1172.188477	761.072327
2707.643989	17475.550667	1171.062500	490.360443
2707.643989	17475.550667	1169.935547	370.768738
2707.643989	17475.550667	1168.808594	481.518616
2707.643989	17475.550667	1167.681641	161.973984
2707.643989	17475.550667	1166.553711	259.792664
2707.643989	17475.550667	1165.426758	205.369629
2707.643989	17475.550667	1164.298828	174.588257
2707.643989	17475.550667	1163.170898	-39.206112
2707.643989	17475.550667	1162.041992	73.313866
2707.643989	17475.550667	1160.914063	-43.281837
2707.643989	17475.550667	1159.785156	-119.948753
2707.643989	17475.550667	1158.656250	-30.026400
2707.643989	17475.550667	1157.526367	-84.264130
2707.643989	17475.550667	1156.397461	-46.506691
2707.643989	17475.550667	1155.267578	65.078354
2707.643989	17475.550667	1154.137695	-112.826332
2707.643989	17475.550667	1153.006836	-97.017487
2707.643989	17475.550667	1151.876953	-63.463547
2707.643989	17475.550667	1150.746094	82.957832
2707.643989	17475.550667	1149.615234	49.935860
2707.643989	17475.550667	1148.484375	136.295761
2707.643989	17475.550667	1147.352539	62.478439
2707.643989	17475.550667	1146.220703	7.482244
2707.643989	17475.550667	1145.088867	-99.486671
2707.643989	17475.550667	1143.957031	-79.046356
2707.643989	17475.550667	1142.825195	-70.668335
2707.643989	17475.550667	1141.692383	-63.316673
2707.643989	17475.550667	1140.559570	-244.406158
2707.643989	17475.550667	1139.426758	-1.650431
2707.643989	17475.550667	1138.292969	-5.428030
2707.643989	17475.550667	1137.159180	60.155407
2707.643989	17475.550667	1136.025391	-104.506256
2707.643989	17475.550667	1134.891602	68.223045
2707.643989	17475.550667	1133.757813	117.821205
2707.643989	17475.550667	1132.623047	15.957826
2707.643989	17475.550667	1131.488281	61.600483
2707.643989	17475.550667	1130.353516	64.752541
2707.643989	17475.550667	1129.217773	243.321457
2707.643989	17475.550667	1128.083008	125.519913
2707.643989	17475.550667	1126.947266	395.985504
2707.643989	17475.550667	1125.811523	473.966034
2707.643989	17475.550667	1124.674805	539.432861
2707.643989	17475.550667	1123.539063	447.926331
2707.643989	17475.550667	1122.402344	472.571014
2707.643989	17475.550667	1121.265625	516.326477
2707.643989	17475.550667	1120.127930	397.112701
2707.643989	17475.550667	1118.990234	653.864258
2707.643989	17475.550667	1117.853516	767.787842
2707.643989	17475.550667	1116.714844	1018.262207
2707.643989	17475.550667	1115.577148	817.087891
2707.643989	17475.550667	1114.439453	817.112427
2707.643989	17475.550667	1113.300781	1011.430603
2707.643989	17475.550667	1112.162109	950.419617
2707.643989	17475.550667	1111.022461	1163.349854
2707.643989	17475.550667	1109.883789	844.099976
2707.643989	17475.550667	1108.744141	1078.216675
2707.643989	17475.550667	1107.604492	1169.083618
2707.643989	17475.550667	1106.463867	1176.894409
2707.643989	17475.550667	1105.324219	999.668091
2707.643989	17475.550667	1104.183594	1135.359985
2707.643989	17475.550667	1103.042969	814.975708
2707.643989	17475.550667	1101.902344	857.298706
2707.643989	17475.550667	1100.760742	699.904602
2707.643989	17475.550667	1099.619141	699.065247
2707.643989	17475.550667	1098.477539	638.200806
2707.643989	17475.550667	1097.335938	619.004822
2707.643989	17475.550667	1096.193359	711.179321
2707.643989	17475.550667	1095.051758	495.117584
2707.643989	17475.550667	1093.909180	665.547607
2707.643989	17475.550667	1092.765625	544.631226
2707.643989	17475.550667	1091.623047	500.411346
2707.643989	17475.550667	1090.479492	458.230194
2707.643989	17475.550667	1089.335938	545.753967
2707.643989	17475.550667	1088.192383	399.354187
2707.643989	17475.550667	1087.047852	621.778625
2707.643989	17475.550667	1085.903320	544.934265
2707.643989	17475.550667	1084.758789	572.991516
2707.643989	17475.550667	1083.614258	493.767273
2707.643989	17475.550667	1082.469727	574.734680
2707.643989	17475.550667	1081.324219	528.605652
2707.643989	17475.550667	1080.178711	546.456177
2707.643989	17475.550667	1079.033203	570.622681
2707.643989	17475.550667	1077.886719	557.927979
2707.643989	17475.550667	1076.740234	532.331421
2707.643989	17475.550667	1075.593750	526.790710
2707.643989	17475.550667	1074.447266	592.410034
2707.643989	17475.550667	1073.300781	755.607910
2707.643989	17475.550667	1072.153320	573.151917
2707.643989	17475.550667	1071.005859	517.162354
2707.643989	17475.550667	1069.858398	749.034546
2707.643989	17475.550667	1068.709961	561.199463
2707.643989	17475.550667	1067.561523	1074.961792
2707.643989	17475.550667	1066.413086	1103.457031
2707.643989	17475.550667	1065.264648	986.676331
2707.643989	17475.550667	1064.116211	926.944641
2707.643989	17475.550667	1062.966797	966.086914
2707.643989	17475.550667	1061.817383	552.000366
2707.643989	17475.550667	1060.667969	604.146912
2707.643989	17475.550667	1059.517578	310.882263
2707.643989	17475.550667	1058.368164	627.683167
2707.643989	17475.550667	1057.217773	268.970917
2707.643989	17475.550667	1056.067383	73.840965
2707.643989	17475.550667	1054.916016	185.154327
2707.643989	17475.550667	1053.764648	276.424774
2707.643989	17475.550667	1052.613281	317.293976
2707.643989	17475.550667	1051.461914	278.540314
2707.643989	17475.550667	1050.310547	377.998901
2707.643989	17475.550667	1049.158203	266.502686
2707.643989	17475.550667	1048.005859	334.882721
2707.643989	17475.550667	1046.853516	307.843262
2707.643989	17475.550667	1045.700195	256.048950
2707.643989	17475.550667	1044.547852	557.181641
2707.643989	17475.550667	1043.394531	392.532227
2707.643989	17475.550667	1042.240234	295.001892
2707.643989	17475.550667	1041.086914	142.263596
2707.643989	17475.550667	1039.932617	726.103577
2707.643989	17475.550667	1038.778320	607.203796
2707.643989	17475.550667	1037.624023	890.245117
2707.643989	17475.550667	1036.469727	874.609741
2707.643989	17475.550667	1035.314453	1088.865479
2707.643989	17475.550667	1034.159180	1326.046387
2707.643989	17475.550667	1033.003906	1809.476074
2707.643989	17475.550667	1031.847656	1741.323608
2707.643989	17475.550667	1030.692383	1962.622070
2707.643989	17475.550667	1029.536133	2002.637695
2707.643989	17475.550667	1028.378906	2145.791260
2707.643989	17475.550667	1027.222656	2361.235840
2707.643989	17475.550667	1026.065430	2730.731201
2707.643989	17475.550667	1024.908203	2723.008057
2707.643989	17475.550667	1023.750977	2993.786377
2707.643989	17475.550667	1022.593750	3134.716064
2707.643989	17475.550667	1021.435547	2912.781494
2707.643989	17475.550667	1020.277344	3023.940430
2707.643989	17475.550667	1019.119141	3202.989258
2707.643989	17475.550667	1017.959961	3029.618896
2707.643989	17475.550667	1016.800781	2922.797607
2707.643989	17475.550667	1015.641602	2747.470215
2707.643989	17475.550667	1014.482422	2134.280518
2707.643989	17475.550667	1013.323242	1956.601196
2707.643989	17475.550667	1012.163086	1915.189331
2707.643989	17475.550667	1011.002930	1776.648193
2707.643989	17475.550667	1009.842773	1314.262573
2707.643989	17475.550667	1008.681641	1391.037109
2707.643989	17475.550667	1007.520508	1337.596924
2707.643989	17475.550667	1006.359375	1263.635010
2707.643989	17475.550667	1005.198242	1264.955688
2707.643989	17475.550667	1004.037109	929.761841
2707.643989	17475.550667	1002.875000	848.860291
2707.643989	17475.550667	1001.712891	917.597412
2707.643989	17475.550667	1000.550781	902.824524
2707.643989	17475.550667	999.387695	660.553406
2707.643989	17475.550667	998.224609	709.060364
2707.643989	17475.550667	997.061523	571.546326
2707.643989	17475.550667	995.898438	425.413269
2707.643989	17475.550667	994.734375	228.100357
2707.643989	17475.550667	993.571289	367.458710
2707.643989	17475.550667	992.407227	412.007477
2707.643989	17475.550667	991.242188	110.806602
2707.643989	17475.550667	990.078125	344.211700
2707.643989	17475.550667	988.913086	180.782410
2707.643989	17475.550667	987.748047	280.852661
2707.643989	17475.550667	986.583008	72.601837
2707.643989	17475.550667	985.416992	20.458654
2707.643989	17475.550667	984.250977	-79.242691
2707.643989	17475.550667	983.084961	-262.461487
2707.643989	17475.550667	981.918945	-8.514399
2707.643989	17475.550667	980.751953	53.300369
2707.643989	17475.550667	979.584961	-46.930683
2707.643989	17475.550667	978.417969	-241.516449
2707.643989	17475.550667	977.250977	-356.564636
2707.643989	17475.550667	976.083008	-19.928402
2707.643989	17475.550667	974.915039	-189.788528
2707.643989	17475.550667	973.747070	112.108574
2707.643989	17475.550667	972.579102	61.123951
2707.643989	17475.550667	971.410156	318.464722
2707.643989	17475.550667	970.242188	-9.817557
2707.643989	17475.550667	969.072266	211.863754
2707.643989	17475.550667	967.903320	116.030785
2707.643989	17475.550667	966.733398	197.957123
2707.643989	17475.550667	965.563477	350.696899
2707.643989	17475.550667	964.393555	319.782959
2707.643989	17475.550667	963.223633	520.175903
2707.643989	17475.550667	962.052734	588.017944
2707.643989	17475.550667	960.881836	442.853607
2707.643989	17475.550667	959.710938	533.907166
2707.643989	17475.550667	958.540039	740.961426
2707.643989	17475.550667	957.368164	652.728699
2707.643989	17475.550667	956.196289	549.077942
2707.643989	17475.550667	955.024414	338.706055
2707.643989	17475.550667	953.851563	365.616119
2707.643989	17475.550667	952.679688	441.609314
2707.643989	17475.550667	951.506836	131.541809
2707.643989	17475.550667	950.333984	217.046432
2707.643989	17475.550667	949.160156	130.505005
2707.643989	17475.550667	947.986328	310.771118
2707.643989	17475.550667	946.812500	-99.700569
2707.643989	17475.550667	945.638672	-82.385094
2707.643989	17475.550667	944.464844	16.113571
2707.643989	17475.550667	943.290039	20.911377
2707.643989	17475.550667	942.115234	89.801537
2707.643989	17475.550667	940.940430	72.902710
2707.643989	17475.550667	939.764648	-6.319670
2707.643989	17475.550667	938.588867	27.607365
2707.643989	17475.550667	937.413086	-12.627246
2707.643989	17475.550667	936.237305	151.153702
2707.643989	17475.550667	935.060547	149.101044
2707.643989	17475.550667	933.883789	151.656555
2707.643989	17475.550667	932.707031	151.462250
2707.643989	17475.550667	931.530273	122.224579
2707.643989	17475.550667	930.352539	132.498520
2707.643989	17475.550667	929.175781	94.812950
2707.643989	17475.550667	927.998047	239.374039
2707.643989	17475.550667	926.819336	109.390091
2707.643989	17475.550667	925.641602	226.630280
2707.643989	17475.550667	924.462891	337.556519
2707.643989	17475.550667	923.284180	262.050079
2707.643989	17475.550667	922.104492	276.605194
2707.643989	17475.550667	920.924805	540.265259
2707.643989	17475.550667	919.746094	545.862854
2707.643989	17475.550667	919.551758	490.792847
2707.643989	17475.550667	918.386719	595.190735
2707.643989	17475.550667	917.220703	649.329285
2707.643989	17475.550667	916.054688	404.328003
2707.643989	17475.550667	914.887695	134.327393
2707.643989	17475.550667	913.721680	203.135712
2707.643989	17475.550667	912.554688	4.343332
2707.643989	17475.550667	911.387695	20.892008
2707.643989	17475.550667	910.220703	-108.836357
2707.643989	17475.550667	909.052734	-196.730698
2707.643989	17475.550667	907.885742	-175.984711
2707.643989	17475.550667	906.717773	-63.359741
2707.643989	17475.550667	905.548828	235.037735
2707.643989	17475.550667	904.380859	218.113586
2707.643989	17475.550667	903.211914	123.983345
2707.643989	17475.550667	902.042969	192.643356
2707.643989	17475.550667	900.874023	177.832794
2707.643989	17475.550667	899.704102	357.008240
2707.643989	17475.550667	898.535156	198.296219
2707.643989	17475.550667	897.365234	100.118752
2707.643989	17475.550667	896.194336	312.572388
2707.643989	17475.550667	895.024414	58.125305
2707.643989	17475.550667	893.853516	-25.353184
2707.643989	17475.550667	892.682617	141.189713
2707.643989	17475.550667	891.511719	74.409012
2707.643989	17475.550667	890.340820	209.649170
2707.643989	17475.550667	889.168945	26.321714
2707.643989	17475.550667	887.997070	294.754730
2707.643989	17475.550667	886.825195	203.073853
2707.643989	17475.550667	885.653320	207.148819
2707.643989	17475.550667	884.480469	240.363800
2707.643989	17475.550667	883.307617	194.548676
2707.643989	17475.550667	882.134766	55.196167
2707.643989	17475.550667	880.961914	159.146652
2707.643989	17475.550667	879.788086	323.352570
2707.643989	17475.550667	878.614258	38.645672
2707.643989	17475.550667	877.440430	57.405277
2707.643989	17475.550667	876.266602	121.874001
2707.643989	17475.550667	875.091797	65.883179
2707.643989	17475.550667	873.916992	-259.991486
2707.643989	17475.550667	872.742188	151.238617
2707.643989	17475.550667	871.567383	-415.242584
2707.643989	17475.550667	870.391602	-33.158478
2707.643989	17475.550667	869.215820	-298.503845
2707.643989	17475.550667	868.040039	-36.868263
2707.643989	17475.550667	866.864258	-200.448792
2707.643989	17475.550667	865.687500	-36.343876
2707.643989	17475.550667	864.510742	84.180092
2707.643989	17475.550667	863.333984	119.701378
2707.643989	17475.550667	862.157227	-18.828728
2707.643989	17475.550667	860.979492	10.530354
2707.643989	17475.550667	859.802734	242.874283
2707.643989	17475.550667	858.625000	210.082138
2707.643989	17475.550667	857.446289	268.425476
2707.643989	17475.550667	856.268555	450.960724
2707.643989	17475.550667	855.089844	308.523987
2707.643989	17475.550667	853.911133	85.471581
2707.643989	17475.550667	852.731445	-122.984543
2707.643989	17475.550667	851.552734	-33.506920
2707.643989	17475.550667	850.373047	-47.433228
2707.643989	17475.550667	849.193359	68.912941
2707.643989	17475.550667	848.013672	32.271626
2707.643989	17475.550667	846.833008	-188.254608
2707.643989	17475.550667	845.652344	25.223415
2707.643989	17475.550667	844.471680	3.137059
2707.643989	17475.550667	843.291016	28.579767
2707.643989	17475.550667	842.110352	-92.575745
2707.643989	17475.550667	840.928711	85.689049
2707.643989	17475.550667	839.747070	20.341232
2707.643989	17475.550667	838.564453	-88.294060
2707.643989	17475.550667	837.382813	203.387527
2707.643989	17475.550667	836.200195	-226.998535
2707.643989	17475.550667	835.017578	-135.418915
2707.643989	17475.550667	833.834961	48.922764
2707.643989	17475.550667	832.651367	60.044907
2707.643989	17475.550667	831.467773	-89.585663
2707.643989	17475.550667	830.284180	-193.809387
2707.643989	17475.550667	829.100586	27.539110
2707.643989	17475.550667	827.916992	-78.699005
2707.643989	17475.550667	826.732422	-65.433136
2707.643989	17475.550667	825.547852	17.842403
2707.643989	17475.550667	824.363281	-141.810608
2707.643989	17475.550667	823.177734	-171.723495
2707.643989	17475.550667	821.992188	-69.923889
2707.643989	17475.550667	820.806641	-227.371567
2707.643989	17475.550667	819.621094	-41.258774
2707.643989	17475.550667	818.434570	48.137764
2707.643989	17475.550667	817.249023	271.136505
2707.643989	17475.550667	816.062500	438.553894
2707.643989	17475.550667	814.875000	194.885147
2707.643989	17475.550667	813.688477	384.856812
2707.643989	17475.550667	812.500977	469.988403
2707.643989	17475.550667	811.313477	655.724731
2707.643989	17475.550667	810.125977	633.986694
2707.643989	17475.550667	808.937500	653.323364
2707.643989	17475.550667	807.749023	321.656189
2707.643989	17475.550667	806.560547	482.640228
2707.643989	17475.550667	805.372070	300.915009
2707.643989	17475.550667	804.182617	86.443680
2707.643989	17475.550667	802.994141	62.778820
2707.643989	17475.550667	801.803711	-8.033469
2707.643989	17475.550667	800.614258	79.020790
2707.643989	17475.550667	799.424805	106.590225
2707.643989	17475.550667	798.234375	-95.367989
2707.643989	17475.550667	797.043945	46.936398
2707.643989	17475.550667	795.852539	29.401886
2707.643989	17475.550667	794.662109	-20.913126
2707.643989	17475.550667	793.470703	108.957588
2707.643989	17475.550667	792.279297	265.370636
2707.643989	17475.550667	791.087891	214.984818
2707.643989	17475.550667	789.895508	383.551910
2707.643989	17475.550667	788.703125	605.213684
2707.643989	17475.550667	787.510742	720.400330
2707.643989	17475.550667	786.318359	502.188507
2707.643989	17475.550667	785.125000	173.640396
2707.643989	17475.550667	783.931641	65.960266
2707.643989	17475.550667	782.738281	-190.892487
2707.643989	17475.550667	781.544922	52.924339
2707.643989	17475.550667	780.350586	104.584084
2707.643989	17475.550667	779.156250	-21.499975
2707.643989	17475.550667	777.961914	234.279922
2707.643989	17475.550667	776.767578	214.304962
2707.643989	17475.550667	775.572266	33.052990
2707.643989	17475.550667	774.376953	92.638489
2707.643989	17475.550667	773.181641	272.530487
2707.643989	17475.550667	771.986328	348.270264
2707.643989	17475.550667	770.790039	-77.764153
2707.643989	17475.550667	769.593750	32.588669
2707.643989	17475.550667	768.397461	159.153168
2707.643989	17475.550667	767.201172	187.779144
2707.643989	17475.550667	766.003906	214.307297
2707.643989	17475.550667	764.806641	151.125717
2707.643989	17475.550667	763.609375	222.345932
2707.643989	17475.550667	762.412109	110.196571
2707.643989	17475.550667	761.213867	319.729034
2707.643989	17475.550667	760.015625	394.761230
2707.643989	17475.550667	758.817383	380.146790
2707.643989	17475.550667	757.618164	231.181061
2707.643989	17475.550667	756.419922	155.439697
2707.643989	17475.550667	755.220703	409.157623
2707.643989	17475.550667	754.021484	666.762390
2707.643989	17475.550667	752.821289	485.047089
2707.643989	17475.550667	751.621094	380.570221
2707.643989	17475.550667	750.420898	759.726318
2707.643989	17475.550667	749.220703	679.456909
2707.643989	17475.550667	748.020508	680.392883
2707.643989	17475.550667	746.819336	557.358154
2707.643989	17475.550667	745.618164	978.470154
2707.643989	17475.550667	744.416992	999.385071
2707.643989	17475.550667	743.214844	922.780273
2707.643989	17475.550667	742.012695	1016.572083
2707.643989	17475.550667	740.810547	1171.094482
2707.643989	17475.550667	739.608398	1242.289063
2707.643989	17475.550667	738.406250	1353.915283
2707.643989	17475.550667	737.203125	1952.013550
2707.643989	17475.550667	736.000000	2203.115723
2707.643989	17475.550667	734.795898	3086.347900
2707.643989	17475.550667	733.592773	3342.973633
2707.643989	17475.550667	732.388672	3735.121582
2707.643989	17475.550667	731.184570	3547.712891
2707.643989	17475.550667	729.979492	3374.447266
2707.643989	17475.550667	728.775391	2806.339111
2707.643989	17475.550667	727.570313	2181.676514
2707.643989	17475.550667	726.365234	1802.029541
2707.643989	17475.550667	725.160156	1503.353149
2707.643989	17475.550667	723.954102	1364.489136
2707.643989	17475.550667	722.748047	1332.750000
2707.643989	17475.550667	721.541992	1149.243042
2707.643989	17475.550667	720.334961	921.208313
2707.643989	17475.550667	719.128906	866.958923
2707.643989	17475.550667	717.921875	1006.597717
2707.643989	17475.550667	716.714844	968.250122
2707.643989	17475.550667	715.506836	828.784668
2707.643989	17475.550667	714.298828	1002.266357
2707.643989	17475.550667	713.090820	955.449219
2707.643989	17475.550667	711.882813	589.558105
2707.643989	17475.550667	710.674805	774.659485
2707.643989	17475.550667	709.465820	777.931946
2707.643989	17475.550667	708.256836	746.757507
2707.643989	17475.550667	707.047852	979.671631
2707.643989	17475.550667	705.837891	915.899414
2707.643989	17475.550667	704.627930	815.710022
2707.643989	17475.550667	703.417969	558.179871
2707.643989	17475.550667	702.208008	1007.967529
2707.643989	17475.550667	700.998047	645.413025
2707.643989	17475.550667	699.787109	689.768250
2707.643989	17475.550667	698.576172	719.842285
2707.643989	17475.550667	697.364258	1017.546997
2707.643989	17475.550667	696.153320	817.705994
2707.643989	17475.550667	694.941406	1010.265686
2707.643989	17475.550667	693.729492	1146.229004
2707.643989	17475.550667	692.516602	1135.093262
2707.643989	17475.550667	691.304688	1001.087769
2707.643989	17475.550667	690.091797	1333.528687
2707.643989	17475.550667	688.878906	1392.207031
2707.643989	17475.550667	687.665039	1519.027710
2707.643989	17475.550667	686.451172	1502.918579
2707.643989	17475.550667	685.237305	1303.782471
2707.643989	17475.550667	684.023438	1259.235352
2707.643989	17475.550667	682.809570	1501.742798
2707.643989	17475.550667	681.594727	1219.843872
2707.643989	17475.550667	680.379883	1363.506470
2707.643989	17475.550667	679.165039	1384.475342
2707.643989	17475.550667	677.949219	1254.730957
2707.643989	17475.550667	676.733398	1335.522705
2707.643989	17475.550667	675.517578	1460.220703
2707.643989	17475.550667	674.301758	1558.599243
2707.643989	17475.550667	673.084961	1594.579468
2707.643989	17475.550667	671.869141	1425.870483
2707.643989	17475.550667	670.651367	1806.204468
2707.643989	17475.550667	669.434570	1897.626831
2707.643989	17475.550667	668.216797	1942.728149
2707.643989	17475.550667	667.000000	2023.668457
2707.643989	17475.550667	665.781250	2004.234497
2707.643989	17475.550667	664.563477	1958.581299
2707.643989	17475.550667	663.344727	1822.661743
2707.643989	17475.550667	662.125977	2112.882080
2707.643989	17475.550667	660.907227	1808.499634
2707.643989	17475.550667	659.688477	1974.160156
2707.643989	17475.550667	658.468750	1877.527710
2707.643989	17475.550667	657.249023	1770.731812
2707.643989	17475.550667	656.029297	1889.686035
2707.643989	17475.550667	654.808594	1858.466309
2707.643989	17475.550667	653.587891	1569.259521
2707.643989	17475.550667	652.367188	1631.608154
2707.643989	17475.550667	651.146484	1619.812988
2707.643989	17475.550667	649.924805	1342.187378
2707.643989	17475.550667	648.704102	1475.796997
2707.643989	17475.550667	647.482422	1589.171509
2707.643989	17475.550667	646.259766	1444.814087
2707.643989	17475.550667	645.037109	1691.413208
2707.643989	17475.550667	643.815430	1622.492065
2707.643989	17475.550667	642.591797	1401.786377
2707.643989	17475.550667	641.369141	1264.724609
2707.643989	17475.550667	640.145508	1432.547852
2707.643989	17475.550667	638.921875	1504.408203
2707.643989	17475.550667	637.698242	1550.120605
2707.643989	17475.550667	636.474609	1617.521484
2707.643989	17475.550667	635.250000	1377.897461
2707.643989	17475.550667	634.025391	1538.486084
2707.643989	17475.550667	632.800781	1603.219238
2707.643989	17475.550667	631.575195	1518.397461
2707.643989	17475.550667	630.349609	1678.219360
2707.643989	17475.550667	629.124023	1865.623291
2707.643989	17475.550667	627.898438	1459.863892
2707.643989	17475.550667	626.671875	1515.534180
2707.643989	17475.550667	625.445313	1429.776978
2707.643989	17475.550667	624.218750	1192.745850
2707.643989	17475.550667	622.992188	1210.054932
2707.643989	17475.550667	621.764648	1435.820313
2707.643989	17475.550667	620.537109	1087.048950
2707.643989	17475.550667	619.309570	1077.927979
2707.643989	17475.550667	618.081055	977.238770
2707.643989	17475.550667	616.852539	943.909241
2707.643989	17475.550667	615.624023	828.997437
2707.643989	17475.550667	614.395508	755.624084
2707.643989	17475.550667	613.166992	751.542603
2707.643989	17475.550667	611.937500	796.860413
2707.643989	17475.550667	610.708008	746.754517
2707.643989	17475.550667	609.477539	724.234314
2707.643989	17475.550667	608.248047	586.543884
2707.643989	17475.550667	607.017578	438.804047
2707.643989	17475.550667	605.787109	481.210144
2707.643989	17475.550667	604.555664	305.435486
2707.643989	17475.550667	603.325195	410.883667
2707.643989	17475.550667	602.093750	248.703888
2707.643989	17475.550667	600.861328	565.626526
2707.643989	17475.550667	599.629883	428.872620
2707.643989	17475.550667	598.397461	460.241150
2707.643989	17475.550667	597.165039	525.069580
2707.643989	17475.550667	595.932617	593.661194
2707.643989	17475.550667	594.699219	517.639954
2707.643989	17475.550667	593.465820	615.529419
2707.643989	17475.550667	592.232422	349.392853
2707.643989	17475.550667	590.999023	850.242798
2707.643989	17475.550667	589.764648	698.480286
2707.643989	17475.550667	588.530273	769.922668
2707.643989	17475.550667	587.295898	402.598328
2707.643989	17475.550667	586.061523	481.680145
2707.643989	17475.550667	584.826172	507.252625
2707.643989	17475.550667	583.590820	607.698303
2707.643989	17475.550667	582.355469	514.520325
2707.643989	17475.550667	581.119141	444.916351
2707.643989	17475.550667	579.882813	195.658081
2707.643989	17475.550667	578.646484	488.866089
2707.643989	17475.550667	577.410156	231.567291
2707.643989	17475.550667	576.172852	419.877167
2707.643989	17475.550667	574.935547	361.562195
2707.643989	17475.550667	573.698242	514.055603
2707.643989	17475.550667	572.460938	757.021362
2707.643989	17475.550667	571.222656	576.180359
2707.643989	17475.550667	569.984375	562.738953
2707.643989	17475.550667	568.746094	547.238159
2707.643989	17475.550667	567.506836	775.775879
2707.643989	17475.550667	566.267578	702.949463
2707.643989	17475.550667	565.028320	393.899719
2707.643989	17475.550667	563.789063	647.644409
2707.643989	17475.550667	562.548828	521.513733
2707.643989	17475.550667	561.309570	452.414307
2707.643989	17475.550667	560.068359	349.814880
2707.643989	17475.550667	558.828125	335.677124
2707.643989	17475.550667	557.586914	305.743256
2707.643989	17475.550667	556.345703	381.881073
2707.643989	17475.550667	555.104492	565.989563
2707.643989	17475.550667	553.863281	123.372017
2707.643989	17475.550667	552.621094	334.843048
2707.643989	17475.550667	551.378906	255.597015
2707.643989	17475.550667	550.136719	276.462677
2707.643989	17475.550667	548.893555	277.647339
2707.643989	17475.550667	547.650391	392.611115
2707.643989	17475.550667	546.407227	589.899658
2707.643989	17475.550667	545.164063	237.912277
2707.643989	17475.550667	543.919922	295.879730
2707.643989	17475.550667	542.675781	106.793587
2707.643989	17475.550667	541.431641	221.596100
2707.643989	17475.550667	540.186523	5.154928
2707.643989	17475.550667	538.941406	84.656967
2707.643989	17475.550667	537.696289	89.702751
2707.643989	17475.550667	536.451172	218.142822
2707.643989	17475.550667	535.205078	424.850830
2707.643989	17475.550667	533.959961	61.867523
2707.643989	17475.550667	532.712891	149.177292
2707.643989	17475.550667	531.466797	42.789833
2707.643989	17475.550667	530.219727	85.150932
2707.643989	17475.550667	528.972656	-187.355362
2707.643989	17475.550667	527.725586	-123.355034
2707.643989	17475.550667	526.478516	-71.056129
2707.643989	17475.550667	525.230469	-61.736988
2707.643989	17475.550667	523.982422	-89.484482
2707.643989	17475.550667	522.734375	-292.989105
2707.643989	17475.550667	521.485352	-92.001701
2707.643989	17475.550667	520.236328	-8.195327
2707.643989	17475.550667	518.987305	-94.209763
2707.643989	17475.550667	517.737305	-141.069153
2707.643989	17475.550667	516.488281	15.175683
2707.643989	17475.550667	515.238281	-230.522385
2707.643989	17475.550667	513.988281	44.864243
2707.643989	17475.550667	512.737305	72.524490
2707.643989	17475.550667	511.486328	180.235703
2707.643989	17475.550667	510.235352	56.017921
2707.643989	17475.550667	508.984375	-44.634212
2707.643989	17475.550667	507.732422	149.130524
2707.643989	17475.550667	506.480469	-44.772514
2707.643989	17475.550667	505.228516	82.946022
2707.643989	17475.550667	503.976563	56.899605
2707.643989	17475.550667	502.723633	97.195488
2707.643989	17475.550667	501.470703	252.472885
2707.643989	17475.550667	500.217773	277.438751
2707.643989	17475.550667	498.963867	444.579376
2707.643989	17475.550667	497.709961	508.703247
2707.643989	17475.550667	496.456055	255.931046
2707.643989	17475.550667	495.202148	462.350189
2707.643989	17475.550667	493.947266	241.128723
2707.643989	17475.550667	492.692383	509.992096
2707.643989	17475.550667	491.437500	182.324173
2707.643989	17475.550667	490.181641	29.822357
2707.643989	17475.550667	488.926758	27.153381
2707.643989	17475.550667	487.670898	148.949142
2707.643989	17475.550667	486.414063	45.640305
2707.643989	17475.550667	485.158203	278.407867
2707.643989	17475.550667	483.901367	227.899780
2707.643989	17475.550667	482.644531	439.559845
2707.643989	17475.550667	481.386719	309.882202
2707.643989	17475.550667	480.128906	461.692810
2707.643989	17475.550667	478.871094	400.334839
2707.643989	17475.550667	477.613281	521.444214
2707.643989	17475.550667	476.355469	330.639160
2707.643989	17475.550667	475.096680	335.835480
2707.643989	17475.550667	473.837891	379.982269
2707.643989	17475.550667	472.578125	222.854584
2707.643989	17475.550667	471.319336	273.227295
2707.643989	17475.550667	470.059570	348.942963
2707.643989	17475.550667	468.799805	113.173584
2707.643989	17475.550667	467.539063	311.219299
2707.643989	17475.550667	466.278320	435.854767
2707.643989	17475.550667	465.017578	282.070892
2707.643989	17475.550667	463.756836	198.180573
2707.643989	17475.550667	462.495117	42.971706
2707.643989	17475.550667	461.233398	319.144867
2707.643989	17475.550667	459.971680	-46.310303
2707.643989	17475.550667	458.709961	118.070198
2707.643989	17475.550667	457.447266	-14.969389
2707.643989	17475.550667	456.184570	-53.117207
2707.643989	17475.550667	454.921875	-305.425964
2707.643989	17475.550667	453.658203	-101.796608
2707.643989	17475.550667	452.394531	98.059692
2707.643989	17475.550667	451.130859	79.917183
2707.643989	17475.550667	449.867188	-71.190498
2707.643989	17475.550667	448.602539	-71.614555
2707.643989	17475.550667	447.337891	76.624977
2707.643989	17475.550667	446.073242	-73.937599
2707.643989	17475.550667	444.807617	-73.929855
2707.643989	17475.550667	443.542969	-175.938766
2707.643989	17475.550667	442.276367	32.453724
2707.643989	17475.550667	441.010742	427.758179
2707.643989	17475.550667	439.744141	385.746704
2707.643989	17475.550667	438.478516	311.120544
2707.643989	17475.550667	437.210938	477.265533
2707.643989	17475.550667	435.944336	485.577850
2707.643989	17475.550667	434.676758	599.790894
2707.643989	17475.550667	433.409180	538.915222
2707.643989	17475.550667	432.141602	268.424683
2707.643989	17475.550667	430.873047	-142.322983
2707.643989	17475.550667	429.604492	29.739330
2707.643989	17475.550667	428.335938	470.868958
2707.643989	17475.550667	427.067383	216.023743
2707.643989	17475.550667	425.797852	234.119339
2707.643989	17475.550667	424.528320	213.735901
2707.643989	17475.550667	423.258789	99.180847
2707.643989	17475.550667	421.988281	101.728935
2707.643989	17475.550667	420.717773	6.261035
2707.643989	17475.550667	419.447266	-158.386307
2707.643989	17475.550667	418.175781	-108.169350
2707.643989	17475.550667	416.905273	174.036057
2707.643989	17475.550667	415.633789	-146.402893
2707.643989	17475.550667	414.362305	-190.735657
2707.643989	17475.550667	413.089844	152.040680
2707.643989	17475.550667	411.817383	-9.756431
2707.643989	17475.550667	410.544922	88.899315
2707.643989	17475.550667	409.272461	-8.234237
2707.643989	17475.550667	407.999023	149.134460
2707.643989	17475.550667	406.725586	355.882629
2707.643989	17475.550667	405.452148	79.595497
2707.643989	17475.550667	404.177734	-7.452755
2707.643989	17475.550667	402.903320	54.394283
2707.643989	17475.550667	401.628906	-2.906081
2707.643989	17475.550667	400.354492	195.690369
2707.643989	17475.550667	399.079102	154.546082
2707.643989	17475.550667	397.803711	105.197571
2707.643989	17475.550667	396.528320	277.057007
2707.643989	17475.550667	395.251953	-96.625244
2707.643989	17475.550667	393.976563	215.303604
2707.643989	17475.550667	392.700195	-20.120325
2707.643989	17475.550667	391.422852	110.573441
2707.643989	17475.550667	390.145508	-11.707595
2707.643989	17475.550667	388.869141	367.439484
2707.643989	17475.550667	387.590820	419.041046
2707.643989	17475.550667	386.313477	469.701904
2707.643989	17475.550667	385.035156	112.876930
2707.643989	17475.550667	383.756836	-21.601671
2707.643989	17475.550667	382.478516	212.946289
2707.643989	17475.550667	381.199219	215.492310
2707.643989	17475.550667	379.919922	108.175354
2707.643989	17475.550667	378.640625	230.323853
2707.643989	17475.550667	377.360352	309.177612
2707.643989	17475.550667	376.080078	388.555542
2707.643989	17475.550667	374.799805	79.785652
2707.643989	17475.550667	373.519531	268.680695
2707.643989	17475.550667	372.238281	396.913483
2707.643989	17475.550667	370.957031	-148.513489
2707.643989	17475.550667	369.675781	-59.649532
2707.643989	17475.550667	368.394531	114.991547
2707.643989	17475.550667	367.112305	-22.364574
2707.643989	17475.550667	365.830078	83.851234
2707.643989	17475.550667	364.546875	72.057518
2707.643989	17475.550667	363.264648	115.341805
2707.643989	17475.550667	361.981445	44.347919
2707.643989	17475.550667	360.698242	49.149464
2707.643989	17475.550667	359.414063	64.979492
2707.643989	17475.550667	358.129883	-50.682812
2707.643989	17475.550667	356.845703	13.634709
2707.643989	17475.550667	355.561523	-148.609406
2707.643989	17475.550667	354.276367	-38.132713
2707.643989	17475.550667	352.991211	-6.277170
2707.643989	17475.550667	351.706055	-26.512119
2707.643989	17475.550667	350.420898	52.866859
2707.643989	17475.550667	349.134766	-31.991688
2707.643989	17475.550667	347.848633	-146.392929
2707.643989	17475.550667	346.561523	-106.576332
2707.643989	17475.550667	345.275391	-107.856468
2707.643989	17475.550667	343.988281	4.957820
2707.643989	17475.550667	342.700195	250.626266
2707.643989	17475.550667	341.413086	115.756485
2707.643989	17475.550667	340.125000	102.202660
2707.643989	17475.550667	338.836914	115.170097
2707.643989	17475.550667	337.548828	-2.587252
2707.643989	17475.550667	336.259766	-97.890556
2707.643989	17475.550667	334.970703	1.388233
2707.643989	17475.550667	333.681641	-54.973297
2707.643989	17475.550667	332.391602	154.670624
2707.643989	17475.550667	331.101563	289.742310
2707.643989	17475.550667	329.811523	302.896088
2707.643989	17475.550667	328.521484	163.836456
2707.643989	17475.550667	327.230469	331.603943
2707.643989	17475.550667	325.939453	184.396835
2707.643989	17475.550667	324.648438	-18.952227
2707.643989	17475.550667	323.356445	231.203796
2707.643989	17475.550667	322.064453	-162.407104
2707.643989	17475.550667	320.772461	-225.513931
2707.643989	17475.550667	319.480469	75.483353
2707.643989	17475.550667	318.187500	-9.004643
2707.643989	17475.550667	316.894531	-10.937184
2707.643989	17475.550667	315.601563	-268.120178
2707.643989	17475.550667	314.307617	1.791963
2707.643989	17475.550667	313.013672	-57.423805
2707.643989	17475.550667	311.719727	-202.600967
2707.643989	17475.550667	310.425781	101.283127
2707.643989	17475.550667	309.130859	-65.762978
2707.643989	17475.550667	307.835938	-179.846817
2707.643989	17475.550667	306.541016	67.629585
2707.643989	17475.550667	305.245117	24.648911
2707.643989	17475.550667	303.949219	126.177315
2707.643989	17475.550667	302.653320	48.243118
2707.643989	17475.550667	301.356445	14.441903
2707.643989	17475.550667	300.060547	100.185387
2707.643989	17475.550667	298.763672	195.684448
