#X		#Y		#Wave		#Intensity
2840.922872	17458.902000	2000.043945	-106.490448
2840.922872	17458.902000	1999.080078	-76.005676
2840.922872	17458.902000	1998.116211	-146.872360
2840.922872	17458.902000	1997.151367	7.196810
2840.922872	17458.902000	1996.186523	68.940788
2840.922872	17458.902000	1995.222656	85.488197
2840.922872	17458.902000	1994.256836	56.909622
2840.922872	17458.902000	1993.291992	218.472031
2840.922872	17458.902000	1992.327148	-56.295307
2840.922872	17458.902000	1991.361328	-17.079548
2840.922872	17458.902000	1990.395508	78.559578
2840.922872	17458.902000	1989.429688	228.134323
2840.922872	17458.902000	1988.463867	174.331360
2840.922872	17458.902000	1987.497070	85.488556
2840.922872	17458.902000	1986.531250	161.952164
2840.922872	17458.902000	1985.564453	116.827675
2840.922872	17458.902000	1984.597656	68.857758
2840.922872	17458.902000	1983.630859	0.757572
2840.922872	17458.902000	1982.664063	144.852280
2840.922872	17458.902000	1981.696289	38.996853
2840.922872	17458.902000	1980.728516	-69.622467
2840.922872	17458.902000	1979.761719	58.587833
2840.922872	17458.902000	1978.792969	-100.008720
2840.922872	17458.902000	1977.825195	39.905891
2840.922872	17458.902000	1976.857422	9.160940
2840.922872	17458.902000	1975.888672	158.326431
2840.922872	17458.902000	1974.919922	181.331787
2840.922872	17458.902000	1973.951172	51.120422
2840.922872	17458.902000	1972.982422	-128.610672
2840.922872	17458.902000	1972.013672	197.078354
2840.922872	17458.902000	1971.043945	-158.119125
2840.922872	17458.902000	1970.075195	-15.392712
2840.922872	17458.902000	1969.105469	67.931534
2840.922872	17458.902000	1968.135742	323.550293
2840.922872	17458.902000	1967.165039	167.421677
2840.922872	17458.902000	1966.195313	13.654398
2840.922872	17458.902000	1965.224609	44.514599
2840.922872	17458.902000	1964.253906	213.121506
2840.922872	17458.902000	1963.283203	159.940857
2840.922872	17458.902000	1962.312500	266.657898
2840.922872	17458.902000	1961.341797	284.612854
2840.922872	17458.902000	1960.370117	-86.349205
2840.922872	17458.902000	1959.399414	-61.170200
2840.922872	17458.902000	1958.427734	-18.882433
2840.922872	17458.902000	1957.455078	266.774017
2840.922872	17458.902000	1956.483398	326.026093
2840.922872	17458.902000	1955.511719	58.205750
2840.922872	17458.902000	1954.539063	53.417915
2840.922872	17458.902000	1953.566406	78.058815
2840.922872	17458.902000	1952.593750	132.119019
2840.922872	17458.902000	1951.621094	21.513649
2840.922872	17458.902000	1950.647461	247.395432
2840.922872	17458.902000	1949.674805	-20.439037
2840.922872	17458.902000	1948.701172	53.066288
2840.922872	17458.902000	1947.727539	82.330193
2840.922872	17458.902000	1946.753906	153.281479
2840.922872	17458.902000	1945.780273	-33.469589
2840.922872	17458.902000	1944.805664	0.637575
2840.922872	17458.902000	1943.831055	100.951782
2840.922872	17458.902000	1942.856445	-4.788331
2840.922872	17458.902000	1941.881836	68.509193
2840.922872	17458.902000	1940.907227	-71.508186
2840.922872	17458.902000	1939.932617	6.682800
2840.922872	17458.902000	1938.957031	57.892693
2840.922872	17458.902000	1937.981445	-128.575607
2840.922872	17458.902000	1937.005859	30.458878
2840.922872	17458.902000	1936.030273	-89.768326
2840.922872	17458.902000	1935.054688	130.460556
2840.922872	17458.902000	1934.078125	118.031578
2840.922872	17458.902000	1933.101563	-14.314724
2840.922872	17458.902000	1932.125000	59.006176
2840.922872	17458.902000	1931.148438	90.732964
2840.922872	17458.902000	1930.171875	56.424511
2840.922872	17458.902000	1929.194336	-65.897934
2840.922872	17458.902000	1928.217773	-63.404518
2840.922872	17458.902000	1927.240234	83.392242
2840.922872	17458.902000	1926.262695	29.707285
2840.922872	17458.902000	1925.284180	110.517593
2840.922872	17458.902000	1924.306641	-38.373234
2840.922872	17458.902000	1923.328125	-108.977837
2840.922872	17458.902000	1922.350586	123.418098
2840.922872	17458.902000	1921.372070	-76.544800
2840.922872	17458.902000	1920.392578	107.010582
2840.922872	17458.902000	1919.414063	-75.682541
2840.922872	17458.902000	1918.434570	-136.204254
2840.922872	17458.902000	1917.456055	-111.224113
2840.922872	17458.902000	1916.476563	-52.041939
2840.922872	17458.902000	1915.497070	138.918747
2840.922872	17458.902000	1914.516602	-38.473145
2840.922872	17458.902000	1913.537109	-32.830364
2840.922872	17458.902000	1912.556641	55.768028
2840.922872	17458.902000	1911.576172	-118.908737
2840.922872	17458.902000	1910.595703	40.467468
2840.922872	17458.902000	1909.615234	82.862389
2840.922872	17458.902000	1908.633789	-45.265419
2840.922872	17458.902000	1907.653320	-200.085556
2840.922872	17458.902000	1906.671875	142.075027
2840.922872	17458.902000	1905.690430	152.974960
2840.922872	17458.902000	1904.708984	-55.201656
2840.922872	17458.902000	1903.727539	55.643261
2840.922872	17458.902000	1902.745117	110.517952
2840.922872	17458.902000	1901.762695	68.088745
2840.922872	17458.902000	1900.780273	-44.828709
2840.922872	17458.902000	1899.797852	-28.733286
2840.922872	17458.902000	1898.815430	-219.315323
2840.922872	17458.902000	1897.832031	-18.300045
2840.922872	17458.902000	1896.849609	-11.798445
2840.922872	17458.902000	1895.866211	87.109039
2840.922872	17458.902000	1894.882813	25.631891
2840.922872	17458.902000	1893.898438	168.317307
2840.922872	17458.902000	1892.915039	-140.851578
2840.922872	17458.902000	1891.930664	-5.389612
2840.922872	17458.902000	1890.947266	1.358929
2840.922872	17458.902000	1889.962891	-62.267231
2840.922872	17458.902000	1888.977539	0.394668
2840.922872	17458.902000	1887.993164	-89.831070
2840.922872	17458.902000	1887.007813	-126.605621
2840.922872	17458.902000	1886.023438	11.346252
2840.922872	17458.902000	1885.038086	47.400551
2840.922872	17458.902000	1884.051758	-100.845627
2840.922872	17458.902000	1883.066406	34.688328
2840.922872	17458.902000	1882.081055	-9.199594
2840.922872	17458.902000	1881.094727	58.448818
2840.922872	17458.902000	1880.108398	-14.460892
2840.922872	17458.902000	1879.122070	-113.973473
2840.922872	17458.902000	1878.135742	94.223717
2840.922872	17458.902000	1877.148438	43.204082
2840.922872	17458.902000	1876.162109	-7.780421
2840.922872	17458.902000	1875.174805	76.850471
2840.922872	17458.902000	1874.187500	-29.770441
2840.922872	17458.902000	1873.199219	-37.114712
2840.922872	17458.902000	1872.211914	11.208073
2840.922872	17458.902000	1871.223633	-100.156372
2840.922872	17458.902000	1870.236328	-51.829422
2840.922872	17458.902000	1869.248047	-51.888027
2840.922872	17458.902000	1868.258789	93.128685
2840.922872	17458.902000	1867.270508	187.322922
2840.922872	17458.902000	1866.282227	177.546249
2840.922872	17458.902000	1865.292969	20.355356
2840.922872	17458.902000	1864.303711	22.679657
2840.922872	17458.902000	1863.314453	167.516098
2840.922872	17458.902000	1862.324219	7.970104
2840.922872	17458.902000	1861.334961	-59.770184
2840.922872	17458.902000	1860.344727	-11.615897
2840.922872	17458.902000	1859.354492	14.777452
2840.922872	17458.902000	1858.364258	31.486847
2840.922872	17458.902000	1857.374023	118.142006
2840.922872	17458.902000	1856.383789	175.790619
2840.922872	17458.902000	1855.392578	153.790863
2840.922872	17458.902000	1854.401367	-0.866219
2840.922872	17458.902000	1853.410156	-8.418102
2840.922872	17458.902000	1852.418945	56.320599
2840.922872	17458.902000	1851.426758	87.253822
2840.922872	17458.902000	1850.435547	-31.266674
2840.922872	17458.902000	1849.443359	105.604233
2840.922872	17458.902000	1848.451172	25.583372
2840.922872	17458.902000	1847.458984	179.163773
2840.922872	17458.902000	1846.466797	0.342355
2840.922872	17458.902000	1845.473633	-168.831635
2840.922872	17458.902000	1844.480469	116.939857
2840.922872	17458.902000	1843.487305	58.407719
2840.922872	17458.902000	1842.494141	-14.594187
2840.922872	17458.902000	1841.500977	114.452606
2840.922872	17458.902000	1840.506836	70.213318
2840.922872	17458.902000	1839.513672	35.549603
2840.922872	17458.902000	1838.519531	-227.577194
2840.922872	17458.902000	1837.525391	134.339447
2840.922872	17458.902000	1836.530273	164.377640
2840.922872	17458.902000	1835.536133	-79.603355
2840.922872	17458.902000	1834.541016	-20.846737
2840.922872	17458.902000	1833.545898	112.278351
2840.922872	17458.902000	1832.550781	36.337368
2840.922872	17458.902000	1831.555664	-63.663780
2840.922872	17458.902000	1830.560547	52.358959
2840.922872	17458.902000	1829.564453	156.251846
2840.922872	17458.902000	1828.568359	48.839558
2840.922872	17458.902000	1827.572266	102.140755
2840.922872	17458.902000	1826.576172	83.366531
2840.922872	17458.902000	1825.580078	95.691833
2840.922872	17458.902000	1824.583008	-38.358665
2840.922872	17458.902000	1823.585938	24.147612
2840.922872	17458.902000	1822.588867	-57.290081
2840.922872	17458.902000	1821.591797	84.096077
2840.922872	17458.902000	1820.594727	45.615936
2840.922872	17458.902000	1819.596680	40.588703
2840.922872	17458.902000	1818.599609	167.206833
2840.922872	17458.902000	1817.601563	56.582062
2840.922872	17458.902000	1816.603516	65.614563
2840.922872	17458.902000	1815.604492	191.836136
2840.922872	17458.902000	1814.606445	30.688192
2840.922872	17458.902000	1813.607422	96.825676
2840.922872	17458.902000	1812.608398	62.338730
2840.922872	17458.902000	1811.609375	-44.010433
2840.922872	17458.902000	1810.610352	45.683975
2840.922872	17458.902000	1809.610352	73.052879
2840.922872	17458.902000	1808.611328	14.230513
2840.922872	17458.902000	1807.611328	22.237883
2840.922872	17458.902000	1806.611328	25.341719
2840.922872	17458.902000	1805.610352	56.991928
2840.922872	17458.902000	1804.610352	-30.935015
2840.922872	17458.902000	1803.609375	-40.137672
2840.922872	17458.902000	1802.608398	108.150276
2840.922872	17458.902000	1801.607422	117.775314
2840.922872	17458.902000	1800.606445	53.266541
2840.922872	17458.902000	1799.605469	74.574013
2840.922872	17458.902000	1798.603516	83.807129
2840.922872	17458.902000	1797.601563	119.149963
2840.922872	17458.902000	1796.599609	-93.729576
2840.922872	17458.902000	1795.597656	-196.957504
2840.922872	17458.902000	1794.595703	45.464218
2840.922872	17458.902000	1793.592773	3.957993
2840.922872	17458.902000	1792.589844	267.423523
2840.922872	17458.902000	1791.587891	115.999290
2840.922872	17458.902000	1790.583984	-64.109749
2840.922872	17458.902000	1789.581055	-20.358257
2840.922872	17458.902000	1788.577148	6.557720
2840.922872	17458.902000	1787.574219	-4.771571
2840.922872	17458.902000	1786.570313	-37.673500
2840.922872	17458.902000	1785.566406	72.117012
2840.922872	17458.902000	1784.561523	136.496048
2840.922872	17458.902000	1783.557617	-61.028931
2840.922872	17458.902000	1782.552734	64.915894
2840.922872	17458.902000	1781.547852	-1.997481
2840.922872	17458.902000	1780.542969	26.092695
2840.922872	17458.902000	1779.538086	-3.038704
2840.922872	17458.902000	1778.532227	41.377773
2840.922872	17458.902000	1777.527344	-49.838005
2840.922872	17458.902000	1776.521484	-0.972888
2840.922872	17458.902000	1775.515625	-33.056007
2840.922872	17458.902000	1774.508789	-74.788078
2840.922872	17458.902000	1773.502930	-130.894852
2840.922872	17458.902000	1772.496094	-25.671999
2840.922872	17458.902000	1771.489258	-167.544449
2840.922872	17458.902000	1770.482422	-31.801495
2840.922872	17458.902000	1769.475586	-124.084953
2840.922872	17458.902000	1768.467773	-199.887222
2840.922872	17458.902000	1767.460938	-147.699753
2840.922872	17458.902000	1766.453125	-102.810921
2840.922872	17458.902000	1765.445313	8.306539
2840.922872	17458.902000	1764.437500	-234.037857
2840.922872	17458.902000	1763.428711	49.789890
2840.922872	17458.902000	1762.420898	-109.825066
2840.922872	17458.902000	1761.412109	-1.783760
2840.922872	17458.902000	1760.403320	6.561120
2840.922872	17458.902000	1759.393555	97.641937
2840.922872	17458.902000	1758.384766	-133.531845
2840.922872	17458.902000	1757.375000	80.357468
2840.922872	17458.902000	1756.366211	-44.502300
2840.922872	17458.902000	1755.356445	-34.568405
2840.922872	17458.902000	1754.345703	95.884560
2840.922872	17458.902000	1753.335938	-41.206566
2840.922872	17458.902000	1752.325195	51.043941
2840.922872	17458.902000	1751.315430	110.008110
2840.922872	17458.902000	1750.304688	-3.831181
2840.922872	17458.902000	1749.292969	-9.039399
2840.922872	17458.902000	1748.282227	-97.115639
2840.922872	17458.902000	1747.270508	-140.419601
2840.922872	17458.902000	1746.259766	-27.899940
2840.922872	17458.902000	1745.248047	1.730597
2840.922872	17458.902000	1744.235352	161.091263
2840.922872	17458.902000	1743.223633	55.772411
2840.922872	17458.902000	1742.211914	-44.933777
2840.922872	17458.902000	1741.199219	-8.851841
2840.922872	17458.902000	1740.186523	-55.535160
2840.922872	17458.902000	1739.173828	-95.269196
2840.922872	17458.902000	1738.160156	-12.470613
2840.922872	17458.902000	1737.147461	77.240822
2840.922872	17458.902000	1736.133789	-191.704361
2840.922872	17458.902000	1735.120117	91.045593
2840.922872	17458.902000	1734.106445	19.931902
2840.922872	17458.902000	1733.091797	106.603767
2840.922872	17458.902000	1732.078125	-4.831517
2840.922872	17458.902000	1731.063477	-5.647741
2840.922872	17458.902000	1730.048828	89.975395
2840.922872	17458.902000	1729.034180	-45.383049
2840.922872	17458.902000	1728.019531	-145.509247
2840.922872	17458.902000	1727.003906	170.950485
2840.922872	17458.902000	1725.988281	65.820953
2840.922872	17458.902000	1724.972656	10.015301
2840.922872	17458.902000	1723.957031	41.151756
2840.922872	17458.902000	1722.941406	-172.512756
2840.922872	17458.902000	1721.924805	70.041939
2840.922872	17458.902000	1720.909180	58.419327
2840.922872	17458.902000	1719.892578	37.249367
2840.922872	17458.902000	1718.875977	-80.420410
2840.922872	17458.902000	1717.858398	-71.281166
2840.922872	17458.902000	1716.841797	95.174957
2840.922872	17458.902000	1715.824219	40.589756
2840.922872	17458.902000	1714.806641	-72.821678
2840.922872	17458.902000	1713.789063	-71.244606
2840.922872	17458.902000	1712.770508	31.152781
2840.922872	17458.902000	1711.752930	39.505577
2840.922872	17458.902000	1710.734375	143.944778
2840.922872	17458.902000	1709.715820	18.257425
2840.922872	17458.902000	1708.697266	-55.886158
2840.922872	17458.902000	1707.678711	-5.797084
2840.922872	17458.902000	1706.659180	46.483852
2840.922872	17458.902000	1705.640625	63.474983
2840.922872	17458.902000	1704.621094	-11.101076
2840.922872	17458.902000	1703.600586	244.710922
2840.922872	17458.902000	1702.581055	101.944656
2840.922872	17458.902000	1701.561523	-127.566788
2840.922872	17458.902000	1700.541016	15.349194
2840.922872	17458.902000	1699.520508	-10.528896
2840.922872	17458.902000	1698.500000	202.347366
2840.922872	17458.902000	1697.478516	91.932564
2840.922872	17458.902000	1696.458008	47.018436
2840.922872	17458.902000	1695.436523	51.147297
2840.922872	17458.902000	1694.415039	-17.358826
2840.922872	17458.902000	1693.393555	187.772202
2840.922872	17458.902000	1692.372070	79.309593
2840.922872	17458.902000	1691.349609	78.346184
2840.922872	17458.902000	1690.327148	203.545227
2840.922872	17458.902000	1689.304688	323.928925
2840.922872	17458.902000	1688.282227	282.914001
2840.922872	17458.902000	1687.259766	202.101791
2840.922872	17458.902000	1686.236328	457.635590
2840.922872	17458.902000	1685.213867	203.800262
2840.922872	17458.902000	1684.190430	80.740074
2840.922872	17458.902000	1683.166016	258.829590
2840.922872	17458.902000	1682.142578	308.395203
2840.922872	17458.902000	1681.119141	453.557678
2840.922872	17458.902000	1680.094727	414.217773
2840.922872	17458.902000	1679.070313	101.844421
2840.922872	17458.902000	1678.045898	377.348572
2840.922872	17458.902000	1677.020508	351.800812
2840.922872	17458.902000	1675.996094	515.085999
2840.922872	17458.902000	1674.970703	330.855957
2840.922872	17458.902000	1673.945313	510.245087
2840.922872	17458.902000	1672.919922	577.641907
2840.922872	17458.902000	1671.893555	542.412720
2840.922872	17458.902000	1670.868164	481.531738
2840.922872	17458.902000	1669.841797	576.643616
2840.922872	17458.902000	1668.815430	455.100708
2840.922872	17458.902000	1667.789063	496.522125
2840.922872	17458.902000	1666.761719	547.164551
2840.922872	17458.902000	1665.735352	488.375732
2840.922872	17458.902000	1664.708008	545.880981
2840.922872	17458.902000	1663.680664	510.262482
2840.922872	17458.902000	1662.653320	562.997681
2840.922872	17458.902000	1661.625000	708.667358
2840.922872	17458.902000	1660.597656	617.107971
2840.922872	17458.902000	1659.569336	537.146057
2840.922872	17458.902000	1658.541016	691.914734
2840.922872	17458.902000	1657.512695	721.109314
2840.922872	17458.902000	1656.483398	638.723511
2840.922872	17458.902000	1655.455078	584.231812
2840.922872	17458.902000	1654.425781	580.801270
2840.922872	17458.902000	1653.396484	825.785950
2840.922872	17458.902000	1652.366211	766.521240
2840.922872	17458.902000	1651.336914	860.462219
2840.922872	17458.902000	1650.306641	798.847229
2840.922872	17458.902000	1649.276367	716.356506
2840.922872	17458.902000	1648.246094	868.161865
2840.922872	17458.902000	1647.215820	1089.467529
2840.922872	17458.902000	1646.185547	988.370056
2840.922872	17458.902000	1645.154297	938.281189
2840.922872	17458.902000	1644.123047	874.294250
2840.922872	17458.902000	1643.091797	1016.571350
2840.922872	17458.902000	1642.060547	896.972900
2840.922872	17458.902000	1641.028320	1034.526611
2840.922872	17458.902000	1639.997070	1172.045288
2840.922872	17458.902000	1638.964844	1163.606934
2840.922872	17458.902000	1637.931641	1254.704712
2840.922872	17458.902000	1636.899414	1308.755737
2840.922872	17458.902000	1635.867188	1300.308228
2840.922872	17458.902000	1634.833984	1032.704712
2840.922872	17458.902000	1633.800781	1200.124268
2840.922872	17458.902000	1632.767578	1328.170654
2840.922872	17458.902000	1631.734375	1574.115967
2840.922872	17458.902000	1630.700195	1535.585205
2840.922872	17458.902000	1629.666016	1598.795410
2840.922872	17458.902000	1628.631836	1368.490723
2840.922872	17458.902000	1627.597656	1508.000366
2840.922872	17458.902000	1626.563477	1534.280273
2840.922872	17458.902000	1625.528320	1445.066528
2840.922872	17458.902000	1624.493164	1924.005005
2840.922872	17458.902000	1623.458008	1777.085938
2840.922872	17458.902000	1622.422852	1884.180298
2840.922872	17458.902000	1621.387695	1910.487427
2840.922872	17458.902000	1620.351563	1959.874268
2840.922872	17458.902000	1619.315430	1670.140747
2840.922872	17458.902000	1618.279297	1768.071167
2840.922872	17458.902000	1617.243164	1967.474731
2840.922872	17458.902000	1616.207031	1897.075317
2840.922872	17458.902000	1615.169922	1879.748901
2840.922872	17458.902000	1614.132813	1874.000244
2840.922872	17458.902000	1613.095703	1893.650513
2840.922872	17458.902000	1612.058594	1871.873413
2840.922872	17458.902000	1611.020508	1889.295288
2840.922872	17458.902000	1609.983398	2091.027588
2840.922872	17458.902000	1608.945313	2050.947998
2840.922872	17458.902000	1607.907227	1693.247314
2840.922872	17458.902000	1606.868164	1733.917603
2840.922872	17458.902000	1605.830078	2009.378906
2840.922872	17458.902000	1604.791016	1916.651367
2840.922872	17458.902000	1603.751953	1690.607056
2840.922872	17458.902000	1602.712891	1915.495728
2840.922872	17458.902000	1601.673828	1963.308594
2840.922872	17458.902000	1600.633789	1877.814209
2840.922872	17458.902000	1599.594727	1803.937622
2840.922872	17458.902000	1598.554688	2001.319946
2840.922872	17458.902000	1597.513672	1716.178711
2840.922872	17458.902000	1596.473633	1768.933228
2840.922872	17458.902000	1595.433594	1700.018799
2840.922872	17458.902000	1594.392578	1925.120605
2840.922872	17458.902000	1593.351563	1594.623535
2840.922872	17458.902000	1592.310547	1909.347656
2840.922872	17458.902000	1591.268555	1721.423462
2840.922872	17458.902000	1590.227539	1932.923096
2840.922872	17458.902000	1589.185547	1814.068970
2840.922872	17458.902000	1588.143555	1959.117676
2840.922872	17458.902000	1587.100586	1831.299561
2840.922872	17458.902000	1586.058594	1944.379395
2840.922872	17458.902000	1585.015625	1860.360596
2840.922872	17458.902000	1583.972656	1891.064575
2840.922872	17458.902000	1582.929688	1981.431396
2840.922872	17458.902000	1581.886719	1977.938232
2840.922872	17458.902000	1580.843750	1850.864990
2840.922872	17458.902000	1579.799805	1879.650757
2840.922872	17458.902000	1578.755859	1768.868408
2840.922872	17458.902000	1577.711914	1887.150391
2840.922872	17458.902000	1576.666992	1863.580444
2840.922872	17458.902000	1575.623047	1780.655640
2840.922872	17458.902000	1574.578125	1629.226929
2840.922872	17458.902000	1573.533203	1574.039307
2840.922872	17458.902000	1572.488281	1743.104248
2840.922872	17458.902000	1571.443359	1832.194458
2840.922872	17458.902000	1570.397461	1711.044067
2840.922872	17458.902000	1569.351563	1827.755859
2840.922872	17458.902000	1568.305664	1720.606812
2840.922872	17458.902000	1567.259766	1771.263184
2840.922872	17458.902000	1566.213867	1732.942139
2840.922872	17458.902000	1565.166992	1701.597046
2840.922872	17458.902000	1564.120117	1757.158203
2840.922872	17458.902000	1563.073242	1895.008911
2840.922872	17458.902000	1562.026367	1841.214722
2840.922872	17458.902000	1560.978516	1917.628906
2840.922872	17458.902000	1559.930664	1991.865845
2840.922872	17458.902000	1558.883789	2047.975098
2840.922872	17458.902000	1557.834961	2225.040527
2840.922872	17458.902000	1556.787109	2101.208252
2840.922872	17458.902000	1555.739258	2387.909424
2840.922872	17458.902000	1554.690430	2298.546143
2840.922872	17458.902000	1553.641602	2437.240234
2840.922872	17458.902000	1552.592773	2407.423096
2840.922872	17458.902000	1551.542969	2489.365479
2840.922872	17458.902000	1550.494141	2140.993408
2840.922872	17458.902000	1549.444336	2507.873779
2840.922872	17458.902000	1548.394531	2328.379883
2840.922872	17458.902000	1547.344727	2165.038574
2840.922872	17458.902000	1546.293945	2491.166016
2840.922872	17458.902000	1545.244141	2439.643066
2840.922872	17458.902000	1544.193359	2515.664795
2840.922872	17458.902000	1543.142578	2678.234619
2840.922872	17458.902000	1542.090820	2688.531006
2840.922872	17458.902000	1541.040039	2799.022461
2840.922872	17458.902000	1539.988281	3293.746582
2840.922872	17458.902000	1538.936523	3358.924316
2840.922872	17458.902000	1537.884766	3717.334717
2840.922872	17458.902000	1536.833008	3657.779297
2840.922872	17458.902000	1535.780273	3884.565674
2840.922872	17458.902000	1534.727539	4199.982422
2840.922872	17458.902000	1533.674805	4424.623047
2840.922872	17458.902000	1532.622070	4569.894043
2840.922872	17458.902000	1531.569336	4792.430176
2840.922872	17458.902000	1530.515625	4946.964844
2840.922872	17458.902000	1529.461914	4570.772949
2840.922872	17458.902000	1528.408203	4950.156738
2840.922872	17458.902000	1527.354492	4771.727539
2840.922872	17458.902000	1526.299805	4799.835938
2840.922872	17458.902000	1525.246094	4979.982422
2840.922872	17458.902000	1524.191406	4620.848633
2840.922872	17458.902000	1523.136719	4479.541992
2840.922872	17458.902000	1522.081055	4517.416016
2840.922872	17458.902000	1521.026367	4143.242188
2840.922872	17458.902000	1519.970703	3961.857666
2840.922872	17458.902000	1518.915039	3825.998535
2840.922872	17458.902000	1517.859375	3511.544922
2840.922872	17458.902000	1516.802734	3423.693359
2840.922872	17458.902000	1515.747070	3107.528564
2840.922872	17458.902000	1514.690430	2732.839111
2840.922872	17458.902000	1513.633789	2525.845215
2840.922872	17458.902000	1512.577148	2640.218262
2840.922872	17458.902000	1511.519531	2322.886963
2840.922872	17458.902000	1510.461914	2238.683594
2840.922872	17458.902000	1509.405273	1851.861450
2840.922872	17458.902000	1508.346680	1472.134644
2840.922872	17458.902000	1507.289063	1320.912720
2840.922872	17458.902000	1506.231445	975.687317
2840.922872	17458.902000	1505.172852	1190.804932
2840.922872	17458.902000	1504.114258	954.467834
2840.922872	17458.902000	1503.055664	932.848999
2840.922872	17458.902000	1501.996094	873.046631
2840.922872	17458.902000	1500.937500	750.277405
2840.922872	17458.902000	1499.877930	566.821533
2840.922872	17458.902000	1498.818359	591.128113
2840.922872	17458.902000	1497.757813	669.722656
2840.922872	17458.902000	1496.698242	667.309814
2840.922872	17458.902000	1495.637695	583.925781
2840.922872	17458.902000	1494.577148	512.025818
2840.922872	17458.902000	1493.516602	532.723389
2840.922872	17458.902000	1492.456055	470.242096
2840.922872	17458.902000	1491.394531	507.069366
2840.922872	17458.902000	1490.333008	706.205627
2840.922872	17458.902000	1489.271484	556.468140
2840.922872	17458.902000	1488.209961	472.254547
2840.922872	17458.902000	1487.148438	437.772736
2840.922872	17458.902000	1486.085938	630.749146
2840.922872	17458.902000	1485.023438	749.593384
2840.922872	17458.902000	1483.960938	540.187195
2840.922872	17458.902000	1482.898438	573.918213
2840.922872	17458.902000	1481.834961	807.917725
2840.922872	17458.902000	1480.772461	866.665161
2840.922872	17458.902000	1479.708984	772.758362
2840.922872	17458.902000	1478.644531	717.257263
2840.922872	17458.902000	1477.581055	711.398926
2840.922872	17458.902000	1476.517578	959.430176
2840.922872	17458.902000	1475.453125	992.057495
2840.922872	17458.902000	1474.388672	867.707153
2840.922872	17458.902000	1473.323242	943.395447
2840.922872	17458.902000	1472.258789	1180.695679
2840.922872	17458.902000	1471.193359	1534.692505
2840.922872	17458.902000	1470.127930	1442.370117
2840.922872	17458.902000	1469.062500	1792.038696
2840.922872	17458.902000	1467.997070	1668.738159
2840.922872	17458.902000	1466.930664	2161.778320
2840.922872	17458.902000	1465.865234	2388.134033
2840.922872	17458.902000	1464.798828	2404.205322
2840.922872	17458.902000	1463.731445	2075.539063
2840.922872	17458.902000	1462.665039	2212.424072
2840.922872	17458.902000	1461.597656	2258.302734
2840.922872	17458.902000	1460.530273	2302.169922
2840.922872	17458.902000	1459.462891	2515.485107
2840.922872	17458.902000	1458.395508	2646.351563
2840.922872	17458.902000	1457.327148	3034.187256
2840.922872	17458.902000	1456.259766	3198.575684
2840.922872	17458.902000	1455.191406	3043.236328
2840.922872	17458.902000	1454.123047	2901.724854
2840.922872	17458.902000	1453.053711	2707.268311
2840.922872	17458.902000	1451.985352	2504.519043
2840.922872	17458.902000	1450.916016	1937.229492
2840.922872	17458.902000	1449.846680	1949.194458
2840.922872	17458.902000	1448.776367	1553.454102
2840.922872	17458.902000	1447.707031	1711.404907
2840.922872	17458.902000	1446.636719	1604.832275
2840.922872	17458.902000	1445.566406	1667.921997
2840.922872	17458.902000	1444.496094	1597.054443
2840.922872	17458.902000	1443.425781	1611.572632
2840.922872	17458.902000	1442.354492	1651.776611
2840.922872	17458.902000	1441.283203	1329.059448
2840.922872	17458.902000	1440.211914	1273.570068
2840.922872	17458.902000	1439.140625	898.968689
2840.922872	17458.902000	1438.069336	988.274170
2840.922872	17458.902000	1436.997070	868.874146
2840.922872	17458.902000	1435.924805	825.374817
2840.922872	17458.902000	1434.852539	752.600647
2840.922872	17458.902000	1433.780273	566.403320
2840.922872	17458.902000	1432.707031	190.464005
2840.922872	17458.902000	1431.633789	369.350250
2840.922872	17458.902000	1430.560547	311.758423
2840.922872	17458.902000	1429.487305	262.277496
2840.922872	17458.902000	1428.413086	-3.045511
2840.922872	17458.902000	1427.339844	23.058195
2840.922872	17458.902000	1426.265625	-23.216841
2840.922872	17458.902000	1425.191406	31.203688
2840.922872	17458.902000	1424.116211	28.042093
2840.922872	17458.902000	1423.041992	36.782768
2840.922872	17458.902000	1421.966797	24.077442
2840.922872	17458.902000	1420.891602	173.239029
2840.922872	17458.902000	1419.816406	0.171850
2840.922872	17458.902000	1418.740234	31.546143
2840.922872	17458.902000	1417.665039	-131.134705
2840.922872	17458.902000	1416.588867	-183.851349
2840.922872	17458.902000	1415.512695	-108.237953
2840.922872	17458.902000	1414.435547	-11.475305
2840.922872	17458.902000	1413.359375	35.844086
2840.922872	17458.902000	1412.282227	47.183983
2840.922872	17458.902000	1411.205078	-48.319859
2840.922872	17458.902000	1410.127930	104.487762
2840.922872	17458.902000	1409.049805	334.264557
2840.922872	17458.902000	1407.972656	325.106079
2840.922872	17458.902000	1406.894531	255.773270
2840.922872	17458.902000	1405.816406	381.671661
2840.922872	17458.902000	1404.737305	351.902893
2840.922872	17458.902000	1403.659180	383.744904
2840.922872	17458.902000	1402.580078	605.053528
2840.922872	17458.902000	1401.500977	571.385010
2840.922872	17458.902000	1400.421875	399.855408
2840.922872	17458.902000	1399.341797	694.763245
2840.922872	17458.902000	1398.262695	728.511169
2840.922872	17458.902000	1397.182617	618.676819
2840.922872	17458.902000	1396.102539	867.256348
2840.922872	17458.902000	1395.021484	768.502686
2840.922872	17458.902000	1393.941406	801.834167
2840.922872	17458.902000	1392.860352	658.198547
2840.922872	17458.902000	1391.779297	742.661682
2840.922872	17458.902000	1390.698242	634.172546
2840.922872	17458.902000	1389.616211	786.468140
2840.922872	17458.902000	1388.535156	812.785828
2840.922872	17458.902000	1387.453125	877.288330
2840.922872	17458.902000	1386.371094	690.128784
2840.922872	17458.902000	1385.288086	890.081787
2840.922872	17458.902000	1384.206055	974.040955
2840.922872	17458.902000	1383.123047	632.493103
2840.922872	17458.902000	1382.040039	743.996216
2840.922872	17458.902000	1380.957031	569.852722
2840.922872	17458.902000	1379.873047	669.278076
2840.922872	17458.902000	1378.789063	488.886597
2840.922872	17458.902000	1377.705078	575.219849
2840.922872	17458.902000	1376.621094	530.900635
2840.922872	17458.902000	1375.537109	717.139526
2840.922872	17458.902000	1374.452148	727.620361
2840.922872	17458.902000	1373.367188	566.213501
2840.922872	17458.902000	1372.282227	472.057373
2840.922872	17458.902000	1371.197266	307.298096
2840.922872	17458.902000	1370.112305	302.245911
2840.922872	17458.902000	1369.026367	284.765656
2840.922872	17458.902000	1367.940430	335.220490
2840.922872	17458.902000	1366.854492	261.677460
2840.922872	17458.902000	1365.767578	335.864960
2840.922872	17458.902000	1364.681641	396.826141
2840.922872	17458.902000	1363.594727	185.005646
2840.922872	17458.902000	1362.507813	338.649872
2840.922872	17458.902000	1361.419922	511.177063
2840.922872	17458.902000	1360.333008	289.788818
2840.922872	17458.902000	1359.245117	488.109131
2840.922872	17458.902000	1358.157227	779.622375
2840.922872	17458.902000	1357.069336	898.548828
2840.922872	17458.902000	1355.981445	1022.071777
2840.922872	17458.902000	1354.892578	865.414612
2840.922872	17458.902000	1353.803711	910.636536
2840.922872	17458.902000	1352.714844	1153.026123
2840.922872	17458.902000	1351.625000	986.622620
2840.922872	17458.902000	1350.536133	1032.198242
2840.922872	17458.902000	1349.446289	1045.153931
2840.922872	17458.902000	1348.356445	1070.426392
2840.922872	17458.902000	1347.266602	1218.556274
2840.922872	17458.902000	1346.175781	1314.781128
2840.922872	17458.902000	1345.085938	1375.780884
2840.922872	17458.902000	1343.995117	1618.317383
2840.922872	17458.902000	1342.903320	1616.083008
2840.922872	17458.902000	1341.812500	1614.040161
2840.922872	17458.902000	1340.720703	1653.502075
2840.922872	17458.902000	1339.629883	1375.501465
2840.922872	17458.902000	1338.538086	1717.417969
2840.922872	17458.902000	1337.445313	1793.982910
2840.922872	17458.902000	1336.353516	1549.112305
2840.922872	17458.902000	1335.260742	1658.975464
2840.922872	17458.902000	1334.167969	1906.465210
2840.922872	17458.902000	1333.075195	1692.211060
2840.922872	17458.902000	1331.981445	1794.505249
2840.922872	17458.902000	1330.888672	1662.710449
2840.922872	17458.902000	1329.794922	1637.429077
2840.922872	17458.902000	1328.701172	1674.612427
2840.922872	17458.902000	1327.606445	1690.446411
2840.922872	17458.902000	1326.512695	1526.286499
2840.922872	17458.902000	1325.417969	1716.117554
2840.922872	17458.902000	1324.323242	1695.816040
2840.922872	17458.902000	1323.227539	1846.081055
2840.922872	17458.902000	1322.132813	1570.495239
2840.922872	17458.902000	1321.037109	1463.021118
2840.922872	17458.902000	1319.941406	1561.997192
2840.922872	17458.902000	1318.845703	1503.748413
2840.922872	17458.902000	1317.750000	1439.474609
2840.922872	17458.902000	1316.653320	1436.674683
2840.922872	17458.902000	1315.556641	1323.259155
2840.922872	17458.902000	1314.459961	1114.728882
2840.922872	17458.902000	1313.363281	1090.497437
2840.922872	17458.902000	1312.265625	1075.151855
2840.922872	17458.902000	1311.167969	968.897461
2840.922872	17458.902000	1310.070313	1022.184265
2840.922872	17458.902000	1308.972656	773.905518
2840.922872	17458.902000	1307.874023	701.723389
2840.922872	17458.902000	1306.776367	803.448303
2840.922872	17458.902000	1305.677734	807.331787
2840.922872	17458.902000	1304.579102	923.051880
2840.922872	17458.902000	1303.479492	689.770874
2840.922872	17458.902000	1302.380859	845.682861
2840.922872	17458.902000	1301.281250	873.026794
2840.922872	17458.902000	1300.181641	857.401611
2840.922872	17458.902000	1299.081055	838.054688
2840.922872	17458.902000	1297.981445	683.218933
2840.922872	17458.902000	1296.880859	581.310303
2840.922872	17458.902000	1295.780273	505.309509
2840.922872	17458.902000	1294.679688	537.347046
2840.922872	17458.902000	1293.578125	391.475250
2840.922872	17458.902000	1292.476563	632.263489
2840.922872	17458.902000	1291.375000	411.482971
2840.922872	17458.902000	1290.273438	603.882568
2840.922872	17458.902000	1289.171875	590.753967
2840.922872	17458.902000	1288.069336	343.073486
2840.922872	17458.902000	1286.966797	439.145721
2840.922872	17458.902000	1285.864258	570.910950
2840.922872	17458.902000	1284.761719	343.632599
2840.922872	17458.902000	1283.658203	264.536987
2840.922872	17458.902000	1282.554688	319.861389
2840.922872	17458.902000	1281.451172	177.391769
2840.922872	17458.902000	1280.347656	185.415085
2840.922872	17458.902000	1279.244141	175.400940
2840.922872	17458.902000	1278.139648	65.644913
2840.922872	17458.902000	1277.035156	168.065994
2840.922872	17458.902000	1275.930664	-5.619145
2840.922872	17458.902000	1274.825195	80.103874
2840.922872	17458.902000	1273.720703	-2.272547
2840.922872	17458.902000	1272.615234	61.936714
2840.922872	17458.902000	1271.508789	176.260849
2840.922872	17458.902000	1270.403320	172.664978
2840.922872	17458.902000	1269.297852	99.407639
2840.922872	17458.902000	1268.191406	115.728813
2840.922872	17458.902000	1267.084961	54.977253
2840.922872	17458.902000	1265.977539	196.127304
2840.922872	17458.902000	1264.871094	216.837585
2840.922872	17458.902000	1263.763672	229.629074
2840.922872	17458.902000	1262.656250	259.889679
2840.922872	17458.902000	1261.548828	302.968964
2840.922872	17458.902000	1260.440430	295.485840
2840.922872	17458.902000	1259.333008	172.508255
2840.922872	17458.902000	1258.224609	277.835388
2840.922872	17458.902000	1257.115234	339.984833
2840.922872	17458.902000	1256.006836	293.514893
2840.922872	17458.902000	1254.897461	441.870239
2840.922872	17458.902000	1253.788086	333.717285
2840.922872	17458.902000	1252.678711	395.169342
2840.922872	17458.902000	1251.569336	189.706009
2840.922872	17458.902000	1250.458984	146.982178
2840.922872	17458.902000	1249.349609	261.535950
2840.922872	17458.902000	1248.239258	245.307877
2840.922872	17458.902000	1247.127930	222.547058
2840.922872	17458.902000	1246.017578	290.887421
2840.922872	17458.902000	1244.906250	117.445251
2840.922872	17458.902000	1243.794922	208.997559
2840.922872	17458.902000	1242.683594	175.986877
2840.922872	17458.902000	1241.571289	181.202759
2840.922872	17458.902000	1240.459961	257.012878
2840.922872	17458.902000	1239.347656	79.863327
2840.922872	17458.902000	1238.234375	178.714188
2840.922872	17458.902000	1237.122070	144.202881
2840.922872	17458.902000	1236.008789	240.835876
2840.922872	17458.902000	1234.896484	196.082779
2840.922872	17458.902000	1233.782227	162.647354
2840.922872	17458.902000	1232.668945	108.442528
2840.922872	17458.902000	1231.555664	130.220642
2840.922872	17458.902000	1230.441406	104.476112
2840.922872	17458.902000	1229.327148	102.500160
2840.922872	17458.902000	1228.211914	58.970730
2840.922872	17458.902000	1227.097656	113.972221
2840.922872	17458.902000	1225.982422	101.917839
2840.922872	17458.902000	1224.867188	7.832396
2840.922872	17458.902000	1223.751953	86.669350
2840.922872	17458.902000	1222.635742	-15.451112
2840.922872	17458.902000	1221.520508	114.014824
2840.922872	17458.902000	1220.404297	63.302311
2840.922872	17458.902000	1219.287109	45.222145
2840.922872	17458.902000	1218.170898	65.789101
2840.922872	17458.902000	1217.053711	24.013521
2840.922872	17458.902000	1215.936523	104.131538
2840.922872	17458.902000	1214.819336	44.869152
2840.922872	17458.902000	1213.702148	43.108631
2840.922872	17458.902000	1212.583984	58.902508
2840.922872	17458.902000	1211.465820	-209.997238
2840.922872	17458.902000	1210.347656	-86.628242
2840.922872	17458.902000	1209.229492	-91.542755
2840.922872	17458.902000	1208.110352	-95.313393
2840.922872	17458.902000	1206.992188	-146.744705
2840.922872	17458.902000	1205.873047	-48.470676
2840.922872	17458.902000	1204.752930	-199.701874
2840.922872	17458.902000	1203.633789	-187.337280
2840.922872	17458.902000	1202.513672	-180.883209
2840.922872	17458.902000	1201.393555	-189.869400
2840.922872	17458.902000	1200.273438	-171.773804
2840.922872	17458.902000	1199.152344	-219.506226
2840.922872	17458.902000	1198.032227	-121.131149
2840.922872	17458.902000	1196.911133	-206.872101
2840.922872	17458.902000	1195.790039	-136.613983
2840.922872	17458.902000	1194.667969	-87.963066
2840.922872	17458.902000	1193.545898	-47.772900
2840.922872	17458.902000	1192.424805	-35.429058
2840.922872	17458.902000	1191.301758	-36.753735
2840.922872	17458.902000	1190.179688	75.019920
2840.922872	17458.902000	1189.056641	43.245876
2840.922872	17458.902000	1187.933594	-86.756271
2840.922872	17458.902000	1186.810547	-113.318840
2840.922872	17458.902000	1185.687500	107.891869
2840.922872	17458.902000	1184.563477	-150.411423
2840.922872	17458.902000	1183.440430	-36.832752
2840.922872	17458.902000	1182.316406	82.438332
2840.922872	17458.902000	1181.191406	9.482490
2840.922872	17458.902000	1180.067383	-67.409439
2840.922872	17458.902000	1178.942383	-19.549370
2840.922872	17458.902000	1177.817383	108.358452
2840.922872	17458.902000	1176.692383	8.543311
2840.922872	17458.902000	1175.566406	63.273254
2840.922872	17458.902000	1174.440430	78.108856
2840.922872	17458.902000	1173.314453	41.162266
2840.922872	17458.902000	1172.188477	55.049519
2840.922872	17458.902000	1171.062500	-22.154329
2840.922872	17458.902000	1169.935547	-44.248848
2840.922872	17458.902000	1168.808594	68.025116
2840.922872	17458.902000	1167.681641	51.761177
2840.922872	17458.902000	1166.553711	-91.086449
2840.922872	17458.902000	1165.426758	-40.052525
2840.922872	17458.902000	1164.298828	-45.750057
2840.922872	17458.902000	1163.170898	13.679062
2840.922872	17458.902000	1162.041992	-5.195915
2840.922872	17458.902000	1160.914063	-129.406342
2840.922872	17458.902000	1159.785156	-145.455276
2840.922872	17458.902000	1158.656250	-32.152321
2840.922872	17458.902000	1157.526367	-32.210629
2840.922872	17458.902000	1156.397461	-174.706985
2840.922872	17458.902000	1155.267578	-16.739563
2840.922872	17458.902000	1154.137695	-82.221237
2840.922872	17458.902000	1153.006836	72.172737
2840.922872	17458.902000	1151.876953	115.447128
2840.922872	17458.902000	1150.746094	238.406647
2840.922872	17458.902000	1149.615234	256.560577
2840.922872	17458.902000	1148.484375	335.234131
2840.922872	17458.902000	1147.352539	313.536011
2840.922872	17458.902000	1146.220703	341.849701
2840.922872	17458.902000	1145.088867	380.705536
2840.922872	17458.902000	1143.957031	481.576202
2840.922872	17458.902000	1142.825195	368.205963
2840.922872	17458.902000	1141.692383	314.732574
2840.922872	17458.902000	1140.559570	344.127686
2840.922872	17458.902000	1139.426758	359.536926
2840.922872	17458.902000	1138.292969	247.197510
2840.922872	17458.902000	1137.159180	139.526642
2840.922872	17458.902000	1136.025391	118.353539
2840.922872	17458.902000	1134.891602	27.543560
2840.922872	17458.902000	1133.757813	65.493340
2840.922872	17458.902000	1132.623047	39.287510
2840.922872	17458.902000	1131.488281	90.017410
2840.922872	17458.902000	1130.353516	27.824793
2840.922872	17458.902000	1129.217773	17.191626
2840.922872	17458.902000	1128.083008	150.639786
2840.922872	17458.902000	1126.947266	95.014839
2840.922872	17458.902000	1125.811523	7.191613
2840.922872	17458.902000	1124.674805	75.770050
2840.922872	17458.902000	1123.539063	52.731468
2840.922872	17458.902000	1122.402344	11.852667
2840.922872	17458.902000	1121.265625	-53.207100
2840.922872	17458.902000	1120.127930	-102.977959
2840.922872	17458.902000	1118.990234	-109.690178
2840.922872	17458.902000	1117.853516	73.638100
2840.922872	17458.902000	1116.714844	-5.430940
2840.922872	17458.902000	1115.577148	15.802728
2840.922872	17458.902000	1114.439453	-136.788773
2840.922872	17458.902000	1113.300781	164.704590
2840.922872	17458.902000	1112.162109	-0.507646
2840.922872	17458.902000	1111.022461	-73.003845
2840.922872	17458.902000	1109.883789	-18.345297
2840.922872	17458.902000	1108.744141	70.386185
2840.922872	17458.902000	1107.604492	115.046852
2840.922872	17458.902000	1106.463867	81.791565
2840.922872	17458.902000	1105.324219	66.967659
2840.922872	17458.902000	1104.183594	15.976334
2840.922872	17458.902000	1103.042969	190.877182
2840.922872	17458.902000	1101.902344	73.828720
2840.922872	17458.902000	1100.760742	51.425030
2840.922872	17458.902000	1099.619141	12.927044
2840.922872	17458.902000	1098.477539	165.236450
2840.922872	17458.902000	1097.335938	212.286194
2840.922872	17458.902000	1096.193359	88.289314
2840.922872	17458.902000	1095.051758	214.533539
2840.922872	17458.902000	1093.909180	182.787399
2840.922872	17458.902000	1092.765625	103.560837
2840.922872	17458.902000	1091.623047	101.245384
2840.922872	17458.902000	1090.479492	246.249908
2840.922872	17458.902000	1089.335938	217.527222
2840.922872	17458.902000	1088.192383	55.465374
2840.922872	17458.902000	1087.047852	231.649139
2840.922872	17458.902000	1085.903320	151.962112
2840.922872	17458.902000	1084.758789	267.345123
2840.922872	17458.902000	1083.614258	466.030914
2840.922872	17458.902000	1082.469727	317.551117
2840.922872	17458.902000	1081.324219	300.365326
2840.922872	17458.902000	1080.178711	227.012634
2840.922872	17458.902000	1079.033203	412.485626
2840.922872	17458.902000	1077.886719	399.500549
2840.922872	17458.902000	1076.740234	330.120148
2840.922872	17458.902000	1075.593750	216.125046
2840.922872	17458.902000	1074.447266	374.843750
2840.922872	17458.902000	1073.300781	451.273743
2840.922872	17458.902000	1072.153320	285.689667
2840.922872	17458.902000	1071.005859	377.793091
2840.922872	17458.902000	1069.858398	282.812988
2840.922872	17458.902000	1068.709961	187.925201
2840.922872	17458.902000	1067.561523	232.911591
2840.922872	17458.902000	1066.413086	61.196358
2840.922872	17458.902000	1065.264648	163.734955
2840.922872	17458.902000	1064.116211	243.536575
2840.922872	17458.902000	1062.966797	89.729080
2840.922872	17458.902000	1061.817383	167.252686
2840.922872	17458.902000	1060.667969	101.395882
2840.922872	17458.902000	1059.517578	181.948502
2840.922872	17458.902000	1058.368164	82.598579
2840.922872	17458.902000	1057.217773	179.391220
2840.922872	17458.902000	1056.067383	144.657471
2840.922872	17458.902000	1054.916016	166.576675
2840.922872	17458.902000	1053.764648	76.221169
2840.922872	17458.902000	1052.613281	148.438980
2840.922872	17458.902000	1051.461914	59.859413
2840.922872	17458.902000	1050.310547	122.022888
2840.922872	17458.902000	1049.158203	71.588089
2840.922872	17458.902000	1048.005859	-49.023876
2840.922872	17458.902000	1046.853516	-23.294054
2840.922872	17458.902000	1045.700195	128.757401
2840.922872	17458.902000	1044.547852	168.387726
2840.922872	17458.902000	1043.394531	44.567902
2840.922872	17458.902000	1042.240234	26.462286
2840.922872	17458.902000	1041.086914	238.489426
2840.922872	17458.902000	1039.932617	168.674820
2840.922872	17458.902000	1038.778320	160.932022
2840.922872	17458.902000	1037.624023	292.877625
2840.922872	17458.902000	1036.469727	115.700500
2840.922872	17458.902000	1035.314453	195.524673
2840.922872	17458.902000	1034.159180	304.345917
2840.922872	17458.902000	1033.003906	180.973145
2840.922872	17458.902000	1031.847656	401.627991
2840.922872	17458.902000	1030.692383	306.200287
2840.922872	17458.902000	1029.536133	296.878998
2840.922872	17458.902000	1028.378906	132.443649
2840.922872	17458.902000	1027.222656	162.230530
2840.922872	17458.902000	1026.065430	202.228195
2840.922872	17458.902000	1024.908203	138.571304
2840.922872	17458.902000	1023.750977	-16.527937
2840.922872	17458.902000	1022.593750	130.384933
2840.922872	17458.902000	1021.435547	-36.998058
2840.922872	17458.902000	1020.277344	44.407040
2840.922872	17458.902000	1019.119141	78.790970
2840.922872	17458.902000	1017.959961	-92.594742
2840.922872	17458.902000	1016.800781	-0.925857
2840.922872	17458.902000	1015.641602	65.280357
2840.922872	17458.902000	1014.482422	-152.308792
2840.922872	17458.902000	1013.323242	-90.551422
2840.922872	17458.902000	1012.163086	-92.478394
2840.922872	17458.902000	1011.002930	82.781540
2840.922872	17458.902000	1009.842773	63.928848
2840.922872	17458.902000	1008.681641	-102.147491
2840.922872	17458.902000	1007.520508	127.986313
2840.922872	17458.902000	1006.359375	94.393044
2840.922872	17458.902000	1005.198242	203.622757
2840.922872	17458.902000	1004.037109	112.266548
2840.922872	17458.902000	1002.875000	264.104828
2840.922872	17458.902000	1001.712891	88.288284
2840.922872	17458.902000	1000.550781	159.591599
2840.922872	17458.902000	999.387695	151.231613
2840.922872	17458.902000	998.224609	145.627640
2840.922872	17458.902000	997.061523	57.134392
2840.922872	17458.902000	995.898438	85.536285
2840.922872	17458.902000	994.734375	-56.894283
2840.922872	17458.902000	993.571289	-32.668297
2840.922872	17458.902000	992.407227	17.315439
2840.922872	17458.902000	991.242188	-146.234940
2840.922872	17458.902000	990.078125	-65.708221
2840.922872	17458.902000	988.913086	36.268116
2840.922872	17458.902000	987.748047	-137.170639
2840.922872	17458.902000	986.583008	-72.176651
2840.922872	17458.902000	985.416992	-53.723854
2840.922872	17458.902000	984.250977	-101.931778
2840.922872	17458.902000	983.084961	-209.467270
2840.922872	17458.902000	981.918945	-111.197365
2840.922872	17458.902000	980.751953	-49.629295
2840.922872	17458.902000	979.584961	-83.250717
2840.922872	17458.902000	978.417969	-27.633759
2840.922872	17458.902000	977.250977	-34.896473
2840.922872	17458.902000	976.083008	-97.226860
2840.922872	17458.902000	974.915039	104.563263
2840.922872	17458.902000	973.747070	39.862671
2840.922872	17458.902000	972.579102	-236.478928
2840.922872	17458.902000	971.410156	-60.550056
2840.922872	17458.902000	970.242188	74.142960
2840.922872	17458.902000	969.072266	-55.443985
2840.922872	17458.902000	967.903320	257.618103
2840.922872	17458.902000	966.733398	172.595367
2840.922872	17458.902000	965.563477	141.323563
2840.922872	17458.902000	964.393555	148.694321
2840.922872	17458.902000	963.223633	317.191071
2840.922872	17458.902000	962.052734	293.613800
2840.922872	17458.902000	960.881836	361.807037
2840.922872	17458.902000	959.710938	227.928101
2840.922872	17458.902000	958.540039	361.501373
2840.922872	17458.902000	957.368164	380.268066
2840.922872	17458.902000	956.196289	273.107086
2840.922872	17458.902000	955.024414	445.208771
2840.922872	17458.902000	953.851563	248.286972
2840.922872	17458.902000	952.679688	23.516512
2840.922872	17458.902000	951.506836	97.260536
2840.922872	17458.902000	950.333984	67.426270
2840.922872	17458.902000	949.160156	98.172714
2840.922872	17458.902000	947.986328	171.914932
2840.922872	17458.902000	946.812500	18.921417
2840.922872	17458.902000	945.638672	-95.469048
2840.922872	17458.902000	944.464844	40.255177
2840.922872	17458.902000	943.290039	-9.802702
2840.922872	17458.902000	942.115234	-111.063499
2840.922872	17458.902000	940.940430	196.865250
2840.922872	17458.902000	939.764648	35.507584
2840.922872	17458.902000	938.588867	-54.708656
2840.922872	17458.902000	937.413086	159.360931
2840.922872	17458.902000	936.237305	-13.616776
2840.922872	17458.902000	935.060547	25.830347
2840.922872	17458.902000	933.883789	112.303070
2840.922872	17458.902000	932.707031	-33.821804
2840.922872	17458.902000	931.530273	16.880358
2840.922872	17458.902000	930.352539	121.024162
2840.922872	17458.902000	929.175781	151.475571
2840.922872	17458.902000	927.998047	239.969757
2840.922872	17458.902000	926.819336	-2.296233
2840.922872	17458.902000	925.641602	-97.038391
2840.922872	17458.902000	924.462891	-77.864449
2840.922872	17458.902000	923.284180	6.045253
2840.922872	17458.902000	922.104492	29.608814
2840.922872	17458.902000	920.924805	-96.444908
2840.922872	17458.902000	919.746094	-91.342041
2840.922872	17458.902000	919.551758	10.506441
2840.922872	17458.902000	918.386719	53.998486
2840.922872	17458.902000	917.220703	17.124435
2840.922872	17458.902000	916.054688	105.163033
2840.922872	17458.902000	914.887695	39.249001
2840.922872	17458.902000	913.721680	-100.257530
2840.922872	17458.902000	912.554688	27.801287
2840.922872	17458.902000	911.387695	-47.057945
2840.922872	17458.902000	910.220703	-75.116272
2840.922872	17458.902000	909.052734	57.233532
2840.922872	17458.902000	907.885742	-64.454338
2840.922872	17458.902000	906.717773	58.871719
2840.922872	17458.902000	905.548828	93.052147
2840.922872	17458.902000	904.380859	-53.142902
2840.922872	17458.902000	903.211914	-114.725479
2840.922872	17458.902000	902.042969	61.800186
2840.922872	17458.902000	900.874023	98.052902
2840.922872	17458.902000	899.704102	-1.428739
2840.922872	17458.902000	898.535156	-83.113098
2840.922872	17458.902000	897.365234	157.620773
2840.922872	17458.902000	896.194336	-37.499542
2840.922872	17458.902000	895.024414	203.060669
2840.922872	17458.902000	893.853516	79.053535
2840.922872	17458.902000	892.682617	68.371460
2840.922872	17458.902000	891.511719	115.413498
2840.922872	17458.902000	890.340820	80.229065
2840.922872	17458.902000	889.168945	144.945328
2840.922872	17458.902000	887.997070	-23.492954
2840.922872	17458.902000	886.825195	41.145771
2840.922872	17458.902000	885.653320	154.539322
2840.922872	17458.902000	884.480469	-71.586166
2840.922872	17458.902000	883.307617	101.602371
2840.922872	17458.902000	882.134766	115.010757
2840.922872	17458.902000	880.961914	-13.525465
2840.922872	17458.902000	879.788086	92.931099
2840.922872	17458.902000	878.614258	212.601334
2840.922872	17458.902000	877.440430	126.110756
2840.922872	17458.902000	876.266602	126.015610
2840.922872	17458.902000	875.091797	196.759979
2840.922872	17458.902000	873.916992	65.917374
2840.922872	17458.902000	872.742188	174.201233
2840.922872	17458.902000	871.567383	52.187290
2840.922872	17458.902000	870.391602	-12.275255
2840.922872	17458.902000	869.215820	-12.587358
2840.922872	17458.902000	868.040039	-43.913532
2840.922872	17458.902000	866.864258	97.246742
2840.922872	17458.902000	865.687500	118.895828
2840.922872	17458.902000	864.510742	102.907333
2840.922872	17458.902000	863.333984	-1.536117
2840.922872	17458.902000	862.157227	88.492264
2840.922872	17458.902000	860.979492	-113.213318
2840.922872	17458.902000	859.802734	82.741661
2840.922872	17458.902000	858.625000	-116.765877
2840.922872	17458.902000	857.446289	23.816191
2840.922872	17458.902000	856.268555	34.035480
2840.922872	17458.902000	855.089844	-15.390532
2840.922872	17458.902000	853.911133	-11.883821
2840.922872	17458.902000	852.731445	-131.980072
2840.922872	17458.902000	851.552734	-128.551285
2840.922872	17458.902000	850.373047	-72.242630
2840.922872	17458.902000	849.193359	23.680840
2840.922872	17458.902000	848.013672	-109.756958
2840.922872	17458.902000	846.833008	-22.784304
2840.922872	17458.902000	845.652344	-10.822889
2840.922872	17458.902000	844.471680	-89.250145
2840.922872	17458.902000	843.291016	-112.631500
2840.922872	17458.902000	842.110352	-248.372696
2840.922872	17458.902000	840.928711	-183.748154
2840.922872	17458.902000	839.747070	-72.977684
2840.922872	17458.902000	838.564453	-248.423187
2840.922872	17458.902000	837.382813	-95.990242
2840.922872	17458.902000	836.200195	-38.274815
2840.922872	17458.902000	835.017578	45.753494
2840.922872	17458.902000	833.834961	-0.057155
2840.922872	17458.902000	832.651367	112.394958
2840.922872	17458.902000	831.467773	-28.049080
2840.922872	17458.902000	830.284180	-60.806728
2840.922872	17458.902000	829.100586	-62.849648
2840.922872	17458.902000	827.916992	-12.229078
2840.922872	17458.902000	826.732422	5.364956
2840.922872	17458.902000	825.547852	-29.812136
2840.922872	17458.902000	824.363281	73.276299
2840.922872	17458.902000	823.177734	235.526031
2840.922872	17458.902000	821.992188	134.298111
2840.922872	17458.902000	820.806641	197.605743
2840.922872	17458.902000	819.621094	129.203857
2840.922872	17458.902000	818.434570	91.470963
2840.922872	17458.902000	817.249023	165.516876
2840.922872	17458.902000	816.062500	145.198563
2840.922872	17458.902000	814.875000	223.455872
2840.922872	17458.902000	813.688477	281.890686
2840.922872	17458.902000	812.500977	151.814209
2840.922872	17458.902000	811.313477	157.532867
2840.922872	17458.902000	810.125977	-18.590971
2840.922872	17458.902000	808.937500	234.446259
2840.922872	17458.902000	807.749023	218.047791
2840.922872	17458.902000	806.560547	17.737665
2840.922872	17458.902000	805.372070	-14.067028
2840.922872	17458.902000	804.182617	19.704453
2840.922872	17458.902000	802.994141	184.628693
2840.922872	17458.902000	801.803711	67.309593
2840.922872	17458.902000	800.614258	133.624466
2840.922872	17458.902000	799.424805	97.100067
2840.922872	17458.902000	798.234375	145.752670
2840.922872	17458.902000	797.043945	196.496841
2840.922872	17458.902000	795.852539	210.008438
2840.922872	17458.902000	794.662109	39.973286
2840.922872	17458.902000	793.470703	234.609573
2840.922872	17458.902000	792.279297	217.317505
2840.922872	17458.902000	791.087891	62.440994
2840.922872	17458.902000	789.895508	291.644897
2840.922872	17458.902000	788.703125	175.939941
2840.922872	17458.902000	787.510742	158.371277
2840.922872	17458.902000	786.318359	31.684725
2840.922872	17458.902000	785.125000	9.639162
2840.922872	17458.902000	783.931641	292.735352
2840.922872	17458.902000	782.738281	113.558022
2840.922872	17458.902000	781.544922	239.460464
2840.922872	17458.902000	780.350586	247.581207
2840.922872	17458.902000	779.156250	185.916931
2840.922872	17458.902000	777.961914	246.156876
2840.922872	17458.902000	776.767578	158.232513
2840.922872	17458.902000	775.572266	122.510666
2840.922872	17458.902000	774.376953	217.312531
2840.922872	17458.902000	773.181641	109.626717
2840.922872	17458.902000	771.986328	189.003372
2840.922872	17458.902000	770.790039	283.492249
2840.922872	17458.902000	769.593750	253.907471
2840.922872	17458.902000	768.397461	191.641541
2840.922872	17458.902000	767.201172	290.177734
2840.922872	17458.902000	766.003906	208.208679
2840.922872	17458.902000	764.806641	295.674286
2840.922872	17458.902000	763.609375	194.025696
2840.922872	17458.902000	762.412109	70.619301
2840.922872	17458.902000	761.213867	177.358414
2840.922872	17458.902000	760.015625	264.433319
2840.922872	17458.902000	758.817383	177.745331
2840.922872	17458.902000	757.618164	101.859756
2840.922872	17458.902000	756.419922	-60.859352
2840.922872	17458.902000	755.220703	171.204346
2840.922872	17458.902000	754.021484	23.555952
2840.922872	17458.902000	752.821289	-41.718956
2840.922872	17458.902000	751.621094	-15.996964
2840.922872	17458.902000	750.420898	-25.045551
2840.922872	17458.902000	749.220703	50.340466
2840.922872	17458.902000	748.020508	45.453201
2840.922872	17458.902000	746.819336	-124.136169
2840.922872	17458.902000	745.618164	187.029648
2840.922872	17458.902000	744.416992	188.367844
2840.922872	17458.902000	743.214844	224.256531
2840.922872	17458.902000	742.012695	201.615692
2840.922872	17458.902000	740.810547	358.498260
2840.922872	17458.902000	739.608398	435.192566
2840.922872	17458.902000	738.406250	632.897034
2840.922872	17458.902000	737.203125	560.129333
2840.922872	17458.902000	736.000000	960.790222
2840.922872	17458.902000	734.795898	1168.823853
2840.922872	17458.902000	733.592773	1348.599609
2840.922872	17458.902000	732.388672	1422.347290
2840.922872	17458.902000	731.184570	1541.349976
2840.922872	17458.902000	729.979492	1437.767334
2840.922872	17458.902000	728.775391	1159.251587
2840.922872	17458.902000	727.570313	973.600403
2840.922872	17458.902000	726.365234	768.524963
2840.922872	17458.902000	725.160156	487.929871
2840.922872	17458.902000	723.954102	354.081299
2840.922872	17458.902000	722.748047	177.071350
2840.922872	17458.902000	721.541992	245.909256
2840.922872	17458.902000	720.334961	70.997711
2840.922872	17458.902000	719.128906	85.787682
2840.922872	17458.902000	717.921875	35.835976
2840.922872	17458.902000	716.714844	33.237030
2840.922872	17458.902000	715.506836	13.325999
2840.922872	17458.902000	714.298828	148.429901
2840.922872	17458.902000	713.090820	27.147966
2840.922872	17458.902000	711.882813	-44.637348
2840.922872	17458.902000	710.674805	-99.242790
2840.922872	17458.902000	709.465820	-164.661041
2840.922872	17458.902000	708.256836	-4.202880
2840.922872	17458.902000	707.047852	22.747112
2840.922872	17458.902000	705.837891	64.667839
2840.922872	17458.902000	704.627930	119.404488
2840.922872	17458.902000	703.417969	-96.825409
2840.922872	17458.902000	702.208008	-128.186600
2840.922872	17458.902000	700.998047	-50.005962
2840.922872	17458.902000	699.787109	8.735293
2840.922872	17458.902000	698.576172	37.315800
2840.922872	17458.902000	697.364258	3.536983
2840.922872	17458.902000	696.153320	-36.726925
2840.922872	17458.902000	694.941406	32.438587
2840.922872	17458.902000	693.729492	-162.469315
2840.922872	17458.902000	692.516602	-209.303619
2840.922872	17458.902000	691.304688	22.715645
2840.922872	17458.902000	690.091797	40.089584
2840.922872	17458.902000	688.878906	-154.896774
2840.922872	17458.902000	687.665039	44.622738
2840.922872	17458.902000	686.451172	-15.359710
2840.922872	17458.902000	685.237305	246.084152
2840.922872	17458.902000	684.023438	224.542267
2840.922872	17458.902000	682.809570	252.225632
2840.922872	17458.902000	681.594727	144.913895
2840.922872	17458.902000	680.379883	178.918350
2840.922872	17458.902000	679.165039	219.281143
2840.922872	17458.902000	677.949219	137.573807
2840.922872	17458.902000	676.733398	242.022888
2840.922872	17458.902000	675.517578	273.641235
2840.922872	17458.902000	674.301758	202.530640
2840.922872	17458.902000	673.084961	253.295776
2840.922872	17458.902000	671.869141	182.131195
2840.922872	17458.902000	670.651367	27.576073
2840.922872	17458.902000	669.434570	281.253876
2840.922872	17458.902000	668.216797	143.757431
2840.922872	17458.902000	667.000000	209.232819
2840.922872	17458.902000	665.781250	249.002121
2840.922872	17458.902000	664.563477	243.882553
2840.922872	17458.902000	663.344727	228.049850
2840.922872	17458.902000	662.125977	376.546509
2840.922872	17458.902000	660.907227	228.318268
2840.922872	17458.902000	659.688477	261.476807
2840.922872	17458.902000	658.468750	153.800552
2840.922872	17458.902000	657.249023	67.467903
2840.922872	17458.902000	656.029297	202.898254
2840.922872	17458.902000	654.808594	331.844635
2840.922872	17458.902000	653.587891	239.054855
2840.922872	17458.902000	652.367188	240.041153
2840.922872	17458.902000	651.146484	211.180954
2840.922872	17458.902000	649.924805	135.447983
2840.922872	17458.902000	648.704102	283.336731
2840.922872	17458.902000	647.482422	139.456223
2840.922872	17458.902000	646.259766	168.035538
2840.922872	17458.902000	645.037109	219.999435
2840.922872	17458.902000	643.815430	108.100929
2840.922872	17458.902000	642.591797	196.190750
2840.922872	17458.902000	641.369141	-7.132446
2840.922872	17458.902000	640.145508	42.655415
2840.922872	17458.902000	638.921875	60.527081
2840.922872	17458.902000	637.698242	-59.766830
2840.922872	17458.902000	636.474609	68.615120
2840.922872	17458.902000	635.250000	118.327408
2840.922872	17458.902000	634.025391	-1.910118
2840.922872	17458.902000	632.800781	111.509651
2840.922872	17458.902000	631.575195	131.458008
2840.922872	17458.902000	630.349609	7.055234
2840.922872	17458.902000	629.124023	203.184814
2840.922872	17458.902000	627.898438	-16.647699
2840.922872	17458.902000	626.671875	-34.846310
2840.922872	17458.902000	625.445313	139.984634
2840.922872	17458.902000	624.218750	106.944466
2840.922872	17458.902000	622.992188	-12.989559
2840.922872	17458.902000	621.764648	85.461258
2840.922872	17458.902000	620.537109	160.579254
2840.922872	17458.902000	619.309570	28.050688
2840.922872	17458.902000	618.081055	75.649437
2840.922872	17458.902000	616.852539	44.893154
2840.922872	17458.902000	615.624023	48.054043
2840.922872	17458.902000	614.395508	85.112320
2840.922872	17458.902000	613.166992	115.836288
2840.922872	17458.902000	611.937500	-48.102577
2840.922872	17458.902000	610.708008	-129.429901
2840.922872	17458.902000	609.477539	47.352013
2840.922872	17458.902000	608.248047	105.678673
2840.922872	17458.902000	607.017578	60.416870
2840.922872	17458.902000	605.787109	-41.857395
2840.922872	17458.902000	604.555664	56.714073
2840.922872	17458.902000	603.325195	-132.058517
2840.922872	17458.902000	602.093750	-69.331551
2840.922872	17458.902000	600.861328	113.793282
2840.922872	17458.902000	599.629883	24.506783
2840.922872	17458.902000	598.397461	-140.695816
2840.922872	17458.902000	597.165039	-145.367737
2840.922872	17458.902000	595.932617	61.035671
2840.922872	17458.902000	594.699219	-72.266769
2840.922872	17458.902000	593.465820	-38.820602
2840.922872	17458.902000	592.232422	-243.628113
2840.922872	17458.902000	590.999023	-32.935726
2840.922872	17458.902000	589.764648	-96.307648
2840.922872	17458.902000	588.530273	57.483772
2840.922872	17458.902000	587.295898	97.493828
2840.922872	17458.902000	586.061523	105.955521
2840.922872	17458.902000	584.826172	240.846817
2840.922872	17458.902000	583.590820	131.489822
2840.922872	17458.902000	582.355469	79.093079
2840.922872	17458.902000	581.119141	98.351486
2840.922872	17458.902000	579.882813	48.232426
2840.922872	17458.902000	578.646484	240.161194
2840.922872	17458.902000	577.410156	78.704674
2840.922872	17458.902000	576.172852	87.736633
2840.922872	17458.902000	574.935547	10.641134
2840.922872	17458.902000	573.698242	49.276970
2840.922872	17458.902000	572.460938	-4.493173
2840.922872	17458.902000	571.222656	154.064041
2840.922872	17458.902000	569.984375	16.432909
2840.922872	17458.902000	568.746094	126.785591
2840.922872	17458.902000	567.506836	295.972748
2840.922872	17458.902000	566.267578	34.797733
2840.922872	17458.902000	565.028320	170.531250
2840.922872	17458.902000	563.789063	178.290680
2840.922872	17458.902000	562.548828	-25.767466
2840.922872	17458.902000	561.309570	139.543335
2840.922872	17458.902000	560.068359	170.653412
2840.922872	17458.902000	558.828125	-28.788324
2840.922872	17458.902000	557.586914	-22.614237
2840.922872	17458.902000	556.345703	73.778908
2840.922872	17458.902000	555.104492	-148.266159
2840.922872	17458.902000	553.863281	-131.292511
2840.922872	17458.902000	552.621094	3.065728
2840.922872	17458.902000	551.378906	-245.738098
2840.922872	17458.902000	550.136719	96.061409
2840.922872	17458.902000	548.893555	-112.678528
2840.922872	17458.902000	547.650391	-187.291077
2840.922872	17458.902000	546.407227	-60.907459
2840.922872	17458.902000	545.164063	-143.651093
2840.922872	17458.902000	543.919922	-121.686089
2840.922872	17458.902000	542.675781	-179.074677
2840.922872	17458.902000	541.431641	-198.701187
2840.922872	17458.902000	540.186523	-172.231537
2840.922872	17458.902000	538.941406	-220.886597
2840.922872	17458.902000	537.696289	50.224556
2840.922872	17458.902000	536.451172	81.134392
2840.922872	17458.902000	535.205078	-42.387379
2840.922872	17458.902000	533.959961	105.667236
2840.922872	17458.902000	532.712891	11.637486
2840.922872	17458.902000	531.466797	42.973236
2840.922872	17458.902000	530.219727	47.283318
2840.922872	17458.902000	528.972656	49.618183
2840.922872	17458.902000	527.725586	75.004013
2840.922872	17458.902000	526.478516	-1.678580
2840.922872	17458.902000	525.230469	32.268082
2840.922872	17458.902000	523.982422	32.965122
2840.922872	17458.902000	522.734375	79.614243
2840.922872	17458.902000	521.485352	-36.144444
2840.922872	17458.902000	520.236328	37.796047
2840.922872	17458.902000	518.987305	26.436018
2840.922872	17458.902000	517.737305	102.631454
2840.922872	17458.902000	516.488281	120.619339
2840.922872	17458.902000	515.238281	119.977539
2840.922872	17458.902000	513.988281	150.651093
2840.922872	17458.902000	512.737305	110.691322
2840.922872	17458.902000	511.486328	114.527298
2840.922872	17458.902000	510.235352	-145.603928
2840.922872	17458.902000	508.984375	-33.410671
2840.922872	17458.902000	507.732422	-27.161966
2840.922872	17458.902000	506.480469	-122.636429
2840.922872	17458.902000	505.228516	43.792309
2840.922872	17458.902000	503.976563	100.161644
2840.922872	17458.902000	502.723633	5.011110
2840.922872	17458.902000	501.470703	36.638550
2840.922872	17458.902000	500.217773	192.885773
2840.922872	17458.902000	498.963867	237.091080
2840.922872	17458.902000	497.709961	73.883812
2840.922872	17458.902000	496.456055	282.142609
2840.922872	17458.902000	495.202148	181.380768
2840.922872	17458.902000	493.947266	174.048721
2840.922872	17458.902000	492.692383	156.433380
2840.922872	17458.902000	491.437500	207.294785
2840.922872	17458.902000	490.181641	440.554901
2840.922872	17458.902000	488.926758	348.529449
2840.922872	17458.902000	487.670898	527.943909
2840.922872	17458.902000	486.414063	380.159546
2840.922872	17458.902000	485.158203	327.735565
2840.922872	17458.902000	483.901367	370.606415
2840.922872	17458.902000	482.644531	336.944336
2840.922872	17458.902000	481.386719	580.594604
2840.922872	17458.902000	480.128906	424.953888
2840.922872	17458.902000	478.871094	250.811295
2840.922872	17458.902000	477.613281	384.865082
2840.922872	17458.902000	476.355469	370.056519
2840.922872	17458.902000	475.096680	419.356445
2840.922872	17458.902000	473.837891	458.329590
2840.922872	17458.902000	472.578125	334.105713
2840.922872	17458.902000	471.319336	408.234161
2840.922872	17458.902000	470.059570	449.304871
2840.922872	17458.902000	468.799805	370.622131
2840.922872	17458.902000	467.539063	242.440262
2840.922872	17458.902000	466.278320	376.396301
2840.922872	17458.902000	465.017578	438.075836
2840.922872	17458.902000	463.756836	406.891449
2840.922872	17458.902000	462.495117	425.200409
2840.922872	17458.902000	461.233398	406.363739
2840.922872	17458.902000	459.971680	414.304413
2840.922872	17458.902000	458.709961	444.877777
2840.922872	17458.902000	457.447266	491.881775
2840.922872	17458.902000	456.184570	530.577393
2840.922872	17458.902000	454.921875	476.518707
2840.922872	17458.902000	453.658203	430.660339
2840.922872	17458.902000	452.394531	584.453369
2840.922872	17458.902000	451.130859	482.875214
2840.922872	17458.902000	449.867188	506.790009
2840.922872	17458.902000	448.602539	575.869202
2840.922872	17458.902000	447.337891	692.133728
2840.922872	17458.902000	446.073242	760.943298
2840.922872	17458.902000	444.807617	584.938293
2840.922872	17458.902000	443.542969	776.849792
2840.922872	17458.902000	442.276367	721.928284
2840.922872	17458.902000	441.010742	660.729370
2840.922872	17458.902000	439.744141	813.061890
2840.922872	17458.902000	438.478516	852.211670
2840.922872	17458.902000	437.210938	692.002502
2840.922872	17458.902000	435.944336	595.334290
2840.922872	17458.902000	434.676758	675.045532
2840.922872	17458.902000	433.409180	668.345703
2840.922872	17458.902000	432.141602	718.895447
2840.922872	17458.902000	430.873047	767.163879
2840.922872	17458.902000	429.604492	733.162170
2840.922872	17458.902000	428.335938	676.393127
2840.922872	17458.902000	427.067383	842.845642
2840.922872	17458.902000	425.797852	748.699402
2840.922872	17458.902000	424.528320	795.712463
2840.922872	17458.902000	423.258789	766.638916
2840.922872	17458.902000	421.988281	837.650269
2840.922872	17458.902000	420.717773	973.862183
2840.922872	17458.902000	419.447266	827.195984
2840.922872	17458.902000	418.175781	983.195068
2840.922872	17458.902000	416.905273	1153.124756
2840.922872	17458.902000	415.633789	966.655579
2840.922872	17458.902000	414.362305	1086.727661
2840.922872	17458.902000	413.089844	840.327881
2840.922872	17458.902000	411.817383	828.778076
2840.922872	17458.902000	410.544922	959.928955
2840.922872	17458.902000	409.272461	782.026489
2840.922872	17458.902000	407.999023	650.773132
2840.922872	17458.902000	406.725586	843.944336
2840.922872	17458.902000	405.452148	713.900757
2840.922872	17458.902000	404.177734	859.101013
2840.922872	17458.902000	402.903320	738.378540
2840.922872	17458.902000	401.628906	680.491760
2840.922872	17458.902000	400.354492	760.884277
2840.922872	17458.902000	399.079102	565.302612
2840.922872	17458.902000	397.803711	469.216461
2840.922872	17458.902000	396.528320	386.898956
2840.922872	17458.902000	395.251953	432.488159
2840.922872	17458.902000	393.976563	575.326111
2840.922872	17458.902000	392.700195	485.178680
2840.922872	17458.902000	391.422852	439.271881
2840.922872	17458.902000	390.145508	610.716309
2840.922872	17458.902000	388.869141	514.662415
2840.922872	17458.902000	387.590820	580.854675
2840.922872	17458.902000	386.313477	369.498932
2840.922872	17458.902000	385.035156	466.882294
2840.922872	17458.902000	383.756836	616.412598
2840.922872	17458.902000	382.478516	437.616547
2840.922872	17458.902000	381.199219	544.914246
2840.922872	17458.902000	379.919922	588.358948
2840.922872	17458.902000	378.640625	492.751129
2840.922872	17458.902000	377.360352	363.842407
2840.922872	17458.902000	376.080078	508.502563
2840.922872	17458.902000	374.799805	329.215973
2840.922872	17458.902000	373.519531	303.517517
2840.922872	17458.902000	372.238281	319.576233
2840.922872	17458.902000	370.957031	283.963745
2840.922872	17458.902000	369.675781	344.880310
2840.922872	17458.902000	368.394531	368.294525
2840.922872	17458.902000	367.112305	285.202789
2840.922872	17458.902000	365.830078	174.787964
2840.922872	17458.902000	364.546875	239.841324
2840.922872	17458.902000	363.264648	202.474152
2840.922872	17458.902000	361.981445	155.940491
2840.922872	17458.902000	360.698242	77.952637
2840.922872	17458.902000	359.414063	327.153259
2840.922872	17458.902000	358.129883	194.248016
2840.922872	17458.902000	356.845703	274.966187
2840.922872	17458.902000	355.561523	330.185333
2840.922872	17458.902000	354.276367	473.249878
2840.922872	17458.902000	352.991211	461.204865
2840.922872	17458.902000	351.706055	668.519958
2840.922872	17458.902000	350.420898	751.068970
2840.922872	17458.902000	349.134766	718.987549
2840.922872	17458.902000	347.848633	703.818787
2840.922872	17458.902000	346.561523	646.851074
2840.922872	17458.902000	345.275391	441.019257
2840.922872	17458.902000	343.988281	609.786499
2840.922872	17458.902000	342.700195	570.931519
2840.922872	17458.902000	341.413086	231.709991
2840.922872	17458.902000	340.125000	321.354645
2840.922872	17458.902000	338.836914	328.707001
2840.922872	17458.902000	337.548828	116.509903
2840.922872	17458.902000	336.259766	-6.340153
2840.922872	17458.902000	334.970703	293.086975
2840.922872	17458.902000	333.681641	72.281609
2840.922872	17458.902000	332.391602	31.454447
2840.922872	17458.902000	331.101563	-6.961485
2840.922872	17458.902000	329.811523	59.834141
2840.922872	17458.902000	328.521484	80.559456
2840.922872	17458.902000	327.230469	-112.111862
2840.922872	17458.902000	325.939453	-14.284573
2840.922872	17458.902000	324.648438	166.332169
2840.922872	17458.902000	323.356445	-59.818066
2840.922872	17458.902000	322.064453	-36.001705
2840.922872	17458.902000	320.772461	159.072571
2840.922872	17458.902000	319.480469	-24.209330
2840.922872	17458.902000	318.187500	-48.410049
2840.922872	17458.902000	316.894531	50.184383
2840.922872	17458.902000	315.601563	-102.658745
2840.922872	17458.902000	314.307617	22.015516
2840.922872	17458.902000	313.013672	-72.541801
2840.922872	17458.902000	311.719727	-171.136093
2840.922872	17458.902000	310.425781	-121.060150
2840.922872	17458.902000	309.130859	-145.537659
2840.922872	17458.902000	307.835938	40.767067
2840.922872	17458.902000	306.541016	-62.390316
2840.922872	17458.902000	305.245117	55.077686
2840.922872	17458.902000	303.949219	77.898872
2840.922872	17458.902000	302.653320	132.550232
2840.922872	17458.902000	301.356445	42.315048
2840.922872	17458.902000	300.060547	172.542053
2840.922872	17458.902000	298.763672	270.168549
