#X		#Y		#Wave		#Intensity
2849.840266	17432.460000	2000.043945	25.395245
2849.840266	17432.460000	1999.080078	-42.375465
2849.840266	17432.460000	1998.116211	10.337228
2849.840266	17432.460000	1997.151367	62.813854
2849.840266	17432.460000	1996.186523	-58.381580
2849.840266	17432.460000	1995.222656	53.118618
2849.840266	17432.460000	1994.256836	-85.771294
2849.840266	17432.460000	1993.291992	-21.748379
2849.840266	17432.460000	1992.327148	59.394749
2849.840266	17432.460000	1991.361328	-37.899567
2849.840266	17432.460000	1990.395508	-51.185295
2849.840266	17432.460000	1989.429688	-20.094318
2849.840266	17432.460000	1988.463867	70.197899
2849.840266	17432.460000	1987.497070	-20.269087
2849.840266	17432.460000	1986.531250	49.895134
2849.840266	17432.460000	1985.564453	-1.271202
2849.840266	17432.460000	1984.597656	-79.754173
2849.840266	17432.460000	1983.630859	-47.116577
2849.840266	17432.460000	1982.664063	-4.736771
2849.840266	17432.460000	1981.696289	81.976456
2849.840266	17432.460000	1980.728516	94.426056
2849.840266	17432.460000	1979.761719	-14.271529
2849.840266	17432.460000	1978.792969	67.107346
2849.840266	17432.460000	1977.825195	106.375740
2849.840266	17432.460000	1976.857422	41.848930
2849.840266	17432.460000	1975.888672	-30.156395
2849.840266	17432.460000	1974.919922	18.682922
2849.840266	17432.460000	1973.951172	3.268295
2849.840266	17432.460000	1972.982422	-64.027046
2849.840266	17432.460000	1972.013672	-0.669817
2849.840266	17432.460000	1971.043945	102.038063
2849.840266	17432.460000	1970.075195	133.138916
2849.840266	17432.460000	1969.105469	-37.961102
2849.840266	17432.460000	1968.135742	54.625553
2849.840266	17432.460000	1967.165039	70.731064
2849.840266	17432.460000	1966.195313	153.284409
2849.840266	17432.460000	1965.224609	73.189384
2849.840266	17432.460000	1964.253906	-56.181229
2849.840266	17432.460000	1963.283203	-20.593817
2849.840266	17432.460000	1962.312500	-63.840500
2849.840266	17432.460000	1961.341797	18.404434
2849.840266	17432.460000	1960.370117	41.518105
2849.840266	17432.460000	1959.399414	76.885643
2849.840266	17432.460000	1958.427734	104.822891
2849.840266	17432.460000	1957.455078	-56.656139
2849.840266	17432.460000	1956.483398	3.195227
2849.840266	17432.460000	1955.511719	94.954559
2849.840266	17432.460000	1954.539063	51.462894
2849.840266	17432.460000	1953.566406	52.198063
2849.840266	17432.460000	1952.593750	-23.258829
2849.840266	17432.460000	1951.621094	90.451561
2849.840266	17432.460000	1950.647461	61.643051
2849.840266	17432.460000	1949.674805	121.235962
2849.840266	17432.460000	1948.701172	1.557826
2849.840266	17432.460000	1947.727539	93.023666
2849.840266	17432.460000	1946.753906	108.360886
2849.840266	17432.460000	1945.780273	47.613724
2849.840266	17432.460000	1944.805664	109.551338
2849.840266	17432.460000	1943.831055	51.265289
2849.840266	17432.460000	1942.856445	-95.292900
2849.840266	17432.460000	1941.881836	47.542576
2849.840266	17432.460000	1940.907227	124.131310
2849.840266	17432.460000	1939.932617	36.465160
2849.840266	17432.460000	1938.957031	34.606369
2849.840266	17432.460000	1937.981445	96.456703
2849.840266	17432.460000	1937.005859	62.747360
2849.840266	17432.460000	1936.030273	41.302727
2849.840266	17432.460000	1935.054688	85.991577
2849.840266	17432.460000	1934.078125	5.801205
2849.840266	17432.460000	1933.101563	-20.495579
2849.840266	17432.460000	1932.125000	-24.745731
2849.840266	17432.460000	1931.148438	27.297487
2849.840266	17432.460000	1930.171875	-109.053558
2849.840266	17432.460000	1929.194336	-32.530781
2849.840266	17432.460000	1928.217773	41.531925
2849.840266	17432.460000	1927.240234	69.119827
2849.840266	17432.460000	1926.262695	94.267303
2849.840266	17432.460000	1925.284180	-17.461542
2849.840266	17432.460000	1924.306641	71.262421
2849.840266	17432.460000	1923.328125	-25.729391
2849.840266	17432.460000	1922.350586	70.323875
2849.840266	17432.460000	1921.372070	-14.386028
2849.840266	17432.460000	1920.392578	86.545395
2849.840266	17432.460000	1919.414063	-117.737915
2849.840266	17432.460000	1918.434570	-14.348425
2849.840266	17432.460000	1917.456055	10.920641
2849.840266	17432.460000	1916.476563	-24.807343
2849.840266	17432.460000	1915.497070	-36.105812
2849.840266	17432.460000	1914.516602	-15.671384
2849.840266	17432.460000	1913.537109	31.602324
2849.840266	17432.460000	1912.556641	34.986160
2849.840266	17432.460000	1911.576172	-73.756607
2849.840266	17432.460000	1910.595703	-50.816612
2849.840266	17432.460000	1909.615234	-18.117924
2849.840266	17432.460000	1908.633789	92.557312
2849.840266	17432.460000	1907.653320	152.052124
2849.840266	17432.460000	1906.671875	-0.356994
2849.840266	17432.460000	1905.690430	-69.894363
2849.840266	17432.460000	1904.708984	-27.388985
2849.840266	17432.460000	1903.727539	95.450722
2849.840266	17432.460000	1902.745117	35.725380
2849.840266	17432.460000	1901.762695	-45.859367
2849.840266	17432.460000	1900.780273	-42.243698
2849.840266	17432.460000	1899.797852	-75.098289
2849.840266	17432.460000	1898.815430	11.245025
2849.840266	17432.460000	1897.832031	-21.572643
2849.840266	17432.460000	1896.849609	86.642593
2849.840266	17432.460000	1895.866211	46.564354
2849.840266	17432.460000	1894.882813	-124.712341
2849.840266	17432.460000	1893.898438	-106.390648
2849.840266	17432.460000	1892.915039	60.126186
2849.840266	17432.460000	1891.930664	-38.146614
2849.840266	17432.460000	1890.947266	48.188625
2849.840266	17432.460000	1889.962891	-67.012032
2849.840266	17432.460000	1888.977539	-34.080814
2849.840266	17432.460000	1887.993164	-10.856274
2849.840266	17432.460000	1887.007813	70.609001
2849.840266	17432.460000	1886.023438	-8.066355
2849.840266	17432.460000	1885.038086	-1.803798
2849.840266	17432.460000	1884.051758	35.995255
2849.840266	17432.460000	1883.066406	47.118767
2849.840266	17432.460000	1882.081055	19.458979
2849.840266	17432.460000	1881.094727	23.328564
2849.840266	17432.460000	1880.108398	97.483459
2849.840266	17432.460000	1879.122070	108.622261
2849.840266	17432.460000	1878.135742	-32.850891
2849.840266	17432.460000	1877.148438	-106.448051
2849.840266	17432.460000	1876.162109	100.889061
2849.840266	17432.460000	1875.174805	-23.537348
2849.840266	17432.460000	1874.187500	14.271242
2849.840266	17432.460000	1873.199219	100.473167
2849.840266	17432.460000	1872.211914	-52.908047
2849.840266	17432.460000	1871.223633	86.504532
2849.840266	17432.460000	1870.236328	-16.016582
2849.840266	17432.460000	1869.248047	-87.059059
2849.840266	17432.460000	1868.258789	18.434242
2849.840266	17432.460000	1867.270508	121.470421
2849.840266	17432.460000	1866.282227	-17.235329
2849.840266	17432.460000	1865.292969	-18.146786
2849.840266	17432.460000	1864.303711	-125.369301
2849.840266	17432.460000	1863.314453	16.258242
2849.840266	17432.460000	1862.324219	34.653141
2849.840266	17432.460000	1861.334961	11.985090
2849.840266	17432.460000	1860.344727	47.263767
2849.840266	17432.460000	1859.354492	128.385529
2849.840266	17432.460000	1858.364258	26.051737
2849.840266	17432.460000	1857.374023	97.480377
2849.840266	17432.460000	1856.383789	-50.663067
2849.840266	17432.460000	1855.392578	13.498605
2849.840266	17432.460000	1854.401367	26.983099
2849.840266	17432.460000	1853.410156	21.161955
2849.840266	17432.460000	1852.418945	-8.775182
2849.840266	17432.460000	1851.426758	101.078873
2849.840266	17432.460000	1850.435547	107.257988
2849.840266	17432.460000	1849.443359	96.555321
2849.840266	17432.460000	1848.451172	88.251106
2849.840266	17432.460000	1847.458984	-1.952327
2849.840266	17432.460000	1846.466797	47.523357
2849.840266	17432.460000	1845.473633	65.665337
2849.840266	17432.460000	1844.480469	-58.234146
2849.840266	17432.460000	1843.487305	159.631516
2849.840266	17432.460000	1842.494141	213.777420
2849.840266	17432.460000	1841.500977	29.718687
2849.840266	17432.460000	1840.506836	182.441406
2849.840266	17432.460000	1839.513672	32.081913
2849.840266	17432.460000	1838.519531	64.485229
2849.840266	17432.460000	1837.525391	24.736010
2849.840266	17432.460000	1836.530273	54.676727
2849.840266	17432.460000	1835.536133	-4.329051
2849.840266	17432.460000	1834.541016	42.372623
2849.840266	17432.460000	1833.545898	177.906540
2849.840266	17432.460000	1832.550781	99.617676
2849.840266	17432.460000	1831.555664	114.976013
2849.840266	17432.460000	1830.560547	0.661007
2849.840266	17432.460000	1829.564453	61.577976
2849.840266	17432.460000	1828.568359	24.049625
2849.840266	17432.460000	1827.572266	48.887749
2849.840266	17432.460000	1826.576172	-31.867325
2849.840266	17432.460000	1825.580078	19.290550
2849.840266	17432.460000	1824.583008	-11.136751
2849.840266	17432.460000	1823.585938	61.508614
2849.840266	17432.460000	1822.588867	4.647852
2849.840266	17432.460000	1821.591797	177.852081
2849.840266	17432.460000	1820.594727	80.184624
2849.840266	17432.460000	1819.596680	35.223385
2849.840266	17432.460000	1818.599609	30.962437
2849.840266	17432.460000	1817.601563	5.110475
2849.840266	17432.460000	1816.603516	29.512152
2849.840266	17432.460000	1815.604492	-87.378029
2849.840266	17432.460000	1814.606445	-94.162346
2849.840266	17432.460000	1813.607422	11.486771
2849.840266	17432.460000	1812.608398	126.624596
2849.840266	17432.460000	1811.609375	62.268387
2849.840266	17432.460000	1810.610352	150.961014
2849.840266	17432.460000	1809.610352	60.234699
2849.840266	17432.460000	1808.611328	60.349487
2849.840266	17432.460000	1807.611328	93.883507
2849.840266	17432.460000	1806.611328	7.866932
2849.840266	17432.460000	1805.610352	132.104294
2849.840266	17432.460000	1804.610352	48.411217
2849.840266	17432.460000	1803.609375	48.299587
2849.840266	17432.460000	1802.608398	174.708481
2849.840266	17432.460000	1801.607422	136.277084
2849.840266	17432.460000	1800.606445	76.328644
2849.840266	17432.460000	1799.605469	142.849518
2849.840266	17432.460000	1798.603516	51.801678
2849.840266	17432.460000	1797.601563	-24.945808
2849.840266	17432.460000	1796.599609	105.811699
2849.840266	17432.460000	1795.597656	83.835503
2849.840266	17432.460000	1794.595703	-43.098446
2849.840266	17432.460000	1793.592773	27.833954
2849.840266	17432.460000	1792.589844	53.400974
2849.840266	17432.460000	1791.587891	5.032704
2849.840266	17432.460000	1790.583984	44.783543
2849.840266	17432.460000	1789.581055	39.207256
2849.840266	17432.460000	1788.577148	66.921875
2849.840266	17432.460000	1787.574219	187.445511
2849.840266	17432.460000	1786.570313	150.731445
2849.840266	17432.460000	1785.566406	11.621153
2849.840266	17432.460000	1784.561523	79.559944
2849.840266	17432.460000	1783.557617	21.308552
2849.840266	17432.460000	1782.552734	84.352150
2849.840266	17432.460000	1781.547852	45.036823
2849.840266	17432.460000	1780.542969	36.596687
2849.840266	17432.460000	1779.538086	99.433838
2849.840266	17432.460000	1778.532227	-56.516907
2849.840266	17432.460000	1777.527344	22.838408
2849.840266	17432.460000	1776.521484	87.845711
2849.840266	17432.460000	1775.515625	-96.695404
2849.840266	17432.460000	1774.508789	-24.681334
2849.840266	17432.460000	1773.502930	68.625900
2849.840266	17432.460000	1772.496094	-6.754828
2849.840266	17432.460000	1771.489258	-86.913300
2849.840266	17432.460000	1770.482422	22.790464
2849.840266	17432.460000	1769.475586	27.974497
2849.840266	17432.460000	1768.467773	123.257751
2849.840266	17432.460000	1767.460938	64.252480
2849.840266	17432.460000	1766.453125	21.809483
2849.840266	17432.460000	1765.445313	7.780284
2849.840266	17432.460000	1764.437500	-39.495842
2849.840266	17432.460000	1763.428711	-112.891861
2849.840266	17432.460000	1762.420898	-179.205551
2849.840266	17432.460000	1761.412109	19.833303
2849.840266	17432.460000	1760.403320	38.684963
2849.840266	17432.460000	1759.393555	164.054901
2849.840266	17432.460000	1758.384766	-39.859558
2849.840266	17432.460000	1757.375000	54.577625
2849.840266	17432.460000	1756.366211	82.638733
2849.840266	17432.460000	1755.356445	39.619270
2849.840266	17432.460000	1754.345703	-29.478468
2849.840266	17432.460000	1753.335938	74.109390
2849.840266	17432.460000	1752.325195	12.008106
2849.840266	17432.460000	1751.315430	51.572620
2849.840266	17432.460000	1750.304688	88.693138
2849.840266	17432.460000	1749.292969	-61.032764
2849.840266	17432.460000	1748.282227	32.704796
2849.840266	17432.460000	1747.270508	29.448555
2849.840266	17432.460000	1746.259766	118.288429
2849.840266	17432.460000	1745.248047	62.926632
2849.840266	17432.460000	1744.235352	-138.916656
2849.840266	17432.460000	1743.223633	152.806351
2849.840266	17432.460000	1742.211914	28.822512
2849.840266	17432.460000	1741.199219	-3.116147
2849.840266	17432.460000	1740.186523	16.820122
2849.840266	17432.460000	1739.173828	-109.608238
2849.840266	17432.460000	1738.160156	-87.422287
2849.840266	17432.460000	1737.147461	-27.557882
2849.840266	17432.460000	1736.133789	8.636976
2849.840266	17432.460000	1735.120117	91.916672
2849.840266	17432.460000	1734.106445	-95.994431
2849.840266	17432.460000	1733.091797	24.863838
2849.840266	17432.460000	1732.078125	-134.799759
2849.840266	17432.460000	1731.063477	-9.383010
2849.840266	17432.460000	1730.048828	12.282347
2849.840266	17432.460000	1729.034180	-29.706717
2849.840266	17432.460000	1728.019531	5.968942
2849.840266	17432.460000	1727.003906	1.547068
2849.840266	17432.460000	1725.988281	34.731350
2849.840266	17432.460000	1724.972656	67.847298
2849.840266	17432.460000	1723.957031	-75.572517
2849.840266	17432.460000	1722.941406	-61.378349
2849.840266	17432.460000	1721.924805	-37.842426
2849.840266	17432.460000	1720.909180	32.666653
2849.840266	17432.460000	1719.892578	-75.594673
2849.840266	17432.460000	1718.875977	-38.128365
2849.840266	17432.460000	1717.858398	-68.891861
2849.840266	17432.460000	1716.841797	-59.744545
2849.840266	17432.460000	1715.824219	-6.023608
2849.840266	17432.460000	1714.806641	52.322460
2849.840266	17432.460000	1713.789063	-63.187859
2849.840266	17432.460000	1712.770508	-89.489258
2849.840266	17432.460000	1711.752930	-17.231133
2849.840266	17432.460000	1710.734375	17.389530
2849.840266	17432.460000	1709.715820	23.786814
2849.840266	17432.460000	1708.697266	25.439692
2849.840266	17432.460000	1707.678711	-12.834963
2849.840266	17432.460000	1706.659180	80.183693
2849.840266	17432.460000	1705.640625	1.953789
2849.840266	17432.460000	1704.621094	12.784678
2849.840266	17432.460000	1703.600586	46.995575
2849.840266	17432.460000	1702.581055	31.939911
2849.840266	17432.460000	1701.561523	-112.021385
2849.840266	17432.460000	1700.541016	109.457329
2849.840266	17432.460000	1699.520508	-36.905159
2849.840266	17432.460000	1698.500000	-108.324127
2849.840266	17432.460000	1697.478516	14.552292
2849.840266	17432.460000	1696.458008	6.262161
2849.840266	17432.460000	1695.436523	47.070198
2849.840266	17432.460000	1694.415039	3.585090
2849.840266	17432.460000	1693.393555	13.879664
2849.840266	17432.460000	1692.372070	38.161522
2849.840266	17432.460000	1691.349609	-26.477901
2849.840266	17432.460000	1690.327148	-91.133354
2849.840266	17432.460000	1689.304688	80.292923
2849.840266	17432.460000	1688.282227	158.127197
2849.840266	17432.460000	1687.259766	46.619110
2849.840266	17432.460000	1686.236328	126.680244
2849.840266	17432.460000	1685.213867	152.955978
2849.840266	17432.460000	1684.190430	97.438820
2849.840266	17432.460000	1683.166016	60.578014
2849.840266	17432.460000	1682.142578	54.049919
2849.840266	17432.460000	1681.119141	-8.527856
2849.840266	17432.460000	1680.094727	106.225868
2849.840266	17432.460000	1679.070313	22.586399
2849.840266	17432.460000	1678.045898	-28.397762
2849.840266	17432.460000	1677.020508	-21.097958
2849.840266	17432.460000	1675.996094	4.827590
2849.840266	17432.460000	1674.970703	28.371853
2849.840266	17432.460000	1673.945313	182.404068
2849.840266	17432.460000	1672.919922	56.695904
2849.840266	17432.460000	1671.893555	84.775803
2849.840266	17432.460000	1670.868164	175.719711
2849.840266	17432.460000	1669.841797	-24.541138
2849.840266	17432.460000	1668.815430	36.051586
2849.840266	17432.460000	1667.789063	-47.752888
2849.840266	17432.460000	1666.761719	89.572815
2849.840266	17432.460000	1665.735352	33.663986
2849.840266	17432.460000	1664.708008	138.293411
2849.840266	17432.460000	1663.680664	187.024963
2849.840266	17432.460000	1662.653320	75.224571
2849.840266	17432.460000	1661.625000	56.454674
2849.840266	17432.460000	1660.597656	102.777542
2849.840266	17432.460000	1659.569336	139.753876
2849.840266	17432.460000	1658.541016	234.797272
2849.840266	17432.460000	1657.512695	160.155487
2849.840266	17432.460000	1656.483398	64.604782
2849.840266	17432.460000	1655.455078	259.426849
2849.840266	17432.460000	1654.425781	75.607018
2849.840266	17432.460000	1653.396484	-10.640236
2849.840266	17432.460000	1652.366211	207.226913
2849.840266	17432.460000	1651.336914	216.113312
2849.840266	17432.460000	1650.306641	180.882141
2849.840266	17432.460000	1649.276367	268.614136
2849.840266	17432.460000	1648.246094	214.799774
2849.840266	17432.460000	1647.215820	230.568222
2849.840266	17432.460000	1646.185547	257.910919
2849.840266	17432.460000	1645.154297	271.313019
2849.840266	17432.460000	1644.123047	458.535919
2849.840266	17432.460000	1643.091797	393.080414
2849.840266	17432.460000	1642.060547	343.858856
2849.840266	17432.460000	1641.028320	475.324615
2849.840266	17432.460000	1639.997070	409.875885
2849.840266	17432.460000	1638.964844	337.489471
2849.840266	17432.460000	1637.931641	448.012299
2849.840266	17432.460000	1636.899414	505.255707
2849.840266	17432.460000	1635.867188	474.529999
2849.840266	17432.460000	1634.833984	608.082947
2849.840266	17432.460000	1633.800781	445.470978
2849.840266	17432.460000	1632.767578	618.289063
2849.840266	17432.460000	1631.734375	529.730896
2849.840266	17432.460000	1630.700195	561.420654
2849.840266	17432.460000	1629.666016	576.915771
2849.840266	17432.460000	1628.631836	657.115906
2849.840266	17432.460000	1627.597656	614.820190
2849.840266	17432.460000	1626.563477	708.843750
2849.840266	17432.460000	1625.528320	821.302612
2849.840266	17432.460000	1624.493164	806.708252
2849.840266	17432.460000	1623.458008	732.092712
2849.840266	17432.460000	1622.422852	726.762268
2849.840266	17432.460000	1621.387695	629.120178
2849.840266	17432.460000	1620.351563	769.186584
2849.840266	17432.460000	1619.315430	789.238159
2849.840266	17432.460000	1618.279297	776.995911
2849.840266	17432.460000	1617.243164	810.889648
2849.840266	17432.460000	1616.207031	865.530029
2849.840266	17432.460000	1615.169922	871.739197
2849.840266	17432.460000	1614.132813	965.539246
2849.840266	17432.460000	1613.095703	946.399170
2849.840266	17432.460000	1612.058594	966.444763
2849.840266	17432.460000	1611.020508	822.939941
2849.840266	17432.460000	1609.983398	1041.086426
2849.840266	17432.460000	1608.945313	1003.567871
2849.840266	17432.460000	1607.907227	977.588440
2849.840266	17432.460000	1606.868164	868.766174
2849.840266	17432.460000	1605.830078	845.155212
2849.840266	17432.460000	1604.791016	819.261475
2849.840266	17432.460000	1603.751953	940.615784
2849.840266	17432.460000	1602.712891	907.848755
2849.840266	17432.460000	1601.673828	898.107544
2849.840266	17432.460000	1600.633789	1076.898071
2849.840266	17432.460000	1599.594727	908.567993
2849.840266	17432.460000	1598.554688	813.855591
2849.840266	17432.460000	1597.513672	942.064331
2849.840266	17432.460000	1596.473633	920.935303
2849.840266	17432.460000	1595.433594	741.362671
2849.840266	17432.460000	1594.392578	786.912964
2849.840266	17432.460000	1593.351563	749.818909
2849.840266	17432.460000	1592.310547	689.810181
2849.840266	17432.460000	1591.268555	779.014954
2849.840266	17432.460000	1590.227539	854.451355
2849.840266	17432.460000	1589.185547	716.531311
2849.840266	17432.460000	1588.143555	548.876099
2849.840266	17432.460000	1587.100586	805.540161
2849.840266	17432.460000	1586.058594	814.528809
2849.840266	17432.460000	1585.015625	702.046143
2849.840266	17432.460000	1583.972656	745.481262
2849.840266	17432.460000	1582.929688	646.866150
2849.840266	17432.460000	1581.886719	642.248230
2849.840266	17432.460000	1580.843750	635.374329
2849.840266	17432.460000	1579.799805	568.988525
2849.840266	17432.460000	1578.755859	802.595093
2849.840266	17432.460000	1577.711914	665.307861
2849.840266	17432.460000	1576.666992	644.824341
2849.840266	17432.460000	1575.623047	693.038086
2849.840266	17432.460000	1574.578125	533.074829
2849.840266	17432.460000	1573.533203	736.895142
2849.840266	17432.460000	1572.488281	657.101135
2849.840266	17432.460000	1571.443359	700.843323
2849.840266	17432.460000	1570.397461	646.302734
2849.840266	17432.460000	1569.351563	452.406006
2849.840266	17432.460000	1568.305664	704.215759
2849.840266	17432.460000	1567.259766	681.811584
2849.840266	17432.460000	1566.213867	810.213196
2849.840266	17432.460000	1565.166992	678.253540
2849.840266	17432.460000	1564.120117	719.917786
2849.840266	17432.460000	1563.073242	814.114075
2849.840266	17432.460000	1562.026367	586.499268
2849.840266	17432.460000	1560.978516	660.228333
2849.840266	17432.460000	1559.930664	854.892029
2849.840266	17432.460000	1558.883789	743.870605
2849.840266	17432.460000	1557.834961	715.027039
2849.840266	17432.460000	1556.787109	590.481323
2849.840266	17432.460000	1555.739258	586.855225
2849.840266	17432.460000	1554.690430	754.216125
2849.840266	17432.460000	1553.641602	666.332764
2849.840266	17432.460000	1552.592773	628.656250
2849.840266	17432.460000	1551.542969	545.478760
2849.840266	17432.460000	1550.494141	498.829315
2849.840266	17432.460000	1549.444336	506.890381
2849.840266	17432.460000	1548.394531	514.998718
2849.840266	17432.460000	1547.344727	559.573242
2849.840266	17432.460000	1546.293945	676.996582
2849.840266	17432.460000	1545.244141	494.102570
2849.840266	17432.460000	1544.193359	618.421631
2849.840266	17432.460000	1543.142578	556.249817
2849.840266	17432.460000	1542.090820	473.685760
2849.840266	17432.460000	1541.040039	589.001770
2849.840266	17432.460000	1539.988281	486.115417
2849.840266	17432.460000	1538.936523	435.592010
2849.840266	17432.460000	1537.884766	455.578949
2849.840266	17432.460000	1536.833008	641.443298
2849.840266	17432.460000	1535.780273	291.283997
2849.840266	17432.460000	1534.727539	431.799927
2849.840266	17432.460000	1533.674805	345.288269
2849.840266	17432.460000	1532.622070	345.122040
2849.840266	17432.460000	1531.569336	451.675568
2849.840266	17432.460000	1530.515625	467.481628
2849.840266	17432.460000	1529.461914	458.387238
2849.840266	17432.460000	1528.408203	424.406830
2849.840266	17432.460000	1527.354492	478.935852
2849.840266	17432.460000	1526.299805	560.703979
2849.840266	17432.460000	1525.246094	490.635651
2849.840266	17432.460000	1524.191406	386.656799
2849.840266	17432.460000	1523.136719	287.311829
2849.840266	17432.460000	1522.081055	434.987396
2849.840266	17432.460000	1521.026367	349.384247
2849.840266	17432.460000	1519.970703	420.121216
2849.840266	17432.460000	1518.915039	327.882507
2849.840266	17432.460000	1517.859375	242.534134
2849.840266	17432.460000	1516.802734	254.592453
2849.840266	17432.460000	1515.747070	255.400635
2849.840266	17432.460000	1514.690430	306.036072
2849.840266	17432.460000	1513.633789	329.574738
2849.840266	17432.460000	1512.577148	326.032043
2849.840266	17432.460000	1511.519531	243.420670
2849.840266	17432.460000	1510.461914	359.824738
2849.840266	17432.460000	1509.405273	338.392914
2849.840266	17432.460000	1508.346680	41.363049
2849.840266	17432.460000	1507.289063	358.993866
2849.840266	17432.460000	1506.231445	303.888000
2849.840266	17432.460000	1505.172852	355.001434
2849.840266	17432.460000	1504.114258	426.481293
2849.840266	17432.460000	1503.055664	364.818451
2849.840266	17432.460000	1501.996094	427.370392
2849.840266	17432.460000	1500.937500	514.788452
2849.840266	17432.460000	1499.877930	505.229919
2849.840266	17432.460000	1498.818359	421.310242
2849.840266	17432.460000	1497.757813	393.865662
2849.840266	17432.460000	1496.698242	436.395630
2849.840266	17432.460000	1495.637695	402.332275
2849.840266	17432.460000	1494.577148	332.291290
2849.840266	17432.460000	1493.516602	361.490570
2849.840266	17432.460000	1492.456055	311.898041
2849.840266	17432.460000	1491.394531	327.710114
2849.840266	17432.460000	1490.333008	521.487488
2849.840266	17432.460000	1489.271484	445.078979
2849.840266	17432.460000	1488.209961	364.268341
2849.840266	17432.460000	1487.148438	303.814392
2849.840266	17432.460000	1486.085938	412.211761
2849.840266	17432.460000	1485.023438	403.651672
2849.840266	17432.460000	1483.960938	244.465759
2849.840266	17432.460000	1482.898438	294.550018
2849.840266	17432.460000	1481.834961	261.492584
2849.840266	17432.460000	1480.772461	199.300079
2849.840266	17432.460000	1479.708984	238.331314
2849.840266	17432.460000	1478.644531	149.340378
2849.840266	17432.460000	1477.581055	204.231506
2849.840266	17432.460000	1476.517578	344.487885
2849.840266	17432.460000	1475.453125	242.263367
2849.840266	17432.460000	1474.388672	187.337845
2849.840266	17432.460000	1473.323242	199.790070
2849.840266	17432.460000	1472.258789	297.563110
2849.840266	17432.460000	1471.193359	287.701355
2849.840266	17432.460000	1470.127930	226.396423
2849.840266	17432.460000	1469.062500	109.100975
2849.840266	17432.460000	1467.997070	153.423340
2849.840266	17432.460000	1466.930664	235.586716
2849.840266	17432.460000	1465.865234	143.378067
2849.840266	17432.460000	1464.798828	299.700867
2849.840266	17432.460000	1463.731445	263.465881
2849.840266	17432.460000	1462.665039	350.269257
2849.840266	17432.460000	1461.597656	301.108582
2849.840266	17432.460000	1460.530273	231.298447
2849.840266	17432.460000	1459.462891	164.548706
2849.840266	17432.460000	1458.395508	139.976486
2849.840266	17432.460000	1457.327148	274.090118
2849.840266	17432.460000	1456.259766	231.684158
2849.840266	17432.460000	1455.191406	314.384857
2849.840266	17432.460000	1454.123047	463.652405
2849.840266	17432.460000	1453.053711	33.839607
2849.840266	17432.460000	1451.985352	299.008026
2849.840266	17432.460000	1450.916016	135.406036
2849.840266	17432.460000	1449.846680	334.521301
2849.840266	17432.460000	1448.776367	310.129303
2849.840266	17432.460000	1447.707031	152.694366
2849.840266	17432.460000	1446.636719	198.245102
2849.840266	17432.460000	1445.566406	96.579979
2849.840266	17432.460000	1444.496094	152.292557
2849.840266	17432.460000	1443.425781	206.835281
2849.840266	17432.460000	1442.354492	166.217377
2849.840266	17432.460000	1441.283203	245.003571
2849.840266	17432.460000	1440.211914	90.210297
2849.840266	17432.460000	1439.140625	98.274826
2849.840266	17432.460000	1438.069336	156.545578
2849.840266	17432.460000	1436.997070	204.169739
2849.840266	17432.460000	1435.924805	66.569153
2849.840266	17432.460000	1434.852539	108.228439
2849.840266	17432.460000	1433.780273	55.937405
2849.840266	17432.460000	1432.707031	-116.434860
2849.840266	17432.460000	1431.633789	10.054686
2849.840266	17432.460000	1430.560547	14.914589
2849.840266	17432.460000	1429.487305	25.841364
2849.840266	17432.460000	1428.413086	12.644747
2849.840266	17432.460000	1427.339844	-55.589901
2849.840266	17432.460000	1426.265625	-106.020630
2849.840266	17432.460000	1425.191406	53.497856
2849.840266	17432.460000	1424.116211	74.452751
2849.840266	17432.460000	1423.041992	39.253132
2849.840266	17432.460000	1421.966797	116.415237
2849.840266	17432.460000	1420.891602	-74.053101
2849.840266	17432.460000	1419.816406	32.075333
2849.840266	17432.460000	1418.740234	-49.470280
2849.840266	17432.460000	1417.665039	28.811295
2849.840266	17432.460000	1416.588867	85.604828
2849.840266	17432.460000	1415.512695	-71.758942
2849.840266	17432.460000	1414.435547	18.006500
2849.840266	17432.460000	1413.359375	184.104538
2849.840266	17432.460000	1412.282227	171.401062
2849.840266	17432.460000	1411.205078	306.337860
2849.840266	17432.460000	1410.127930	293.503510
2849.840266	17432.460000	1409.049805	246.758942
2849.840266	17432.460000	1407.972656	118.670746
2849.840266	17432.460000	1406.894531	205.418335
2849.840266	17432.460000	1405.816406	146.028671
2849.840266	17432.460000	1404.737305	165.111969
2849.840266	17432.460000	1403.659180	249.308075
2849.840266	17432.460000	1402.580078	336.697174
2849.840266	17432.460000	1401.500977	348.965729
2849.840266	17432.460000	1400.421875	358.109863
2849.840266	17432.460000	1399.341797	314.056976
2849.840266	17432.460000	1398.262695	162.013718
2849.840266	17432.460000	1397.182617	262.553497
2849.840266	17432.460000	1396.102539	377.211060
2849.840266	17432.460000	1395.021484	208.754791
2849.840266	17432.460000	1393.941406	279.276123
2849.840266	17432.460000	1392.860352	214.656067
2849.840266	17432.460000	1391.779297	193.763550
2849.840266	17432.460000	1390.698242	177.313995
2849.840266	17432.460000	1389.616211	158.584320
2849.840266	17432.460000	1388.535156	254.021423
2849.840266	17432.460000	1387.453125	218.287491
2849.840266	17432.460000	1386.371094	193.696564
2849.840266	17432.460000	1385.288086	190.715668
2849.840266	17432.460000	1384.206055	176.621872
2849.840266	17432.460000	1383.123047	162.647568
2849.840266	17432.460000	1382.040039	308.827301
2849.840266	17432.460000	1380.957031	274.218201
2849.840266	17432.460000	1379.873047	292.904236
2849.840266	17432.460000	1378.789063	228.774261
2849.840266	17432.460000	1377.705078	281.206238
2849.840266	17432.460000	1376.621094	363.438965
2849.840266	17432.460000	1375.537109	353.507141
2849.840266	17432.460000	1374.452148	252.838196
2849.840266	17432.460000	1373.367188	246.389557
2849.840266	17432.460000	1372.282227	355.131989
2849.840266	17432.460000	1371.197266	617.587402
2849.840266	17432.460000	1370.112305	459.971252
2849.840266	17432.460000	1369.026367	385.025513
2849.840266	17432.460000	1367.940430	403.382751
2849.840266	17432.460000	1366.854492	411.637238
2849.840266	17432.460000	1365.767578	500.048706
2849.840266	17432.460000	1364.681641	479.920898
2849.840266	17432.460000	1363.594727	482.344208
2849.840266	17432.460000	1362.507813	549.570557
2849.840266	17432.460000	1361.419922	439.449249
2849.840266	17432.460000	1360.333008	517.041931
2849.840266	17432.460000	1359.245117	473.422791
2849.840266	17432.460000	1358.157227	571.254639
2849.840266	17432.460000	1357.069336	605.780212
2849.840266	17432.460000	1355.981445	714.221130
2849.840266	17432.460000	1354.892578	577.504028
2849.840266	17432.460000	1353.803711	577.549500
2849.840266	17432.460000	1352.714844	723.293030
2849.840266	17432.460000	1351.625000	708.829346
2849.840266	17432.460000	1350.536133	784.308350
2849.840266	17432.460000	1349.446289	614.643127
2849.840266	17432.460000	1348.356445	634.734558
2849.840266	17432.460000	1347.266602	593.025452
2849.840266	17432.460000	1346.175781	550.488098
2849.840266	17432.460000	1345.085938	569.008972
2849.840266	17432.460000	1343.995117	538.481873
2849.840266	17432.460000	1342.903320	505.839508
2849.840266	17432.460000	1341.812500	656.184326
2849.840266	17432.460000	1340.720703	664.098511
2849.840266	17432.460000	1339.629883	670.525146
2849.840266	17432.460000	1338.538086	549.863831
2849.840266	17432.460000	1337.445313	698.716736
2849.840266	17432.460000	1336.353516	731.791870
2849.840266	17432.460000	1335.260742	619.024231
2849.840266	17432.460000	1334.167969	520.779541
2849.840266	17432.460000	1333.075195	690.863953
2849.840266	17432.460000	1331.981445	560.573364
2849.840266	17432.460000	1330.888672	700.263550
2849.840266	17432.460000	1329.794922	568.454712
2849.840266	17432.460000	1328.701172	615.373230
2849.840266	17432.460000	1327.606445	571.838135
2849.840266	17432.460000	1326.512695	478.122498
2849.840266	17432.460000	1325.417969	586.303772
2849.840266	17432.460000	1324.323242	457.011169
2849.840266	17432.460000	1323.227539	688.705872
2849.840266	17432.460000	1322.132813	731.374023
2849.840266	17432.460000	1321.037109	583.059753
2849.840266	17432.460000	1319.941406	531.233337
2849.840266	17432.460000	1318.845703	540.387512
2849.840266	17432.460000	1317.750000	603.715454
2849.840266	17432.460000	1316.653320	628.675659
2849.840266	17432.460000	1315.556641	547.163696
2849.840266	17432.460000	1314.459961	509.221008
2849.840266	17432.460000	1313.363281	330.099030
2849.840266	17432.460000	1312.265625	419.478851
2849.840266	17432.460000	1311.167969	427.023560
2849.840266	17432.460000	1310.070313	416.089630
2849.840266	17432.460000	1308.972656	373.579285
2849.840266	17432.460000	1307.874023	282.012634
2849.840266	17432.460000	1306.776367	226.586777
2849.840266	17432.460000	1305.677734	244.241760
2849.840266	17432.460000	1304.579102	347.684998
2849.840266	17432.460000	1303.479492	338.008423
2849.840266	17432.460000	1302.380859	292.293274
2849.840266	17432.460000	1301.281250	269.903076
2849.840266	17432.460000	1300.181641	373.924591
2849.840266	17432.460000	1299.081055	246.959061
2849.840266	17432.460000	1297.981445	162.322510
2849.840266	17432.460000	1296.880859	279.739899
2849.840266	17432.460000	1295.780273	250.420959
2849.840266	17432.460000	1294.679688	342.474121
2849.840266	17432.460000	1293.578125	286.748199
2849.840266	17432.460000	1292.476563	294.807922
2849.840266	17432.460000	1291.375000	476.288025
2849.840266	17432.460000	1290.273438	423.728058
2849.840266	17432.460000	1289.171875	394.076233
2849.840266	17432.460000	1288.069336	406.798645
2849.840266	17432.460000	1286.966797	378.500519
2849.840266	17432.460000	1285.864258	290.958191
2849.840266	17432.460000	1284.761719	321.202423
2849.840266	17432.460000	1283.658203	407.937592
2849.840266	17432.460000	1282.554688	424.309479
2849.840266	17432.460000	1281.451172	403.872681
2849.840266	17432.460000	1280.347656	464.618958
2849.840266	17432.460000	1279.244141	563.845703
2849.840266	17432.460000	1278.139648	594.664978
2849.840266	17432.460000	1277.035156	580.509644
2849.840266	17432.460000	1275.930664	630.834839
2849.840266	17432.460000	1274.825195	511.907410
2849.840266	17432.460000	1273.720703	501.571472
2849.840266	17432.460000	1272.615234	552.611938
2849.840266	17432.460000	1271.508789	641.574707
2849.840266	17432.460000	1270.403320	597.200378
2849.840266	17432.460000	1269.297852	445.129822
2849.840266	17432.460000	1268.191406	398.333282
2849.840266	17432.460000	1267.084961	483.821106
2849.840266	17432.460000	1265.977539	431.753845
2849.840266	17432.460000	1264.871094	370.716797
2849.840266	17432.460000	1263.763672	363.896271
2849.840266	17432.460000	1262.656250	311.375885
2849.840266	17432.460000	1261.548828	355.945282
2849.840266	17432.460000	1260.440430	229.264496
2849.840266	17432.460000	1259.333008	236.380768
2849.840266	17432.460000	1258.224609	359.066803
2849.840266	17432.460000	1257.115234	99.534073
2849.840266	17432.460000	1256.006836	146.940659
2849.840266	17432.460000	1254.897461	275.824890
2849.840266	17432.460000	1253.788086	221.097153
2849.840266	17432.460000	1252.678711	186.952820
2849.840266	17432.460000	1251.569336	210.272812
2849.840266	17432.460000	1250.458984	107.393494
2849.840266	17432.460000	1249.349609	148.445633
2849.840266	17432.460000	1248.239258	106.264915
2849.840266	17432.460000	1247.127930	179.405594
2849.840266	17432.460000	1246.017578	116.009270
2849.840266	17432.460000	1244.906250	237.016052
2849.840266	17432.460000	1243.794922	208.351059
2849.840266	17432.460000	1242.683594	196.208725
2849.840266	17432.460000	1241.571289	106.351616
2849.840266	17432.460000	1240.459961	164.473633
2849.840266	17432.460000	1239.347656	69.197990
2849.840266	17432.460000	1238.234375	131.379745
2849.840266	17432.460000	1237.122070	162.887177
2849.840266	17432.460000	1236.008789	217.367859
2849.840266	17432.460000	1234.896484	183.792664
2849.840266	17432.460000	1233.782227	83.036369
2849.840266	17432.460000	1232.668945	116.213715
2849.840266	17432.460000	1231.555664	247.872894
2849.840266	17432.460000	1230.441406	88.437080
2849.840266	17432.460000	1229.327148	199.685028
2849.840266	17432.460000	1228.211914	63.572121
2849.840266	17432.460000	1227.097656	112.650452
2849.840266	17432.460000	1225.982422	111.529823
2849.840266	17432.460000	1224.867188	68.238091
2849.840266	17432.460000	1223.751953	87.266624
2849.840266	17432.460000	1222.635742	123.591270
2849.840266	17432.460000	1221.520508	74.412216
2849.840266	17432.460000	1220.404297	155.486633
2849.840266	17432.460000	1219.287109	92.810722
2849.840266	17432.460000	1218.170898	85.454926
2849.840266	17432.460000	1217.053711	-22.812454
2849.840266	17432.460000	1215.936523	48.884716
2849.840266	17432.460000	1214.819336	70.360596
2849.840266	17432.460000	1213.702148	62.560707
2849.840266	17432.460000	1212.583984	-21.038733
2849.840266	17432.460000	1211.465820	-56.286121
2849.840266	17432.460000	1210.347656	-57.432220
2849.840266	17432.460000	1209.229492	7.570553
2849.840266	17432.460000	1208.110352	-30.538933
2849.840266	17432.460000	1206.992188	33.764675
2849.840266	17432.460000	1205.873047	-33.375580
2849.840266	17432.460000	1204.752930	-73.889694
2849.840266	17432.460000	1203.633789	-13.514408
2849.840266	17432.460000	1202.513672	-3.961751
2849.840266	17432.460000	1201.393555	-31.108746
2849.840266	17432.460000	1200.273438	48.857849
2849.840266	17432.460000	1199.152344	58.271030
2849.840266	17432.460000	1198.032227	-54.885033
2849.840266	17432.460000	1196.911133	32.061745
2849.840266	17432.460000	1195.790039	-14.178638
2849.840266	17432.460000	1194.667969	-40.342567
2849.840266	17432.460000	1193.545898	42.843475
2849.840266	17432.460000	1192.424805	31.630154
2849.840266	17432.460000	1191.301758	55.412617
2849.840266	17432.460000	1190.179688	31.629299
2849.840266	17432.460000	1189.056641	58.581436
2849.840266	17432.460000	1187.933594	94.340042
2849.840266	17432.460000	1186.810547	-87.437363
2849.840266	17432.460000	1185.687500	8.955592
2849.840266	17432.460000	1184.563477	-56.942730
2849.840266	17432.460000	1183.440430	66.210800
2849.840266	17432.460000	1182.316406	50.634201
2849.840266	17432.460000	1181.191406	40.649994
2849.840266	17432.460000	1180.067383	128.398315
2849.840266	17432.460000	1178.942383	85.455971
2849.840266	17432.460000	1177.817383	-31.704943
2849.840266	17432.460000	1176.692383	-54.819927
2849.840266	17432.460000	1175.566406	-40.353180
2849.840266	17432.460000	1174.440430	-84.782234
2849.840266	17432.460000	1173.314453	-28.519810
2849.840266	17432.460000	1172.188477	-30.555302
2849.840266	17432.460000	1171.062500	-55.372719
2849.840266	17432.460000	1169.935547	-90.748856
2849.840266	17432.460000	1168.808594	26.866238
2849.840266	17432.460000	1167.681641	-111.200401
2849.840266	17432.460000	1166.553711	-87.692421
2849.840266	17432.460000	1165.426758	24.184261
2849.840266	17432.460000	1164.298828	-117.034119
2849.840266	17432.460000	1163.170898	-115.458122
2849.840266	17432.460000	1162.041992	-88.632736
2849.840266	17432.460000	1160.914063	-96.729988
2849.840266	17432.460000	1159.785156	-11.892040
2849.840266	17432.460000	1158.656250	-35.199059
2849.840266	17432.460000	1157.526367	-129.114090
2849.840266	17432.460000	1156.397461	-41.213730
2849.840266	17432.460000	1155.267578	-38.185238
2849.840266	17432.460000	1154.137695	-37.812286
2849.840266	17432.460000	1153.006836	-48.192757
2849.840266	17432.460000	1151.876953	-34.593487
2849.840266	17432.460000	1150.746094	-30.136951
2849.840266	17432.460000	1149.615234	-39.051056
2849.840266	17432.460000	1148.484375	-5.899316
2849.840266	17432.460000	1147.352539	21.140207
2849.840266	17432.460000	1146.220703	80.290863
2849.840266	17432.460000	1145.088867	15.620986
2849.840266	17432.460000	1143.957031	106.820488
2849.840266	17432.460000	1142.825195	71.714050
2849.840266	17432.460000	1141.692383	51.180660
2849.840266	17432.460000	1140.559570	148.538513
2849.840266	17432.460000	1139.426758	52.778824
2849.840266	17432.460000	1138.292969	98.626694
2849.840266	17432.460000	1137.159180	111.280296
2849.840266	17432.460000	1136.025391	122.619034
2849.840266	17432.460000	1134.891602	62.115566
2849.840266	17432.460000	1133.757813	113.831429
2849.840266	17432.460000	1132.623047	104.775795
2849.840266	17432.460000	1131.488281	93.595726
2849.840266	17432.460000	1130.353516	139.645721
2849.840266	17432.460000	1129.217773	181.774765
2849.840266	17432.460000	1128.083008	119.054497
2849.840266	17432.460000	1126.947266	131.667191
2849.840266	17432.460000	1125.811523	38.282959
2849.840266	17432.460000	1124.674805	101.959694
2849.840266	17432.460000	1123.539063	56.260460
2849.840266	17432.460000	1122.402344	1.005526
2849.840266	17432.460000	1121.265625	4.572168
2849.840266	17432.460000	1120.127930	74.849724
2849.840266	17432.460000	1118.990234	128.157410
2849.840266	17432.460000	1117.853516	155.772552
2849.840266	17432.460000	1116.714844	-22.602402
2849.840266	17432.460000	1115.577148	39.243809
2849.840266	17432.460000	1114.439453	61.768356
2849.840266	17432.460000	1113.300781	32.943462
2849.840266	17432.460000	1112.162109	38.181774
2849.840266	17432.460000	1111.022461	23.989649
2849.840266	17432.460000	1109.883789	81.066498
2849.840266	17432.460000	1108.744141	-23.255228
2849.840266	17432.460000	1107.604492	10.809291
2849.840266	17432.460000	1106.463867	81.869850
2849.840266	17432.460000	1105.324219	1.011309
2849.840266	17432.460000	1104.183594	57.691433
2849.840266	17432.460000	1103.042969	138.706863
2849.840266	17432.460000	1101.902344	137.943466
2849.840266	17432.460000	1100.760742	88.996742
2849.840266	17432.460000	1099.619141	98.704453
2849.840266	17432.460000	1098.477539	117.302544
2849.840266	17432.460000	1097.335938	38.168087
2849.840266	17432.460000	1096.193359	-7.063921
2849.840266	17432.460000	1095.051758	95.007736
2849.840266	17432.460000	1093.909180	71.440056
2849.840266	17432.460000	1092.765625	95.278992
2849.840266	17432.460000	1091.623047	31.707142
2849.840266	17432.460000	1090.479492	168.633911
2849.840266	17432.460000	1089.335938	103.914368
2849.840266	17432.460000	1088.192383	85.751755
2849.840266	17432.460000	1087.047852	165.165207
2849.840266	17432.460000	1085.903320	127.930260
2849.840266	17432.460000	1084.758789	59.616394
2849.840266	17432.460000	1083.614258	137.996689
2849.840266	17432.460000	1082.469727	227.813019
2849.840266	17432.460000	1081.324219	82.005768
2849.840266	17432.460000	1080.178711	-25.936497
2849.840266	17432.460000	1079.033203	-54.330032
2849.840266	17432.460000	1077.886719	-8.947366
2849.840266	17432.460000	1076.740234	25.354902
2849.840266	17432.460000	1075.593750	40.419701
2849.840266	17432.460000	1074.447266	147.236450
2849.840266	17432.460000	1073.300781	10.651491
2849.840266	17432.460000	1072.153320	73.002579
2849.840266	17432.460000	1071.005859	148.222763
2849.840266	17432.460000	1069.858398	-32.934376
2849.840266	17432.460000	1068.709961	80.894737
2849.840266	17432.460000	1067.561523	170.732559
2849.840266	17432.460000	1066.413086	93.007027
2849.840266	17432.460000	1065.264648	41.941914
2849.840266	17432.460000	1064.116211	63.141415
2849.840266	17432.460000	1062.966797	142.812759
2849.840266	17432.460000	1061.817383	46.624023
2849.840266	17432.460000	1060.667969	8.109573
2849.840266	17432.460000	1059.517578	101.861839
2849.840266	17432.460000	1058.368164	42.666691
2849.840266	17432.460000	1057.217773	8.468078
2849.840266	17432.460000	1056.067383	-4.910057
2849.840266	17432.460000	1054.916016	46.949852
2849.840266	17432.460000	1053.764648	-125.750778
2849.840266	17432.460000	1052.613281	-78.437042
2849.840266	17432.460000	1051.461914	86.134888
2849.840266	17432.460000	1050.310547	-5.621227
2849.840266	17432.460000	1049.158203	124.250679
2849.840266	17432.460000	1048.005859	117.729462
2849.840266	17432.460000	1046.853516	33.541374
2849.840266	17432.460000	1045.700195	5.197129
2849.840266	17432.460000	1044.547852	9.789649
2849.840266	17432.460000	1043.394531	29.225380
2849.840266	17432.460000	1042.240234	11.047434
2849.840266	17432.460000	1041.086914	-35.553017
2849.840266	17432.460000	1039.932617	-12.046571
2849.840266	17432.460000	1038.778320	75.741074
2849.840266	17432.460000	1037.624023	103.633354
2849.840266	17432.460000	1036.469727	86.356041
2849.840266	17432.460000	1035.314453	63.706825
2849.840266	17432.460000	1034.159180	38.569042
2849.840266	17432.460000	1033.003906	131.183136
2849.840266	17432.460000	1031.847656	205.320831
2849.840266	17432.460000	1030.692383	38.233173
2849.840266	17432.460000	1029.536133	81.552307
2849.840266	17432.460000	1028.378906	169.668030
2849.840266	17432.460000	1027.222656	98.711815
2849.840266	17432.460000	1026.065430	118.820137
2849.840266	17432.460000	1024.908203	89.861328
2849.840266	17432.460000	1023.750977	61.886349
2849.840266	17432.460000	1022.593750	46.273335
2849.840266	17432.460000	1021.435547	95.218719
2849.840266	17432.460000	1020.277344	48.427788
2849.840266	17432.460000	1019.119141	-19.612446
2849.840266	17432.460000	1017.959961	73.326157
2849.840266	17432.460000	1016.800781	99.281921
2849.840266	17432.460000	1015.641602	33.154957
2849.840266	17432.460000	1014.482422	61.846325
2849.840266	17432.460000	1013.323242	-36.657459
2849.840266	17432.460000	1012.163086	19.065037
2849.840266	17432.460000	1011.002930	107.615196
2849.840266	17432.460000	1009.842773	16.655807
2849.840266	17432.460000	1008.681641	-96.222794
2849.840266	17432.460000	1007.520508	-132.947998
2849.840266	17432.460000	1006.359375	28.046782
2849.840266	17432.460000	1005.198242	-4.175280
2849.840266	17432.460000	1004.037109	20.491957
2849.840266	17432.460000	1002.875000	3.259375
2849.840266	17432.460000	1001.712891	32.021412
2849.840266	17432.460000	1000.550781	115.568283
2849.840266	17432.460000	999.387695	71.392578
2849.840266	17432.460000	998.224609	60.039639
2849.840266	17432.460000	997.061523	57.227905
2849.840266	17432.460000	995.898438	29.454615
2849.840266	17432.460000	994.734375	-64.794029
2849.840266	17432.460000	993.571289	-8.658868
2849.840266	17432.460000	992.407227	-50.210167
2849.840266	17432.460000	991.242188	-98.813026
2849.840266	17432.460000	990.078125	-67.310860
2849.840266	17432.460000	988.913086	-57.734455
2849.840266	17432.460000	987.748047	106.200867
2849.840266	17432.460000	986.583008	113.966454
2849.840266	17432.460000	985.416992	-52.877354
2849.840266	17432.460000	984.250977	-3.983863
2849.840266	17432.460000	983.084961	-15.274301
2849.840266	17432.460000	981.918945	-36.083477
2849.840266	17432.460000	980.751953	48.988750
2849.840266	17432.460000	979.584961	1.343793
2849.840266	17432.460000	978.417969	36.471058
2849.840266	17432.460000	977.250977	84.526451
2849.840266	17432.460000	976.083008	3.416903
2849.840266	17432.460000	974.915039	-33.485928
2849.840266	17432.460000	973.747070	26.688704
2849.840266	17432.460000	972.579102	-13.793445
2849.840266	17432.460000	971.410156	-97.043541
2849.840266	17432.460000	970.242188	11.543468
2849.840266	17432.460000	969.072266	44.508785
2849.840266	17432.460000	967.903320	125.058044
2849.840266	17432.460000	966.733398	97.505844
2849.840266	17432.460000	965.563477	54.033440
2849.840266	17432.460000	964.393555	177.896820
2849.840266	17432.460000	963.223633	137.481827
2849.840266	17432.460000	962.052734	39.009270
2849.840266	17432.460000	960.881836	141.045181
2849.840266	17432.460000	959.710938	253.373856
2849.840266	17432.460000	958.540039	139.975876
2849.840266	17432.460000	957.368164	151.866409
2849.840266	17432.460000	956.196289	103.797562
2849.840266	17432.460000	955.024414	203.995010
2849.840266	17432.460000	953.851563	97.078918
2849.840266	17432.460000	952.679688	140.337082
2849.840266	17432.460000	951.506836	34.855412
2849.840266	17432.460000	950.333984	100.918709
2849.840266	17432.460000	949.160156	178.920532
2849.840266	17432.460000	947.986328	136.820511
2849.840266	17432.460000	946.812500	127.102112
2849.840266	17432.460000	945.638672	64.868942
2849.840266	17432.460000	944.464844	-23.794947
2849.840266	17432.460000	943.290039	117.542526
2849.840266	17432.460000	942.115234	-24.301085
2849.840266	17432.460000	940.940430	86.400841
2849.840266	17432.460000	939.764648	54.634571
2849.840266	17432.460000	938.588867	142.879272
2849.840266	17432.460000	937.413086	127.288826
2849.840266	17432.460000	936.237305	174.884247
2849.840266	17432.460000	935.060547	10.700629
2849.840266	17432.460000	933.883789	82.618011
2849.840266	17432.460000	932.707031	44.660851
2849.840266	17432.460000	931.530273	16.823816
2849.840266	17432.460000	930.352539	-8.887847
2849.840266	17432.460000	929.175781	113.799156
2849.840266	17432.460000	927.998047	41.278080
2849.840266	17432.460000	926.819336	96.822861
2849.840266	17432.460000	925.641602	132.032990
2849.840266	17432.460000	924.462891	163.180588
2849.840266	17432.460000	923.284180	113.020233
2849.840266	17432.460000	922.104492	91.315918
2849.840266	17432.460000	920.924805	205.696732
2849.840266	17432.460000	919.746094	207.228287
2849.840266	17432.460000	919.551758	212.652588
2849.840266	17432.460000	918.386719	73.151657
2849.840266	17432.460000	917.220703	29.106382
2849.840266	17432.460000	916.054688	121.045761
2849.840266	17432.460000	914.887695	72.941734
2849.840266	17432.460000	913.721680	164.825485
2849.840266	17432.460000	912.554688	118.750740
2849.840266	17432.460000	911.387695	70.662544
2849.840266	17432.460000	910.220703	130.038895
2849.840266	17432.460000	909.052734	0.880978
2849.840266	17432.460000	907.885742	72.396767
2849.840266	17432.460000	906.717773	22.312315
2849.840266	17432.460000	905.548828	-45.987183
2849.840266	17432.460000	904.380859	-4.899214
2849.840266	17432.460000	903.211914	-71.150894
2849.840266	17432.460000	902.042969	-15.911931
2849.840266	17432.460000	900.874023	-65.952400
2849.840266	17432.460000	899.704102	-166.567551
2849.840266	17432.460000	898.535156	-56.731514
2849.840266	17432.460000	897.365234	32.827084
2849.840266	17432.460000	896.194336	-3.044667
2849.840266	17432.460000	895.024414	-59.128979
2849.840266	17432.460000	893.853516	117.288338
2849.840266	17432.460000	892.682617	-41.887222
2849.840266	17432.460000	891.511719	138.483917
2849.840266	17432.460000	890.340820	-8.520706
2849.840266	17432.460000	889.168945	-64.572861
2849.840266	17432.460000	887.997070	-9.534631
2849.840266	17432.460000	886.825195	-83.747910
2849.840266	17432.460000	885.653320	-48.927624
2849.840266	17432.460000	884.480469	-58.529293
2849.840266	17432.460000	883.307617	16.617725
2849.840266	17432.460000	882.134766	25.151026
2849.840266	17432.460000	880.961914	118.390327
2849.840266	17432.460000	879.788086	9.922071
2849.840266	17432.460000	878.614258	-15.843830
2849.840266	17432.460000	877.440430	37.010475
2849.840266	17432.460000	876.266602	-164.104477
2849.840266	17432.460000	875.091797	-38.714607
2849.840266	17432.460000	873.916992	86.616394
2849.840266	17432.460000	872.742188	-64.052521
2849.840266	17432.460000	871.567383	6.845892
2849.840266	17432.460000	870.391602	73.681213
2849.840266	17432.460000	869.215820	-14.513580
2849.840266	17432.460000	868.040039	64.358055
2849.840266	17432.460000	866.864258	70.753494
2849.840266	17432.460000	865.687500	34.893341
2849.840266	17432.460000	864.510742	39.265190
2849.840266	17432.460000	863.333984	-73.004158
2849.840266	17432.460000	862.157227	-32.441227
2849.840266	17432.460000	860.979492	0.056389
2849.840266	17432.460000	859.802734	-41.825478
2849.840266	17432.460000	858.625000	-61.597698
2849.840266	17432.460000	857.446289	-61.281948
2849.840266	17432.460000	856.268555	69.568878
2849.840266	17432.460000	855.089844	5.582526
2849.840266	17432.460000	853.911133	-106.569298
2849.840266	17432.460000	852.731445	40.239166
2849.840266	17432.460000	851.552734	-27.746086
2849.840266	17432.460000	850.373047	-143.865173
2849.840266	17432.460000	849.193359	-17.230036
2849.840266	17432.460000	848.013672	37.143017
2849.840266	17432.460000	846.833008	-74.939644
2849.840266	17432.460000	845.652344	173.856323
2849.840266	17432.460000	844.471680	89.828125
2849.840266	17432.460000	843.291016	106.016548
2849.840266	17432.460000	842.110352	38.041050
2849.840266	17432.460000	840.928711	142.343674
2849.840266	17432.460000	839.747070	156.472687
2849.840266	17432.460000	838.564453	72.475555
2849.840266	17432.460000	837.382813	148.643433
2849.840266	17432.460000	836.200195	50.646664
2849.840266	17432.460000	835.017578	174.785995
2849.840266	17432.460000	833.834961	100.804367
2849.840266	17432.460000	832.651367	178.852249
2849.840266	17432.460000	831.467773	90.874931
2849.840266	17432.460000	830.284180	102.886848
2849.840266	17432.460000	829.100586	106.883385
2849.840266	17432.460000	827.916992	-45.019943
2849.840266	17432.460000	826.732422	-47.017479
2849.840266	17432.460000	825.547852	24.884945
2849.840266	17432.460000	824.363281	-122.957420
2849.840266	17432.460000	823.177734	56.731754
2849.840266	17432.460000	821.992188	126.526253
2849.840266	17432.460000	820.806641	-73.189384
2849.840266	17432.460000	819.621094	-119.175629
2849.840266	17432.460000	818.434570	16.405790
2849.840266	17432.460000	817.249023	24.246769
2849.840266	17432.460000	816.062500	65.972794
2849.840266	17432.460000	814.875000	-69.799202
2849.840266	17432.460000	813.688477	29.707695
2849.840266	17432.460000	812.500977	117.197517
2849.840266	17432.460000	811.313477	81.083038
2849.840266	17432.460000	810.125977	134.620361
2849.840266	17432.460000	808.937500	88.521194
2849.840266	17432.460000	807.749023	-1.390537
2849.840266	17432.460000	806.560547	-13.631167
2849.840266	17432.460000	805.372070	121.425041
2849.840266	17432.460000	804.182617	-8.300325
2849.840266	17432.460000	802.994141	132.629120
2849.840266	17432.460000	801.803711	48.673363
2849.840266	17432.460000	800.614258	88.052124
2849.840266	17432.460000	799.424805	175.121048
2849.840266	17432.460000	798.234375	11.618520
2849.840266	17432.460000	797.043945	104.589348
2849.840266	17432.460000	795.852539	-52.910244
2849.840266	17432.460000	794.662109	26.084192
2849.840266	17432.460000	793.470703	-55.887901
2849.840266	17432.460000	792.279297	-58.401295
2849.840266	17432.460000	791.087891	91.966148
2849.840266	17432.460000	789.895508	109.231987
2849.840266	17432.460000	788.703125	11.342508
2849.840266	17432.460000	787.510742	74.215935
2849.840266	17432.460000	786.318359	-35.576668
2849.840266	17432.460000	785.125000	-18.391344
2849.840266	17432.460000	783.931641	58.262211
2849.840266	17432.460000	782.738281	134.859360
2849.840266	17432.460000	781.544922	90.471146
2849.840266	17432.460000	780.350586	20.310329
2849.840266	17432.460000	779.156250	47.254002
2849.840266	17432.460000	777.961914	4.818541
2849.840266	17432.460000	776.767578	-11.873715
2849.840266	17432.460000	775.572266	-22.643309
2849.840266	17432.460000	774.376953	-41.353775
2849.840266	17432.460000	773.181641	102.242226
2849.840266	17432.460000	771.986328	-86.746628
2849.840266	17432.460000	770.790039	34.980614
2849.840266	17432.460000	769.593750	138.825165
2849.840266	17432.460000	768.397461	70.520210
2849.840266	17432.460000	767.201172	45.721786
2849.840266	17432.460000	766.003906	143.487137
2849.840266	17432.460000	764.806641	94.908463
2849.840266	17432.460000	763.609375	79.919167
2849.840266	17432.460000	762.412109	47.125488
2849.840266	17432.460000	761.213867	-40.995983
2849.840266	17432.460000	760.015625	141.472748
2849.840266	17432.460000	758.817383	98.727783
2849.840266	17432.460000	757.618164	113.224152
2849.840266	17432.460000	756.419922	163.214279
2849.840266	17432.460000	755.220703	116.457550
2849.840266	17432.460000	754.021484	120.988274
2849.840266	17432.460000	752.821289	174.801956
2849.840266	17432.460000	751.621094	58.955925
2849.840266	17432.460000	750.420898	43.688297
2849.840266	17432.460000	749.220703	115.136108
2849.840266	17432.460000	748.020508	95.860718
2849.840266	17432.460000	746.819336	129.766205
2849.840266	17432.460000	745.618164	155.746460
2849.840266	17432.460000	744.416992	91.078186
2849.840266	17432.460000	743.214844	138.655151
2849.840266	17432.460000	742.012695	119.238510
2849.840266	17432.460000	740.810547	182.474609
2849.840266	17432.460000	739.608398	359.800354
2849.840266	17432.460000	738.406250	182.842499
2849.840266	17432.460000	737.203125	358.062134
2849.840266	17432.460000	736.000000	377.796722
2849.840266	17432.460000	734.795898	369.960419
2849.840266	17432.460000	733.592773	594.084412
2849.840266	17432.460000	732.388672	609.728516
2849.840266	17432.460000	731.184570	497.595551
2849.840266	17432.460000	729.979492	540.693359
2849.840266	17432.460000	728.775391	477.665131
2849.840266	17432.460000	727.570313	465.692139
2849.840266	17432.460000	726.365234	329.987518
2849.840266	17432.460000	725.160156	231.605957
2849.840266	17432.460000	723.954102	115.566795
2849.840266	17432.460000	722.748047	146.715683
2849.840266	17432.460000	721.541992	150.351868
2849.840266	17432.460000	720.334961	142.182190
2849.840266	17432.460000	719.128906	-44.474808
2849.840266	17432.460000	717.921875	45.365875
2849.840266	17432.460000	716.714844	88.088608
2849.840266	17432.460000	715.506836	-16.230230
2849.840266	17432.460000	714.298828	32.296722
2849.840266	17432.460000	713.090820	110.154305
2849.840266	17432.460000	711.882813	68.469933
2849.840266	17432.460000	710.674805	1.311961
2849.840266	17432.460000	709.465820	51.614555
2849.840266	17432.460000	708.256836	70.543083
2849.840266	17432.460000	707.047852	18.978899
2849.840266	17432.460000	705.837891	94.576820
2849.840266	17432.460000	704.627930	7.747912
2849.840266	17432.460000	703.417969	87.159195
2849.840266	17432.460000	702.208008	27.674467
2849.840266	17432.460000	700.998047	20.963194
2849.840266	17432.460000	699.787109	-19.007406
2849.840266	17432.460000	698.576172	111.010818
2849.840266	17432.460000	697.364258	55.338078
2849.840266	17432.460000	696.153320	1.609003
2849.840266	17432.460000	694.941406	-30.651293
2849.840266	17432.460000	693.729492	30.785942
2849.840266	17432.460000	692.516602	92.161247
2849.840266	17432.460000	691.304688	89.074348
2849.840266	17432.460000	690.091797	58.636101
2849.840266	17432.460000	688.878906	71.094444
2849.840266	17432.460000	687.665039	190.784561
2849.840266	17432.460000	686.451172	41.290874
2849.840266	17432.460000	685.237305	-0.946045
2849.840266	17432.460000	684.023438	60.107620
2849.840266	17432.460000	682.809570	37.305042
2849.840266	17432.460000	681.594727	183.984238
2849.840266	17432.460000	680.379883	75.387535
2849.840266	17432.460000	679.165039	15.491652
2849.840266	17432.460000	677.949219	-42.466515
2849.840266	17432.460000	676.733398	146.799881
2849.840266	17432.460000	675.517578	16.759775
2849.840266	17432.460000	674.301758	139.708786
2849.840266	17432.460000	673.084961	165.297302
2849.840266	17432.460000	671.869141	155.833527
2849.840266	17432.460000	670.651367	93.832153
2849.840266	17432.460000	669.434570	64.879524
2849.840266	17432.460000	668.216797	164.199493
2849.840266	17432.460000	667.000000	162.389526
2849.840266	17432.460000	665.781250	53.678940
2849.840266	17432.460000	664.563477	67.370186
2849.840266	17432.460000	663.344727	180.076126
2849.840266	17432.460000	662.125977	96.582054
2849.840266	17432.460000	660.907227	82.983452
2849.840266	17432.460000	659.688477	148.941269
2849.840266	17432.460000	658.468750	177.968536
2849.840266	17432.460000	657.249023	90.544968
2849.840266	17432.460000	656.029297	224.260757
2849.840266	17432.460000	654.808594	227.953568
2849.840266	17432.460000	653.587891	198.654999
2849.840266	17432.460000	652.367188	72.414215
2849.840266	17432.460000	651.146484	151.639801
2849.840266	17432.460000	649.924805	176.545822
2849.840266	17432.460000	648.704102	154.922470
2849.840266	17432.460000	647.482422	170.079880
2849.840266	17432.460000	646.259766	204.566742
2849.840266	17432.460000	645.037109	165.443161
2849.840266	17432.460000	643.815430	139.862595
2849.840266	17432.460000	642.591797	174.255463
2849.840266	17432.460000	641.369141	175.719528
2849.840266	17432.460000	640.145508	200.369476
2849.840266	17432.460000	638.921875	128.284103
2849.840266	17432.460000	637.698242	73.608871
2849.840266	17432.460000	636.474609	160.057144
2849.840266	17432.460000	635.250000	163.333618
2849.840266	17432.460000	634.025391	141.465927
2849.840266	17432.460000	632.800781	189.136703
2849.840266	17432.460000	631.575195	167.227371
2849.840266	17432.460000	630.349609	193.585480
2849.840266	17432.460000	629.124023	-54.252823
2849.840266	17432.460000	627.898438	132.318939
2849.840266	17432.460000	626.671875	118.078171
2849.840266	17432.460000	625.445313	49.798290
2849.840266	17432.460000	624.218750	0.820172
2849.840266	17432.460000	622.992188	9.706372
2849.840266	17432.460000	621.764648	49.421299
2849.840266	17432.460000	620.537109	100.670578
2849.840266	17432.460000	619.309570	61.291206
2849.840266	17432.460000	618.081055	72.013702
2849.840266	17432.460000	616.852539	-11.688681
2849.840266	17432.460000	615.624023	-187.829498
2849.840266	17432.460000	614.395508	-101.995560
2849.840266	17432.460000	613.166992	-91.302467
2849.840266	17432.460000	611.937500	-17.103701
2849.840266	17432.460000	610.708008	-41.103642
2849.840266	17432.460000	609.477539	-26.623055
2849.840266	17432.460000	608.248047	24.396025
2849.840266	17432.460000	607.017578	-107.340897
2849.840266	17432.460000	605.787109	14.801706
2849.840266	17432.460000	604.555664	-70.756210
2849.840266	17432.460000	603.325195	-31.342833
2849.840266	17432.460000	602.093750	13.808851
2849.840266	17432.460000	600.861328	-48.662800
2849.840266	17432.460000	599.629883	44.484386
2849.840266	17432.460000	598.397461	-29.501629
2849.840266	17432.460000	597.165039	-63.138073
2849.840266	17432.460000	595.932617	-35.333920
2849.840266	17432.460000	594.699219	-40.175034
2849.840266	17432.460000	593.465820	75.872650
2849.840266	17432.460000	592.232422	-7.652069
2849.840266	17432.460000	590.999023	-22.091730
2849.840266	17432.460000	589.764648	13.330618
2849.840266	17432.460000	588.530273	-16.448111
2849.840266	17432.460000	587.295898	97.550362
2849.840266	17432.460000	586.061523	46.688591
2849.840266	17432.460000	584.826172	93.565826
2849.840266	17432.460000	583.590820	100.198578
2849.840266	17432.460000	582.355469	39.800499
2849.840266	17432.460000	581.119141	103.892250
2849.840266	17432.460000	579.882813	-56.021381
2849.840266	17432.460000	578.646484	59.753250
2849.840266	17432.460000	577.410156	47.276482
2849.840266	17432.460000	576.172852	0.372730
2849.840266	17432.460000	574.935547	-35.025002
2849.840266	17432.460000	573.698242	19.482508
2849.840266	17432.460000	572.460938	179.133820
2849.840266	17432.460000	571.222656	29.056639
2849.840266	17432.460000	569.984375	93.101898
2849.840266	17432.460000	568.746094	-26.296497
2849.840266	17432.460000	567.506836	-4.270106
2849.840266	17432.460000	566.267578	12.031999
2849.840266	17432.460000	565.028320	18.794687
2849.840266	17432.460000	563.789063	-10.701952
2849.840266	17432.460000	562.548828	129.700150
2849.840266	17432.460000	561.309570	-44.802029
2849.840266	17432.460000	560.068359	101.304718
2849.840266	17432.460000	558.828125	134.831055
2849.840266	17432.460000	557.586914	48.216400
2849.840266	17432.460000	556.345703	24.578669
2849.840266	17432.460000	555.104492	-132.463684
2849.840266	17432.460000	553.863281	-161.725784
2849.840266	17432.460000	552.621094	-116.643677
2849.840266	17432.460000	551.378906	-25.836361
2849.840266	17432.460000	550.136719	-58.842117
2849.840266	17432.460000	548.893555	-59.439220
2849.840266	17432.460000	547.650391	48.505711
2849.840266	17432.460000	546.407227	17.485628
2849.840266	17432.460000	545.164063	53.110672
2849.840266	17432.460000	543.919922	-0.673713
2849.840266	17432.460000	542.675781	-18.264046
2849.840266	17432.460000	541.431641	-16.799227
2849.840266	17432.460000	540.186523	-26.714605
2849.840266	17432.460000	538.941406	94.571236
2849.840266	17432.460000	537.696289	90.402779
2849.840266	17432.460000	536.451172	8.364738
2849.840266	17432.460000	535.205078	160.058456
2849.840266	17432.460000	533.959961	-62.438747
2849.840266	17432.460000	532.712891	-56.941875
2849.840266	17432.460000	531.466797	-19.134045
2849.840266	17432.460000	530.219727	-9.778978
2849.840266	17432.460000	528.972656	47.052116
2849.840266	17432.460000	527.725586	-4.247025
2849.840266	17432.460000	526.478516	-72.557098
2849.840266	17432.460000	525.230469	-74.423538
2849.840266	17432.460000	523.982422	-91.417236
2849.840266	17432.460000	522.734375	-43.910622
2849.840266	17432.460000	521.485352	-43.764980
2849.840266	17432.460000	520.236328	39.795349
2849.840266	17432.460000	518.987305	85.474556
2849.840266	17432.460000	517.737305	51.627247
2849.840266	17432.460000	516.488281	-82.520439
2849.840266	17432.460000	515.238281	63.626839
2849.840266	17432.460000	513.988281	-85.519760
2849.840266	17432.460000	512.737305	94.718170
2849.840266	17432.460000	511.486328	6.263402
2849.840266	17432.460000	510.235352	55.979218
2849.840266	17432.460000	508.984375	48.986195
2849.840266	17432.460000	507.732422	-33.587955
2849.840266	17432.460000	506.480469	-59.367069
2849.840266	17432.460000	505.228516	66.109718
2849.840266	17432.460000	503.976563	19.633808
2849.840266	17432.460000	502.723633	105.465805
2849.840266	17432.460000	501.470703	19.436720
2849.840266	17432.460000	500.217773	-4.190424
2849.840266	17432.460000	498.963867	28.880190
2849.840266	17432.460000	497.709961	78.975975
2849.840266	17432.460000	496.456055	64.939461
2849.840266	17432.460000	495.202148	3.793848
2849.840266	17432.460000	493.947266	84.197807
2849.840266	17432.460000	492.692383	92.955544
2849.840266	17432.460000	491.437500	67.823563
2849.840266	17432.460000	490.181641	46.524059
2849.840266	17432.460000	488.926758	47.904060
2849.840266	17432.460000	487.670898	113.400017
2849.840266	17432.460000	486.414063	60.237686
2849.840266	17432.460000	485.158203	10.918531
2849.840266	17432.460000	483.901367	-13.846904
2849.840266	17432.460000	482.644531	10.400291
2849.840266	17432.460000	481.386719	89.274010
2849.840266	17432.460000	480.128906	106.067001
2849.840266	17432.460000	478.871094	222.620926
2849.840266	17432.460000	477.613281	30.690966
2849.840266	17432.460000	476.355469	51.405346
2849.840266	17432.460000	475.096680	19.517647
2849.840266	17432.460000	473.837891	55.368080
2849.840266	17432.460000	472.578125	134.481232
2849.840266	17432.460000	471.319336	65.172707
2849.840266	17432.460000	470.059570	106.781013
2849.840266	17432.460000	468.799805	92.077217
2849.840266	17432.460000	467.539063	32.363235
2849.840266	17432.460000	466.278320	38.433407
2849.840266	17432.460000	465.017578	12.642142
2849.840266	17432.460000	463.756836	0.046954
2849.840266	17432.460000	462.495117	56.923393
2849.840266	17432.460000	461.233398	98.816917
2849.840266	17432.460000	459.971680	-5.536883
2849.840266	17432.460000	458.709961	23.321177
2849.840266	17432.460000	457.447266	-75.256241
2849.840266	17432.460000	456.184570	-57.549709
2849.840266	17432.460000	454.921875	93.226967
2849.840266	17432.460000	453.658203	6.070439
2849.840266	17432.460000	452.394531	-6.090150
2849.840266	17432.460000	451.130859	43.588356
2849.840266	17432.460000	449.867188	-50.866852
2849.840266	17432.460000	448.602539	-12.351782
2849.840266	17432.460000	447.337891	7.471052
2849.840266	17432.460000	446.073242	46.031017
2849.840266	17432.460000	444.807617	90.220596
2849.840266	17432.460000	443.542969	42.790276
2849.840266	17432.460000	442.276367	-53.198475
2849.840266	17432.460000	441.010742	30.334406
2849.840266	17432.460000	439.744141	-3.877618
2849.840266	17432.460000	438.478516	4.926745
2849.840266	17432.460000	437.210938	36.170303
2849.840266	17432.460000	435.944336	-33.429703
2849.840266	17432.460000	434.676758	76.279045
2849.840266	17432.460000	433.409180	16.077913
2849.840266	17432.460000	432.141602	-34.747002
2849.840266	17432.460000	430.873047	52.553715
2849.840266	17432.460000	429.604492	39.086365
2849.840266	17432.460000	428.335938	96.515259
2849.840266	17432.460000	427.067383	8.472890
2849.840266	17432.460000	425.797852	-57.150463
2849.840266	17432.460000	424.528320	-40.723934
2849.840266	17432.460000	423.258789	-31.756851
2849.840266	17432.460000	421.988281	-76.825966
2849.840266	17432.460000	420.717773	-60.405632
2849.840266	17432.460000	419.447266	4.424273
2849.840266	17432.460000	418.175781	0.324537
2849.840266	17432.460000	416.905273	52.062252
2849.840266	17432.460000	415.633789	42.344925
2849.840266	17432.460000	414.362305	82.856003
2849.840266	17432.460000	413.089844	-64.569298
2849.840266	17432.460000	411.817383	-46.416149
2849.840266	17432.460000	410.544922	86.995255
2849.840266	17432.460000	409.272461	4.655150
2849.840266	17432.460000	407.999023	85.888542
2849.840266	17432.460000	406.725586	42.538589
2849.840266	17432.460000	405.452148	54.905327
2849.840266	17432.460000	404.177734	-57.234966
2849.840266	17432.460000	402.903320	16.340067
2849.840266	17432.460000	401.628906	19.273916
2849.840266	17432.460000	400.354492	118.679222
2849.840266	17432.460000	399.079102	-28.860209
2849.840266	17432.460000	397.803711	25.852356
2849.840266	17432.460000	396.528320	19.251993
2849.840266	17432.460000	395.251953	49.674000
2849.840266	17432.460000	393.976563	42.917606
2849.840266	17432.460000	392.700195	65.742561
2849.840266	17432.460000	391.422852	5.059891
2849.840266	17432.460000	390.145508	57.350174
2849.840266	17432.460000	388.869141	89.139091
2849.840266	17432.460000	387.590820	-32.933277
2849.840266	17432.460000	386.313477	35.686237
2849.840266	17432.460000	385.035156	-10.633828
2849.840266	17432.460000	383.756836	28.096680
2849.840266	17432.460000	382.478516	79.639259
2849.840266	17432.460000	381.199219	-5.895590
2849.840266	17432.460000	379.919922	12.062758
2849.840266	17432.460000	378.640625	161.183640
2849.840266	17432.460000	377.360352	-0.559873
2849.840266	17432.460000	376.080078	-64.409233
2849.840266	17432.460000	374.799805	-26.737474
2849.840266	17432.460000	373.519531	68.032433
2849.840266	17432.460000	372.238281	-3.690449
2849.840266	17432.460000	370.957031	0.164885
2849.840266	17432.460000	369.675781	-77.426010
2849.840266	17432.460000	368.394531	7.292089
2849.840266	17432.460000	367.112305	19.777401
2849.840266	17432.460000	365.830078	20.972033
2849.840266	17432.460000	364.546875	-74.000397
2849.840266	17432.460000	363.264648	-119.350090
2849.840266	17432.460000	361.981445	-39.507927
2849.840266	17432.460000	360.698242	-2.353011
2849.840266	17432.460000	359.414063	1.348301
2849.840266	17432.460000	358.129883	-41.288906
2849.840266	17432.460000	356.845703	-43.637672
2849.840266	17432.460000	355.561523	49.535271
2849.840266	17432.460000	354.276367	46.600307
2849.840266	17432.460000	352.991211	-37.652489
2849.840266	17432.460000	351.706055	-57.735935
2849.840266	17432.460000	350.420898	17.589941
2849.840266	17432.460000	349.134766	52.069935
2849.840266	17432.460000	347.848633	14.447495
2849.840266	17432.460000	346.561523	-32.704334
2849.840266	17432.460000	345.275391	8.092130
2849.840266	17432.460000	343.988281	-71.010033
2849.840266	17432.460000	342.700195	-3.397179
2849.840266	17432.460000	341.413086	111.593086
2849.840266	17432.460000	340.125000	31.362621
2849.840266	17432.460000	338.836914	-40.053452
2849.840266	17432.460000	337.548828	22.220850
2849.840266	17432.460000	336.259766	-24.306192
2849.840266	17432.460000	334.970703	71.944359
2849.840266	17432.460000	333.681641	-8.501185
2849.840266	17432.460000	332.391602	2.369271
2849.840266	17432.460000	331.101563	69.634102
2849.840266	17432.460000	329.811523	17.156475
2849.840266	17432.460000	328.521484	-48.634212
2849.840266	17432.460000	327.230469	-26.912687
2849.840266	17432.460000	325.939453	30.934767
2849.840266	17432.460000	324.648438	-67.555611
2849.840266	17432.460000	323.356445	108.271194
2849.840266	17432.460000	322.064453	-114.054016
2849.840266	17432.460000	320.772461	16.608389
2849.840266	17432.460000	319.480469	12.955494
2849.840266	17432.460000	318.187500	63.604103
2849.840266	17432.460000	316.894531	14.776818
2849.840266	17432.460000	315.601563	-56.622391
2849.840266	17432.460000	314.307617	-17.058847
2849.840266	17432.460000	313.013672	10.848015
2849.840266	17432.460000	311.719727	74.635323
2849.840266	17432.460000	310.425781	0.581223
2849.840266	17432.460000	309.130859	55.609070
2849.840266	17432.460000	307.835938	-41.792511
2849.840266	17432.460000	306.541016	93.967934
2849.840266	17432.460000	305.245117	-1.266697
2849.840266	17432.460000	303.949219	90.867180
2849.840266	17432.460000	302.653320	5.060936
2849.840266	17432.460000	301.356445	17.036345
2849.840266	17432.460000	300.060547	53.750080
2849.840266	17432.460000	298.763672	-32.669083
