#X		#Y		#Wave		#Intensity
10309.254255	5519.045000	1999.946289	183.897614
10309.254255	5519.045000	1998.981445	188.087204
10309.254255	5519.045000	1998.017578	201.560410
10309.254255	5519.045000	1997.052734	140.930359
10309.254255	5519.045000	1996.088867	144.995789
10309.254255	5519.045000	1995.124023	188.928665
10309.254255	5519.045000	1994.159180	129.058075
10309.254255	5519.045000	1993.193359	34.765263
10309.254255	5519.045000	1992.228516	-19.647743
10309.254255	5519.045000	1991.262695	5.383466
10309.254255	5519.045000	1990.296875	134.565796
10309.254255	5519.045000	1989.331055	-23.125057
10309.254255	5519.045000	1988.365234	118.797928
10309.254255	5519.045000	1987.398438	-60.695251
10309.254255	5519.045000	1986.432617	-9.927682
10309.254255	5519.045000	1985.465820	-23.281576
10309.254255	5519.045000	1984.499023	-38.917976
10309.254255	5519.045000	1983.532227	-17.292782
10309.254255	5519.045000	1982.565430	19.327633
10309.254255	5519.045000	1981.597656	-136.617828
10309.254255	5519.045000	1980.629883	75.737175
10309.254255	5519.045000	1979.662109	-27.964281
10309.254255	5519.045000	1978.694336	4.348166
10309.254255	5519.045000	1977.726563	91.119492
10309.254255	5519.045000	1976.758789	5.216117
10309.254255	5519.045000	1975.790039	5.867917
10309.254255	5519.045000	1974.821289	-8.143268
10309.254255	5519.045000	1973.852539	22.397362
10309.254255	5519.045000	1972.883789	82.661217
10309.254255	5519.045000	1971.915039	86.311493
10309.254255	5519.045000	1970.945313	-8.543470
10309.254255	5519.045000	1969.975586	-90.913208
10309.254255	5519.045000	1969.005859	-74.539101
10309.254255	5519.045000	1968.036133	-50.660522
10309.254255	5519.045000	1967.066406	-56.244316
10309.254255	5519.045000	1966.096680	51.602608
10309.254255	5519.045000	1965.125977	36.365185
10309.254255	5519.045000	1964.155273	-40.325336
10309.254255	5519.045000	1963.184570	-50.410637
10309.254255	5519.045000	1962.213867	-77.625793
10309.254255	5519.045000	1961.242188	-18.597540
10309.254255	5519.045000	1960.271484	3.591851
10309.254255	5519.045000	1959.299805	23.400211
10309.254255	5519.045000	1958.328125	38.367725
10309.254255	5519.045000	1957.356445	70.627777
10309.254255	5519.045000	1956.384766	43.944183
10309.254255	5519.045000	1955.412109	9.972327
10309.254255	5519.045000	1954.439453	-77.986992
10309.254255	5519.045000	1953.467773	38.132397
10309.254255	5519.045000	1952.495117	-98.797035
10309.254255	5519.045000	1951.521484	-117.692635
10309.254255	5519.045000	1950.548828	-87.392616
10309.254255	5519.045000	1949.575195	149.233368
10309.254255	5519.045000	1948.601563	91.208176
10309.254255	5519.045000	1947.627930	-64.927055
10309.254255	5519.045000	1946.654297	-0.062280
10309.254255	5519.045000	1945.680664	-33.320313
10309.254255	5519.045000	1944.706055	-22.354084
10309.254255	5519.045000	1943.732422	-40.776707
10309.254255	5519.045000	1942.757813	-0.285794
10309.254255	5519.045000	1941.783203	50.043774
10309.254255	5519.045000	1940.807617	-98.177383
10309.254255	5519.045000	1939.833008	60.085365
10309.254255	5519.045000	1938.857422	81.093933
10309.254255	5519.045000	1937.881836	121.733887
10309.254255	5519.045000	1936.906250	108.501938
10309.254255	5519.045000	1935.930664	141.845062
10309.254255	5519.045000	1934.955078	28.280577
10309.254255	5519.045000	1933.978516	-6.863067
10309.254255	5519.045000	1933.001953	26.577534
10309.254255	5519.045000	1932.025391	153.036804
10309.254255	5519.045000	1931.048828	71.481926
10309.254255	5519.045000	1930.072266	117.201904
10309.254255	5519.045000	1929.094727	118.899040
10309.254255	5519.045000	1928.118164	-38.347416
10309.254255	5519.045000	1927.140625	-122.159096
10309.254255	5519.045000	1926.163086	28.771511
10309.254255	5519.045000	1925.184570	67.228958
10309.254255	5519.045000	1924.207031	27.486818
10309.254255	5519.045000	1923.228516	43.972561
10309.254255	5519.045000	1922.250000	58.023056
10309.254255	5519.045000	1921.271484	81.851433
10309.254255	5519.045000	1920.292969	5.561984
10309.254255	5519.045000	1919.314453	17.206278
10309.254255	5519.045000	1918.334961	-149.341461
10309.254255	5519.045000	1917.355469	62.475952
10309.254255	5519.045000	1916.375977	-6.395793
10309.254255	5519.045000	1915.396484	5.274693
10309.254255	5519.045000	1914.416992	53.534744
10309.254255	5519.045000	1913.436523	133.485809
10309.254255	5519.045000	1912.457031	25.658903
10309.254255	5519.045000	1911.476563	154.349258
10309.254255	5519.045000	1910.496094	-53.371147
10309.254255	5519.045000	1909.515625	48.482151
10309.254255	5519.045000	1908.534180	-49.496571
10309.254255	5519.045000	1907.552734	47.444885
10309.254255	5519.045000	1906.572266	56.666664
10309.254255	5519.045000	1905.590820	-77.790710
10309.254255	5519.045000	1904.608398	-10.121345
10309.254255	5519.045000	1903.626953	50.216225
10309.254255	5519.045000	1902.644531	-3.861441
10309.254255	5519.045000	1901.663086	-70.090637
10309.254255	5519.045000	1900.680664	21.835838
10309.254255	5519.045000	1899.698242	33.451649
10309.254255	5519.045000	1898.714844	83.967461
10309.254255	5519.045000	1897.732422	-16.296747
10309.254255	5519.045000	1896.749023	31.762173
10309.254255	5519.045000	1895.765625	43.335201
10309.254255	5519.045000	1894.782227	33.023369
10309.254255	5519.045000	1893.798828	-45.326191
10309.254255	5519.045000	1892.814453	-164.953430
10309.254255	5519.045000	1891.831055	-92.673889
10309.254255	5519.045000	1890.846680	-54.428852
10309.254255	5519.045000	1889.862305	59.053883
10309.254255	5519.045000	1888.877930	63.247517
10309.254255	5519.045000	1887.892578	-22.370100
10309.254255	5519.045000	1886.908203	-88.557167
10309.254255	5519.045000	1885.922852	66.037949
10309.254255	5519.045000	1884.937500	36.215424
10309.254255	5519.045000	1883.952148	1.539369
10309.254255	5519.045000	1882.965820	-64.658844
10309.254255	5519.045000	1881.980469	-2.363284
10309.254255	5519.045000	1880.994141	45.351357
10309.254255	5519.045000	1880.007813	0.945555
10309.254255	5519.045000	1879.021484	-87.070709
10309.254255	5519.045000	1878.035156	-68.484329
10309.254255	5519.045000	1877.047852	3.362230
10309.254255	5519.045000	1876.061523	-38.646168
10309.254255	5519.045000	1875.074219	146.923965
10309.254255	5519.045000	1874.086914	138.758865
10309.254255	5519.045000	1873.098633	-50.932198
10309.254255	5519.045000	1872.111328	83.669907
10309.254255	5519.045000	1871.123047	82.726112
10309.254255	5519.045000	1870.135742	-27.081079
10309.254255	5519.045000	1869.147461	22.745157
10309.254255	5519.045000	1868.158203	79.787628
10309.254255	5519.045000	1867.169922	102.946747
10309.254255	5519.045000	1866.180664	72.904312
10309.254255	5519.045000	1865.192383	166.097458
10309.254255	5519.045000	1864.203125	-16.195383
10309.254255	5519.045000	1863.213867	-17.267649
10309.254255	5519.045000	1862.223633	-44.925774
10309.254255	5519.045000	1861.234375	-103.983429
10309.254255	5519.045000	1860.244141	-97.853706
10309.254255	5519.045000	1859.253906	45.841465
10309.254255	5519.045000	1858.263672	83.275856
10309.254255	5519.045000	1857.273438	-50.639454
10309.254255	5519.045000	1856.282227	-51.839870
10309.254255	5519.045000	1855.291992	53.068726
10309.254255	5519.045000	1854.300781	-124.232208
10309.254255	5519.045000	1853.309570	-84.488464
10309.254255	5519.045000	1852.317383	-54.422615
10309.254255	5519.045000	1851.326172	11.765887
10309.254255	5519.045000	1850.333984	75.499107
10309.254255	5519.045000	1849.342773	-29.459923
10309.254255	5519.045000	1848.350586	106.482193
10309.254255	5519.045000	1847.357422	44.866905
10309.254255	5519.045000	1846.365234	98.835815
10309.254255	5519.045000	1845.372070	-18.166233
10309.254255	5519.045000	1844.379883	16.498531
10309.254255	5519.045000	1843.386719	70.382309
10309.254255	5519.045000	1842.393555	47.230785
10309.254255	5519.045000	1841.399414	48.123978
10309.254255	5519.045000	1840.406250	53.808220
10309.254255	5519.045000	1839.412109	59.470356
10309.254255	5519.045000	1838.417969	21.833694
10309.254255	5519.045000	1837.423828	46.691757
10309.254255	5519.045000	1836.429688	-22.211735
10309.254255	5519.045000	1835.434570	89.111351
10309.254255	5519.045000	1834.440430	10.577531
10309.254255	5519.045000	1833.445313	18.526266
10309.254255	5519.045000	1832.450195	-23.980129
10309.254255	5519.045000	1831.454102	-23.269983
10309.254255	5519.045000	1830.458984	73.448364
10309.254255	5519.045000	1829.462891	50.099712
10309.254255	5519.045000	1828.466797	113.132187
10309.254255	5519.045000	1827.470703	29.764147
10309.254255	5519.045000	1826.474609	-58.389069
10309.254255	5519.045000	1825.478516	-81.770233
10309.254255	5519.045000	1824.481445	50.705307
10309.254255	5519.045000	1823.484375	56.044380
10309.254255	5519.045000	1822.487305	1.437039
10309.254255	5519.045000	1821.490234	-5.236237
10309.254255	5519.045000	1820.493164	31.205326
10309.254255	5519.045000	1819.495117	93.967400
10309.254255	5519.045000	1818.498047	92.016899
10309.254255	5519.045000	1817.500000	68.495010
10309.254255	5519.045000	1816.500977	-48.416065
10309.254255	5519.045000	1815.502930	131.543167
10309.254255	5519.045000	1814.504883	40.958248
10309.254255	5519.045000	1813.505859	132.255936
10309.254255	5519.045000	1812.506836	79.949600
10309.254255	5519.045000	1811.507813	-34.548504
10309.254255	5519.045000	1810.508789	-24.655260
10309.254255	5519.045000	1809.508789	121.513077
10309.254255	5519.045000	1808.508789	66.788315
10309.254255	5519.045000	1807.508789	71.824394
10309.254255	5519.045000	1806.508789	88.791351
10309.254255	5519.045000	1805.508789	115.292351
10309.254255	5519.045000	1804.508789	77.265991
10309.254255	5519.045000	1803.507813	82.229225
10309.254255	5519.045000	1802.506836	13.145787
10309.254255	5519.045000	1801.505859	-10.563776
10309.254255	5519.045000	1800.504883	101.785233
10309.254255	5519.045000	1799.502930	111.447975
10309.254255	5519.045000	1798.501953	25.643980
10309.254255	5519.045000	1797.500000	-103.087753
10309.254255	5519.045000	1796.498047	-40.961605
10309.254255	5519.045000	1795.496094	99.825768
10309.254255	5519.045000	1794.493164	107.016289
10309.254255	5519.045000	1793.491211	154.717789
10309.254255	5519.045000	1792.488281	9.321187
10309.254255	5519.045000	1791.485352	56.991566
10309.254255	5519.045000	1790.482422	87.951210
10309.254255	5519.045000	1789.478516	21.214428
10309.254255	5519.045000	1788.475586	135.499069
10309.254255	5519.045000	1787.471680	-28.881258
10309.254255	5519.045000	1786.467773	68.673660
10309.254255	5519.045000	1785.463867	-26.629995
10309.254255	5519.045000	1784.459961	-7.677368
10309.254255	5519.045000	1783.455078	-29.197882
10309.254255	5519.045000	1782.450195	77.741226
10309.254255	5519.045000	1781.445313	25.264107
10309.254255	5519.045000	1780.440430	-48.609596
10309.254255	5519.045000	1779.435547	-82.049202
10309.254255	5519.045000	1778.429688	60.420387
10309.254255	5519.045000	1777.424805	-70.499809
10309.254255	5519.045000	1776.418945	-30.293314
10309.254255	5519.045000	1775.413086	-11.497505
10309.254255	5519.045000	1774.406250	64.285522
10309.254255	5519.045000	1773.400391	18.906773
10309.254255	5519.045000	1772.393555	44.765438
10309.254255	5519.045000	1771.386719	37.365204
10309.254255	5519.045000	1770.379883	25.207647
10309.254255	5519.045000	1769.373047	48.639065
10309.254255	5519.045000	1768.365234	15.103173
10309.254255	5519.045000	1767.358398	78.831001
10309.254255	5519.045000	1766.350586	-37.734947
10309.254255	5519.045000	1765.342773	-52.301376
10309.254255	5519.045000	1764.334961	-52.649433
10309.254255	5519.045000	1763.326172	-83.826180
10309.254255	5519.045000	1762.318359	-88.932030
10309.254255	5519.045000	1761.309570	-169.873718
10309.254255	5519.045000	1760.300781	-42.318836
10309.254255	5519.045000	1759.291016	-42.730995
10309.254255	5519.045000	1758.282227	61.046799
10309.254255	5519.045000	1757.272461	17.972952
10309.254255	5519.045000	1756.262695	-96.114220
10309.254255	5519.045000	1755.252930	-18.456827
10309.254255	5519.045000	1754.243164	-49.692951
10309.254255	5519.045000	1753.233398	-73.830818
10309.254255	5519.045000	1752.222656	-0.987916
10309.254255	5519.045000	1751.211914	-36.974823
10309.254255	5519.045000	1750.201172	-51.678177
10309.254255	5519.045000	1749.190430	-2.555409
10309.254255	5519.045000	1748.179688	-43.281246
10309.254255	5519.045000	1747.167969	-32.013771
10309.254255	5519.045000	1746.156250	-6.584993
10309.254255	5519.045000	1745.144531	-42.595913
10309.254255	5519.045000	1744.132813	-73.880440
10309.254255	5519.045000	1743.121094	60.135727
10309.254255	5519.045000	1742.108398	-27.842272
10309.254255	5519.045000	1741.095703	21.112871
10309.254255	5519.045000	1740.083008	-175.407471
10309.254255	5519.045000	1739.070313	-25.000378
10309.254255	5519.045000	1738.057617	-89.344025
10309.254255	5519.045000	1737.043945	-80.555565
10309.254255	5519.045000	1736.030273	-128.378555
10309.254255	5519.045000	1735.016602	-107.816841
10309.254255	5519.045000	1734.002930	21.165773
10309.254255	5519.045000	1732.989258	-33.749489
10309.254255	5519.045000	1731.974609	-156.993332
10309.254255	5519.045000	1730.959961	-143.550949
10309.254255	5519.045000	1729.945313	-101.856873
10309.254255	5519.045000	1728.930664	-36.637112
10309.254255	5519.045000	1727.916016	-79.766113
10309.254255	5519.045000	1726.900391	-24.013981
10309.254255	5519.045000	1725.885742	74.077614
10309.254255	5519.045000	1724.870117	-79.683937
10309.254255	5519.045000	1723.853516	48.944569
10309.254255	5519.045000	1722.837891	-48.314346
10309.254255	5519.045000	1721.822266	-4.428065
10309.254255	5519.045000	1720.805664	-35.818100
10309.254255	5519.045000	1719.789063	-53.098980
10309.254255	5519.045000	1718.772461	-133.848297
10309.254255	5519.045000	1717.754883	-92.370399
10309.254255	5519.045000	1716.738281	87.717484
10309.254255	5519.045000	1715.720703	-61.170956
10309.254255	5519.045000	1714.703125	-29.152649
10309.254255	5519.045000	1713.685547	42.766094
10309.254255	5519.045000	1712.667969	-21.530397
10309.254255	5519.045000	1711.649414	19.822420
10309.254255	5519.045000	1710.630859	84.620720
10309.254255	5519.045000	1709.612305	29.710735
10309.254255	5519.045000	1708.593750	-142.491959
10309.254255	5519.045000	1707.575195	-84.763206
10309.254255	5519.045000	1706.555664	-62.245823
10309.254255	5519.045000	1705.536133	44.665482
10309.254255	5519.045000	1704.516602	53.066452
10309.254255	5519.045000	1703.497070	91.925873
10309.254255	5519.045000	1702.477539	-23.903179
10309.254255	5519.045000	1701.457031	52.423737
10309.254255	5519.045000	1700.437500	-68.055115
10309.254255	5519.045000	1699.416992	19.944334
10309.254255	5519.045000	1698.395508	96.191139
10309.254255	5519.045000	1697.375000	22.568825
10309.254255	5519.045000	1696.354492	-53.374569
10309.254255	5519.045000	1695.333008	95.365036
10309.254255	5519.045000	1694.311523	80.253349
10309.254255	5519.045000	1693.290039	79.174690
10309.254255	5519.045000	1692.267578	52.358200
10309.254255	5519.045000	1691.246094	16.191879
10309.254255	5519.045000	1690.223633	52.507515
10309.254255	5519.045000	1689.201172	84.125839
10309.254255	5519.045000	1688.178711	-78.256348
10309.254255	5519.045000	1687.155273	-51.317139
10309.254255	5519.045000	1686.132813	17.658173
10309.254255	5519.045000	1685.109375	65.574554
10309.254255	5519.045000	1684.085938	13.045744
10309.254255	5519.045000	1683.062500	86.612297
10309.254255	5519.045000	1682.039063	36.417797
10309.254255	5519.045000	1681.014648	84.259689
10309.254255	5519.045000	1679.990234	41.067650
10309.254255	5519.045000	1678.965820	49.211823
10309.254255	5519.045000	1677.941406	159.980331
10309.254255	5519.045000	1676.916992	46.810219
10309.254255	5519.045000	1675.891602	-19.692505
10309.254255	5519.045000	1674.866211	-30.226561
10309.254255	5519.045000	1673.840820	-82.719154
10309.254255	5519.045000	1672.815430	-25.671721
10309.254255	5519.045000	1671.790039	49.985607
10309.254255	5519.045000	1670.763672	81.343170
10309.254255	5519.045000	1669.737305	75.417137
10309.254255	5519.045000	1668.710938	-137.757309
10309.254255	5519.045000	1667.684570	96.142639
10309.254255	5519.045000	1666.658203	6.398256
10309.254255	5519.045000	1665.630859	-15.832262
10309.254255	5519.045000	1664.603516	31.742178
10309.254255	5519.045000	1663.576172	56.026890
10309.254255	5519.045000	1662.548828	24.474550
10309.254255	5519.045000	1661.520508	120.822433
10309.254255	5519.045000	1660.493164	159.004303
10309.254255	5519.045000	1659.464844	104.180222
10309.254255	5519.045000	1658.436523	79.583214
10309.254255	5519.045000	1657.408203	106.108330
10309.254255	5519.045000	1656.378906	67.564110
10309.254255	5519.045000	1655.350586	8.126089
10309.254255	5519.045000	1654.321289	101.971840
10309.254255	5519.045000	1653.291992	77.360786
10309.254255	5519.045000	1652.261719	82.927620
10309.254255	5519.045000	1651.232422	2.613540
10309.254255	5519.045000	1650.202148	107.959846
10309.254255	5519.045000	1649.171875	-44.265705
10309.254255	5519.045000	1648.141602	67.994064
10309.254255	5519.045000	1647.111328	-70.263741
10309.254255	5519.045000	1646.080078	162.513535
10309.254255	5519.045000	1645.049805	89.188522
10309.254255	5519.045000	1644.018555	80.781006
10309.254255	5519.045000	1642.987305	204.458664
10309.254255	5519.045000	1641.955078	117.241386
10309.254255	5519.045000	1640.923828	150.509460
10309.254255	5519.045000	1639.891602	183.755768
10309.254255	5519.045000	1638.859375	272.556213
10309.254255	5519.045000	1637.827148	108.969421
10309.254255	5519.045000	1636.794922	213.939331
10309.254255	5519.045000	1635.761719	89.753891
10309.254255	5519.045000	1634.729492	164.595657
10309.254255	5519.045000	1633.696289	250.966278
10309.254255	5519.045000	1632.662109	210.087936
10309.254255	5519.045000	1631.628906	55.913761
10309.254255	5519.045000	1630.594727	158.418015
10309.254255	5519.045000	1629.561523	138.369736
10309.254255	5519.045000	1628.527344	120.631836
10309.254255	5519.045000	1627.493164	188.387222
10309.254255	5519.045000	1626.458008	80.535622
10309.254255	5519.045000	1625.423828	316.870544
10309.254255	5519.045000	1624.388672	273.684082
10309.254255	5519.045000	1623.353516	320.553192
10309.254255	5519.045000	1622.318359	145.795319
10309.254255	5519.045000	1621.282227	250.355103
10309.254255	5519.045000	1620.247070	239.498306
10309.254255	5519.045000	1619.210938	187.111649
10309.254255	5519.045000	1618.174805	160.112000
10309.254255	5519.045000	1617.137695	158.483032
10309.254255	5519.045000	1616.101563	336.694641
10309.254255	5519.045000	1615.064453	364.989960
10309.254255	5519.045000	1614.027344	448.583740
10309.254255	5519.045000	1612.990234	158.839355
10309.254255	5519.045000	1611.953125	251.647003
10309.254255	5519.045000	1610.916016	312.165955
10309.254255	5519.045000	1609.877930	409.501465
10309.254255	5519.045000	1608.839844	377.853149
10309.254255	5519.045000	1607.801758	357.723053
10309.254255	5519.045000	1606.763672	353.708405
10309.254255	5519.045000	1605.724609	398.012665
10309.254255	5519.045000	1604.685547	449.198669
10309.254255	5519.045000	1603.646484	410.648865
10309.254255	5519.045000	1602.607422	358.311096
10309.254255	5519.045000	1601.568359	473.846100
10309.254255	5519.045000	1600.528320	529.556885
10309.254255	5519.045000	1599.489258	458.827545
10309.254255	5519.045000	1598.449219	362.841522
10309.254255	5519.045000	1597.408203	365.683472
10309.254255	5519.045000	1596.368164	230.694443
10309.254255	5519.045000	1595.327148	467.818237
10309.254255	5519.045000	1594.287109	275.449646
10309.254255	5519.045000	1593.246094	301.251709
10309.254255	5519.045000	1592.204102	384.422272
10309.254255	5519.045000	1591.163086	327.571014
10309.254255	5519.045000	1590.121094	277.619751
10309.254255	5519.045000	1589.079102	365.326233
10309.254255	5519.045000	1588.037109	336.024567
10309.254255	5519.045000	1586.995117	403.042511
10309.254255	5519.045000	1585.953125	348.521301
10309.254255	5519.045000	1584.910156	337.568634
10309.254255	5519.045000	1583.867188	351.827515
10309.254255	5519.045000	1582.824219	418.779572
10309.254255	5519.045000	1581.781250	430.722717
10309.254255	5519.045000	1580.737305	298.360382
10309.254255	5519.045000	1579.693359	216.427917
10309.254255	5519.045000	1578.649414	303.950806
10309.254255	5519.045000	1577.605469	363.969208
10309.254255	5519.045000	1576.561523	179.080444
10309.254255	5519.045000	1575.516602	234.519180
10309.254255	5519.045000	1574.472656	411.187561
10309.254255	5519.045000	1573.427734	381.928375
10309.254255	5519.045000	1572.381836	295.506348
10309.254255	5519.045000	1571.336914	357.735260
10309.254255	5519.045000	1570.291016	193.629303
10309.254255	5519.045000	1569.246094	312.990967
10309.254255	5519.045000	1568.200195	331.761688
10309.254255	5519.045000	1567.153320	343.668610
10309.254255	5519.045000	1566.107422	229.945480
10309.254255	5519.045000	1565.060547	319.514130
10309.254255	5519.045000	1564.013672	235.521545
10309.254255	5519.045000	1562.966797	288.530365
10309.254255	5519.045000	1561.919922	327.825378
10309.254255	5519.045000	1560.872070	232.470886
10309.254255	5519.045000	1559.825195	264.919830
10309.254255	5519.045000	1558.777344	210.675659
10309.254255	5519.045000	1557.729492	176.980011
10309.254255	5519.045000	1556.680664	188.898697
10309.254255	5519.045000	1555.632813	301.121887
10309.254255	5519.045000	1554.583984	369.995880
10309.254255	5519.045000	1553.535156	340.857513
10309.254255	5519.045000	1552.486328	357.299713
10309.254255	5519.045000	1551.436523	282.620239
10309.254255	5519.045000	1550.387695	349.175751
10309.254255	5519.045000	1549.337891	499.953186
10309.254255	5519.045000	1548.288086	382.044281
10309.254255	5519.045000	1547.238281	612.424805
10309.254255	5519.045000	1546.187500	476.338776
10309.254255	5519.045000	1545.136719	476.820831
10309.254255	5519.045000	1544.086914	465.935303
10309.254255	5519.045000	1543.035156	445.955627
10309.254255	5519.045000	1541.984375	498.753265
10309.254255	5519.045000	1540.933594	492.426270
10309.254255	5519.045000	1539.881836	486.103058
10309.254255	5519.045000	1538.830078	477.514465
10309.254255	5519.045000	1537.778320	548.455627
10309.254255	5519.045000	1536.725586	455.816589
10309.254255	5519.045000	1535.673828	529.015015
10309.254255	5519.045000	1534.621094	486.381622
10309.254255	5519.045000	1533.568359	545.932068
10309.254255	5519.045000	1532.515625	485.164917
10309.254255	5519.045000	1531.461914	385.845917
10309.254255	5519.045000	1530.409180	336.490204
10309.254255	5519.045000	1529.355469	278.084442
10309.254255	5519.045000	1528.301758	181.151428
10309.254255	5519.045000	1527.247070	267.933899
10309.254255	5519.045000	1526.193359	393.231659
10309.254255	5519.045000	1525.138672	357.551392
10309.254255	5519.045000	1524.083984	201.782654
10309.254255	5519.045000	1523.029297	315.709259
10309.254255	5519.045000	1521.974609	207.597076
10309.254255	5519.045000	1520.918945	305.636108
10309.254255	5519.045000	1519.863281	179.466293
10309.254255	5519.045000	1518.807617	275.224548
10309.254255	5519.045000	1517.751953	144.599548
10309.254255	5519.045000	1516.696289	226.764801
10309.254255	5519.045000	1515.639648	193.509521
10309.254255	5519.045000	1514.583008	153.489716
10309.254255	5519.045000	1513.526367	-24.471163
10309.254255	5519.045000	1512.469727	82.569931
10309.254255	5519.045000	1511.412109	81.055565
10309.254255	5519.045000	1510.355469	194.834091
10309.254255	5519.045000	1509.297852	109.699181
10309.254255	5519.045000	1508.240234	178.254517
10309.254255	5519.045000	1507.181641	99.952011
10309.254255	5519.045000	1506.124023	26.210732
10309.254255	5519.045000	1505.065430	-2.329889
10309.254255	5519.045000	1504.006836	100.098862
10309.254255	5519.045000	1502.948242	37.717888
10309.254255	5519.045000	1501.888672	117.549438
10309.254255	5519.045000	1500.830078	204.132599
10309.254255	5519.045000	1499.770508	-167.260254
10309.254255	5519.045000	1498.710938	-60.334122
10309.254255	5519.045000	1497.650391	-23.346949
10309.254255	5519.045000	1496.590820	67.750496
10309.254255	5519.045000	1495.530273	50.623745
10309.254255	5519.045000	1494.469727	-54.377056
10309.254255	5519.045000	1493.409180	-62.433834
10309.254255	5519.045000	1492.348633	-106.519058
10309.254255	5519.045000	1491.287109	-42.463848
10309.254255	5519.045000	1490.225586	-192.349747
10309.254255	5519.045000	1489.164063	51.840027
10309.254255	5519.045000	1488.102539	64.093964
10309.254255	5519.045000	1487.041016	146.124664
10309.254255	5519.045000	1485.978516	-55.377468
10309.254255	5519.045000	1484.916016	-16.047245
10309.254255	5519.045000	1483.853516	106.452431
10309.254255	5519.045000	1482.791016	206.460632
10309.254255	5519.045000	1481.727539	-111.735008
10309.254255	5519.045000	1480.664063	-36.419762
10309.254255	5519.045000	1479.600586	-75.725761
10309.254255	5519.045000	1478.537109	-22.885721
10309.254255	5519.045000	1477.473633	0.761675
10309.254255	5519.045000	1476.409180	-7.013413
10309.254255	5519.045000	1475.344727	-104.576431
10309.254255	5519.045000	1474.280273	-206.506287
10309.254255	5519.045000	1473.215820	117.858345
10309.254255	5519.045000	1472.151367	-8.705013
10309.254255	5519.045000	1471.085938	44.219879
10309.254255	5519.045000	1470.020508	7.433021
10309.254255	5519.045000	1468.955078	-31.461885
10309.254255	5519.045000	1467.888672	57.382107
10309.254255	5519.045000	1466.823242	67.689651
10309.254255	5519.045000	1465.756836	192.325378
10309.254255	5519.045000	1464.690430	117.547676
10309.254255	5519.045000	1463.624023	60.686825
10309.254255	5519.045000	1462.556641	205.054214
10309.254255	5519.045000	1461.490234	119.128685
10309.254255	5519.045000	1460.422852	56.227215
10309.254255	5519.045000	1459.355469	-7.433893
10309.254255	5519.045000	1458.287109	48.234173
10309.254255	5519.045000	1457.219727	56.344887
10309.254255	5519.045000	1456.151367	4.023453
10309.254255	5519.045000	1455.083008	5.841581
10309.254255	5519.045000	1454.014648	143.479630
10309.254255	5519.045000	1452.945313	138.248642
10309.254255	5519.045000	1451.876953	121.754601
10309.254255	5519.045000	1450.807617	76.897789
10309.254255	5519.045000	1449.738281	69.262512
10309.254255	5519.045000	1448.668945	147.626282
10309.254255	5519.045000	1447.598633	128.834442
10309.254255	5519.045000	1446.528320	236.926788
10309.254255	5519.045000	1445.458008	108.403519
10309.254255	5519.045000	1444.387695	148.613403
10309.254255	5519.045000	1443.317383	29.230452
10309.254255	5519.045000	1442.246094	164.498535
10309.254255	5519.045000	1441.174805	189.616547
10309.254255	5519.045000	1440.103516	23.905916
10309.254255	5519.045000	1439.032227	10.806269
10309.254255	5519.045000	1437.960938	73.683487
10309.254255	5519.045000	1436.888672	90.283501
10309.254255	5519.045000	1435.816406	121.345123
10309.254255	5519.045000	1434.744141	66.264000
10309.254255	5519.045000	1433.670898	-18.682116
10309.254255	5519.045000	1432.598633	77.153435
10309.254255	5519.045000	1431.525391	166.575027
10309.254255	5519.045000	1430.452148	183.352081
10309.254255	5519.045000	1429.378906	-54.526459
10309.254255	5519.045000	1428.304688	28.564896
10309.254255	5519.045000	1427.231445	-63.151253
10309.254255	5519.045000	1426.157227	-40.915237
10309.254255	5519.045000	1425.083008	39.441681
10309.254255	5519.045000	1424.007813	23.709148
10309.254255	5519.045000	1422.933594	40.611523
10309.254255	5519.045000	1421.858398	6.413546
10309.254255	5519.045000	1420.783203	47.310696
10309.254255	5519.045000	1419.708008	-198.820419
10309.254255	5519.045000	1418.631836	-38.134872
10309.254255	5519.045000	1417.555664	-17.351305
10309.254255	5519.045000	1416.479492	46.275524
10309.254255	5519.045000	1415.403320	54.466930
10309.254255	5519.045000	1414.327148	-168.043564
10309.254255	5519.045000	1413.250000	-80.083260
10309.254255	5519.045000	1412.173828	-74.900970
10309.254255	5519.045000	1411.096680	-56.863804
10309.254255	5519.045000	1410.018555	-54.076546
10309.254255	5519.045000	1408.941406	-8.929771
10309.254255	5519.045000	1407.863281	58.465904
10309.254255	5519.045000	1406.785156	63.695759
10309.254255	5519.045000	1405.707031	56.807747
10309.254255	5519.045000	1404.628906	-88.484154
10309.254255	5519.045000	1403.549805	-43.855183
10309.254255	5519.045000	1402.470703	151.740768
10309.254255	5519.045000	1401.391602	-97.689377
10309.254255	5519.045000	1400.312500	-40.605476
10309.254255	5519.045000	1399.233398	-75.370224
10309.254255	5519.045000	1398.153320	-1.738806
10309.254255	5519.045000	1397.073242	99.161385
10309.254255	5519.045000	1395.993164	20.279661
10309.254255	5519.045000	1394.913086	118.100967
10309.254255	5519.045000	1393.832031	124.615341
10309.254255	5519.045000	1392.750977	24.518026
10309.254255	5519.045000	1391.669922	151.094269
10309.254255	5519.045000	1390.588867	14.917371
10309.254255	5519.045000	1389.506836	162.439880
10309.254255	5519.045000	1388.425781	-5.491555
10309.254255	5519.045000	1387.343750	99.296631
10309.254255	5519.045000	1386.261719	82.058594
10309.254255	5519.045000	1385.178711	-27.441032
10309.254255	5519.045000	1384.096680	-51.286957
10309.254255	5519.045000	1383.013672	3.135009
10309.254255	5519.045000	1381.930664	-67.657906
10309.254255	5519.045000	1380.846680	60.808998
10309.254255	5519.045000	1379.763672	29.147057
10309.254255	5519.045000	1378.679688	65.085426
10309.254255	5519.045000	1377.595703	28.660259
10309.254255	5519.045000	1376.511719	73.532722
10309.254255	5519.045000	1375.427734	-91.429451
10309.254255	5519.045000	1374.342773	-106.013138
10309.254255	5519.045000	1373.257813	65.876778
10309.254255	5519.045000	1372.172852	-16.434479
10309.254255	5519.045000	1371.087891	46.078518
10309.254255	5519.045000	1370.001953	14.492288
10309.254255	5519.045000	1368.916992	28.166607
10309.254255	5519.045000	1367.831055	22.967884
10309.254255	5519.045000	1366.744141	62.513412
10309.254255	5519.045000	1365.658203	-26.523241
10309.254255	5519.045000	1364.571289	106.756721
10309.254255	5519.045000	1363.484375	4.744998
10309.254255	5519.045000	1362.397461	118.285843
10309.254255	5519.045000	1361.310547	170.889038
10309.254255	5519.045000	1360.222656	-85.859894
10309.254255	5519.045000	1359.135742	80.032585
10309.254255	5519.045000	1358.047852	138.155533
10309.254255	5519.045000	1356.958984	14.051013
10309.254255	5519.045000	1355.871094	36.668922
10309.254255	5519.045000	1354.782227	49.277683
10309.254255	5519.045000	1353.693359	68.164719
10309.254255	5519.045000	1352.604492	143.294357
10309.254255	5519.045000	1351.515625	136.883408
10309.254255	5519.045000	1350.425781	124.442902
10309.254255	5519.045000	1349.335938	0.381254
10309.254255	5519.045000	1348.246094	64.136421
10309.254255	5519.045000	1347.156250	123.048210
10309.254255	5519.045000	1346.066406	145.938385
10309.254255	5519.045000	1344.975586	165.445572
10309.254255	5519.045000	1343.884766	54.466297
10309.254255	5519.045000	1342.793945	126.048843
10309.254255	5519.045000	1341.702148	199.317764
10309.254255	5519.045000	1340.611328	218.620560
10309.254255	5519.045000	1339.519531	176.614594
10309.254255	5519.045000	1338.427734	119.624420
10309.254255	5519.045000	1337.334961	166.323059
10309.254255	5519.045000	1336.243164	225.614883
10309.254255	5519.045000	1335.150391	119.022697
10309.254255	5519.045000	1334.057617	177.250351
10309.254255	5519.045000	1332.964844	194.184021
10309.254255	5519.045000	1331.871094	214.615967
10309.254255	5519.045000	1330.778320	221.229080
10309.254255	5519.045000	1329.684570	67.123085
10309.254255	5519.045000	1328.590820	175.676498
10309.254255	5519.045000	1327.496094	23.960482
10309.254255	5519.045000	1326.402344	121.181625
10309.254255	5519.045000	1325.307617	165.237228
10309.254255	5519.045000	1324.212891	184.814758
10309.254255	5519.045000	1323.117188	-30.466658
10309.254255	5519.045000	1322.022461	-11.000287
10309.254255	5519.045000	1320.926758	127.143616
10309.254255	5519.045000	1319.831055	84.018616
10309.254255	5519.045000	1318.735352	-24.867592
10309.254255	5519.045000	1317.638672	-68.877205
10309.254255	5519.045000	1316.542969	-31.102980
10309.254255	5519.045000	1315.446289	63.370430
10309.254255	5519.045000	1314.349609	39.083252
10309.254255	5519.045000	1313.251953	73.769554
10309.254255	5519.045000	1312.155273	44.739197
10309.254255	5519.045000	1311.057617	-19.552235
10309.254255	5519.045000	1309.959961	143.458313
10309.254255	5519.045000	1308.862305	110.789764
10309.254255	5519.045000	1307.763672	31.026890
10309.254255	5519.045000	1306.665039	21.971920
10309.254255	5519.045000	1305.566406	-176.500763
10309.254255	5519.045000	1304.467773	64.961716
10309.254255	5519.045000	1303.369141	-46.700329
10309.254255	5519.045000	1302.269531	155.372879
10309.254255	5519.045000	1301.169922	-5.584431
10309.254255	5519.045000	1300.070313	-37.917145
10309.254255	5519.045000	1298.970703	95.859940
10309.254255	5519.045000	1297.870117	58.238556
10309.254255	5519.045000	1296.769531	-29.056978
10309.254255	5519.045000	1295.668945	87.222702
10309.254255	5519.045000	1294.568359	-53.375690
10309.254255	5519.045000	1293.466797	24.291021
10309.254255	5519.045000	1292.366211	89.893539
10309.254255	5519.045000	1291.264648	172.644180
10309.254255	5519.045000	1290.162109	11.518921
10309.254255	5519.045000	1289.060547	105.201492
10309.254255	5519.045000	1287.958008	80.159729
10309.254255	5519.045000	1286.855469	62.646507
10309.254255	5519.045000	1285.752930	-23.572710
10309.254255	5519.045000	1284.650391	64.763603
10309.254255	5519.045000	1283.546875	30.313961
10309.254255	5519.045000	1282.444336	169.451248
10309.254255	5519.045000	1281.339844	-13.016570
10309.254255	5519.045000	1280.236328	82.791130
10309.254255	5519.045000	1279.132813	221.336075
10309.254255	5519.045000	1278.028320	212.888702
10309.254255	5519.045000	1276.923828	-12.261726
10309.254255	5519.045000	1275.819336	-25.493809
10309.254255	5519.045000	1274.713867	-45.151333
10309.254255	5519.045000	1273.608398	26.181383
10309.254255	5519.045000	1272.503906	-26.587887
10309.254255	5519.045000	1271.397461	-20.517296
10309.254255	5519.045000	1270.291992	-45.608192
10309.254255	5519.045000	1269.185547	-37.604439
10309.254255	5519.045000	1268.080078	100.039597
10309.254255	5519.045000	1266.972656	-8.613887
10309.254255	5519.045000	1265.866211	-6.249110
10309.254255	5519.045000	1264.759766	19.857634
10309.254255	5519.045000	1263.652344	13.531206
10309.254255	5519.045000	1262.544922	65.466354
10309.254255	5519.045000	1261.436523	-63.544266
10309.254255	5519.045000	1260.329102	-13.640362
10309.254255	5519.045000	1259.220703	-43.224152
10309.254255	5519.045000	1258.112305	-78.870995
10309.254255	5519.045000	1257.003906	-110.817947
10309.254255	5519.045000	1255.895508	-68.968086
10309.254255	5519.045000	1254.786133	-105.732735
10309.254255	5519.045000	1253.676758	-186.087250
10309.254255	5519.045000	1252.567383	-166.724258
10309.254255	5519.045000	1251.458008	-131.831512
10309.254255	5519.045000	1250.347656	-118.453079
10309.254255	5519.045000	1249.237305	-45.187447
10309.254255	5519.045000	1248.126953	-190.210648
10309.254255	5519.045000	1247.016602	-24.804195
10309.254255	5519.045000	1245.905273	-45.608780
10309.254255	5519.045000	1244.793945	-35.577934
10309.254255	5519.045000	1243.682617	6.086414
10309.254255	5519.045000	1242.571289	-56.031521
10309.254255	5519.045000	1241.459961	27.927858
10309.254255	5519.045000	1240.347656	-63.144337
10309.254255	5519.045000	1239.235352	34.158131
10309.254255	5519.045000	1238.123047	40.759308
10309.254255	5519.045000	1237.009766	16.550346
10309.254255	5519.045000	1235.897461	35.068951
10309.254255	5519.045000	1234.784180	21.592817
10309.254255	5519.045000	1233.670898	33.137478
10309.254255	5519.045000	1232.556641	41.724991
10309.254255	5519.045000	1231.443359	40.937374
10309.254255	5519.045000	1230.329102	20.012884
10309.254255	5519.045000	1229.214844	31.736029
10309.254255	5519.045000	1228.099609	68.757820
10309.254255	5519.045000	1226.985352	105.415054
10309.254255	5519.045000	1225.870117	136.660431
10309.254255	5519.045000	1224.754883	156.358978
10309.254255	5519.045000	1223.639648	218.557770
10309.254255	5519.045000	1222.523438	261.237946
10309.254255	5519.045000	1221.408203	229.455429
10309.254255	5519.045000	1220.291992	304.079041
10309.254255	5519.045000	1219.174805	246.514740
10309.254255	5519.045000	1218.058594	345.579620
10309.254255	5519.045000	1216.941406	299.052765
10309.254255	5519.045000	1215.824219	316.449921
10309.254255	5519.045000	1214.707031	329.987122
10309.254255	5519.045000	1213.589844	285.523468
10309.254255	5519.045000	1212.471680	166.040634
10309.254255	5519.045000	1211.353516	275.094452
10309.254255	5519.045000	1210.235352	94.691429
10309.254255	5519.045000	1209.117188	167.981674
10309.254255	5519.045000	1207.998047	81.099281
10309.254255	5519.045000	1206.878906	75.556541
10309.254255	5519.045000	1205.759766	37.241337
10309.254255	5519.045000	1204.640625	133.473190
10309.254255	5519.045000	1203.520508	70.058105
10309.254255	5519.045000	1202.401367	70.954964
10309.254255	5519.045000	1201.281250	-10.685859
10309.254255	5519.045000	1200.160156	143.685165
10309.254255	5519.045000	1199.040039	103.516144
10309.254255	5519.045000	1197.918945	159.900848
10309.254255	5519.045000	1196.797852	155.268982
10309.254255	5519.045000	1195.676758	49.988914
10309.254255	5519.045000	1194.555664	70.156517
10309.254255	5519.045000	1193.433594	144.959167
10309.254255	5519.045000	1192.311523	125.725014
10309.254255	5519.045000	1191.189453	75.711540
10309.254255	5519.045000	1190.066406	103.416206
10309.254255	5519.045000	1188.944336	153.676208
10309.254255	5519.045000	1187.821289	98.432068
10309.254255	5519.045000	1186.698242	86.924004
10309.254255	5519.045000	1185.574219	22.170956
10309.254255	5519.045000	1184.451172	-43.850258
10309.254255	5519.045000	1183.327148	-17.905144
10309.254255	5519.045000	1182.203125	-7.431229
10309.254255	5519.045000	1181.078125	-13.934461
10309.254255	5519.045000	1179.954102	-57.412655
10309.254255	5519.045000	1178.829102	-88.612259
10309.254255	5519.045000	1177.704102	11.980853
10309.254255	5519.045000	1176.579102	-100.212242
10309.254255	5519.045000	1175.453125	30.998329
10309.254255	5519.045000	1174.327148	91.013878
10309.254255	5519.045000	1173.201172	-11.222529
10309.254255	5519.045000	1172.075195	85.686256
10309.254255	5519.045000	1170.949219	-50.866505
10309.254255	5519.045000	1169.822266	-60.187542
10309.254255	5519.045000	1168.695313	67.961884
10309.254255	5519.045000	1167.568359	1.687424
10309.254255	5519.045000	1166.440430	41.558823
10309.254255	5519.045000	1165.313477	2.926411
10309.254255	5519.045000	1164.185547	-45.042191
10309.254255	5519.045000	1163.057617	0.167634
10309.254255	5519.045000	1161.928711	15.951307
10309.254255	5519.045000	1160.800781	139.911621
10309.254255	5519.045000	1159.671875	150.922729
10309.254255	5519.045000	1158.541992	97.834892
10309.254255	5519.045000	1157.413086	102.108856
10309.254255	5519.045000	1156.283203	60.946869
10309.254255	5519.045000	1155.154297	200.911224
10309.254255	5519.045000	1154.023438	142.348404
10309.254255	5519.045000	1152.893555	277.092987
10309.254255	5519.045000	1151.763672	274.323120
10309.254255	5519.045000	1150.632813	251.486908
10309.254255	5519.045000	1149.501953	193.381226
10309.254255	5519.045000	1148.370117	289.099243
10309.254255	5519.045000	1147.239258	214.240448
10309.254255	5519.045000	1146.107422	146.563141
10309.254255	5519.045000	1144.975586	177.715820
10309.254255	5519.045000	1143.843750	286.297821
10309.254255	5519.045000	1142.710938	165.551193
10309.254255	5519.045000	1141.578125	279.107788
10309.254255	5519.045000	1140.445313	158.997665
10309.254255	5519.045000	1139.312500	39.694641
10309.254255	5519.045000	1138.178711	150.296677
10309.254255	5519.045000	1137.045898	103.322357
10309.254255	5519.045000	1135.912109	91.012314
10309.254255	5519.045000	1134.777344	136.046417
10309.254255	5519.045000	1133.643555	181.990677
10309.254255	5519.045000	1132.508789	231.949921
10309.254255	5519.045000	1131.374023	168.642090
10309.254255	5519.045000	1130.239258	161.387238
10309.254255	5519.045000	1129.104492	66.263695
10309.254255	5519.045000	1127.968750	124.351807
10309.254255	5519.045000	1126.833008	62.672752
10309.254255	5519.045000	1125.697266	75.330780
10309.254255	5519.045000	1124.560547	-12.778881
10309.254255	5519.045000	1123.424805	-39.806839
10309.254255	5519.045000	1122.288086	13.292501
10309.254255	5519.045000	1121.151367	-94.883919
10309.254255	5519.045000	1120.013672	21.829126
10309.254255	5519.045000	1118.876953	-19.947405
10309.254255	5519.045000	1117.739258	-19.450216
10309.254255	5519.045000	1116.601563	-7.650187
10309.254255	5519.045000	1115.462891	-74.745903
10309.254255	5519.045000	1114.324219	-81.893768
10309.254255	5519.045000	1113.186523	-27.611454
10309.254255	5519.045000	1112.046875	-14.081240
10309.254255	5519.045000	1110.908203	51.714149
10309.254255	5519.045000	1109.769531	-52.010319
10309.254255	5519.045000	1108.629883	27.813307
10309.254255	5519.045000	1107.490234	-39.860447
10309.254255	5519.045000	1106.349609	-90.654572
10309.254255	5519.045000	1105.209961	50.429680
10309.254255	5519.045000	1104.069336	6.940951
10309.254255	5519.045000	1102.928711	-33.512344
10309.254255	5519.045000	1101.787109	-65.253448
10309.254255	5519.045000	1100.646484	90.165726
10309.254255	5519.045000	1099.504883	-82.058319
10309.254255	5519.045000	1098.363281	-83.906967
10309.254255	5519.045000	1097.221680	-14.534211
10309.254255	5519.045000	1096.079102	-9.964040
10309.254255	5519.045000	1094.936523	57.001431
10309.254255	5519.045000	1093.793945	-1.097956
10309.254255	5519.045000	1092.651367	29.344065
10309.254255	5519.045000	1091.507813	31.628162
10309.254255	5519.045000	1090.364258	-18.458353
10309.254255	5519.045000	1089.220703	35.103382
10309.254255	5519.045000	1088.077148	-42.067177
10309.254255	5519.045000	1086.933594	50.996101
10309.254255	5519.045000	1085.789063	21.829176
10309.254255	5519.045000	1084.644531	19.334196
10309.254255	5519.045000	1083.499023	-92.665314
10309.254255	5519.045000	1082.354492	-71.806656
10309.254255	5519.045000	1081.208984	-8.731205
10309.254255	5519.045000	1080.063477	-27.871199
10309.254255	5519.045000	1078.917969	70.574966
10309.254255	5519.045000	1077.771484	52.300369
10309.254255	5519.045000	1076.625977	-6.359444
10309.254255	5519.045000	1075.479492	-117.102165
10309.254255	5519.045000	1074.332031	-115.398682
10309.254255	5519.045000	1073.185547	-1.565683
10309.254255	5519.045000	1072.038086	63.717110
10309.254255	5519.045000	1070.890625	-35.307568
10309.254255	5519.045000	1069.743164	-93.025101
10309.254255	5519.045000	1068.594727	28.864882
10309.254255	5519.045000	1067.447266	54.748062
10309.254255	5519.045000	1066.298828	-59.974407
10309.254255	5519.045000	1065.149414	11.424356
10309.254255	5519.045000	1064.000977	-43.074150
10309.254255	5519.045000	1062.851563	29.725075
10309.254255	5519.045000	1061.702148	32.436028
10309.254255	5519.045000	1060.552734	-5.456529
10309.254255	5519.045000	1059.402344	83.624512
10309.254255	5519.045000	1058.252930	-58.206337
10309.254255	5519.045000	1057.102539	-35.381199
10309.254255	5519.045000	1055.951172	15.311201
10309.254255	5519.045000	1054.800781	-86.215660
10309.254255	5519.045000	1053.649414	46.602066
10309.254255	5519.045000	1052.498047	69.528961
10309.254255	5519.045000	1051.346680	5.971193
10309.254255	5519.045000	1050.194336	54.115108
10309.254255	5519.045000	1049.042969	48.453018
10309.254255	5519.045000	1047.890625	-6.262451
10309.254255	5519.045000	1046.738281	35.975586
10309.254255	5519.045000	1045.584961	-106.464958
10309.254255	5519.045000	1044.431641	56.645500
10309.254255	5519.045000	1043.278320	124.005638
10309.254255	5519.045000	1042.125000	-2.534496
10309.254255	5519.045000	1040.971680	-2.588228
10309.254255	5519.045000	1039.817383	-66.668587
10309.254255	5519.045000	1038.663086	8.367701
10309.254255	5519.045000	1037.508789	113.627045
10309.254255	5519.045000	1036.353516	-45.294743
10309.254255	5519.045000	1035.198242	110.125076
10309.254255	5519.045000	1034.042969	64.790771
10309.254255	5519.045000	1032.887695	48.062668
10309.254255	5519.045000	1031.732422	127.413902
10309.254255	5519.045000	1030.576172	22.840088
10309.254255	5519.045000	1029.419922	150.757645
10309.254255	5519.045000	1028.263672	-5.527775
10309.254255	5519.045000	1027.106445	-41.808685
10309.254255	5519.045000	1025.949219	113.073593
10309.254255	5519.045000	1024.792969	37.803699
10309.254255	5519.045000	1023.634766	112.321365
10309.254255	5519.045000	1022.477539	50.852890
10309.254255	5519.045000	1021.319336	-7.844113
10309.254255	5519.045000	1020.161133	180.634766
10309.254255	5519.045000	1019.002930	-148.176285
10309.254255	5519.045000	1017.843750	74.780663
10309.254255	5519.045000	1016.684570	53.760685
10309.254255	5519.045000	1015.525391	41.871223
10309.254255	5519.045000	1014.366211	49.566895
10309.254255	5519.045000	1013.207031	102.639732
10309.254255	5519.045000	1012.046875	113.996696
10309.254255	5519.045000	1010.886719	71.332420
10309.254255	5519.045000	1009.726563	22.382298
10309.254255	5519.045000	1008.565430	72.390160
10309.254255	5519.045000	1007.404297	59.598068
10309.254255	5519.045000	1006.243164	83.151108
10309.254255	5519.045000	1005.082031	-37.687489
10309.254255	5519.045000	1003.920898	241.358215
10309.254255	5519.045000	1002.758789	152.788315
10309.254255	5519.045000	1001.596680	208.479767
10309.254255	5519.045000	1000.433594	128.037094
10309.254255	5519.045000	999.271484	118.270943
10309.254255	5519.045000	998.108398	270.525574
10309.254255	5519.045000	996.945313	66.424141
10309.254255	5519.045000	995.782227	85.174713
10309.254255	5519.045000	994.618164	133.768967
10309.254255	5519.045000	993.454102	118.804710
10309.254255	5519.045000	992.290039	120.724922
10309.254255	5519.045000	991.125977	215.186432
10309.254255	5519.045000	989.960938	209.069992
10309.254255	5519.045000	988.796875	112.294533
10309.254255	5519.045000	987.630859	219.693008
10309.254255	5519.045000	986.465820	389.342834
10309.254255	5519.045000	985.300781	336.789795
10309.254255	5519.045000	984.134766	114.407707
10309.254255	5519.045000	982.968750	263.926971
10309.254255	5519.045000	981.801758	97.428383
10309.254255	5519.045000	980.635742	45.977676
10309.254255	5519.045000	979.468750	88.056694
10309.254255	5519.045000	978.301758	79.011116
10309.254255	5519.045000	977.133789	164.404617
10309.254255	5519.045000	975.966797	64.754257
10309.254255	5519.045000	974.798828	15.605699
10309.254255	5519.045000	973.630859	-42.288063
10309.254255	5519.045000	972.461914	11.789907
10309.254255	5519.045000	971.293945	106.049683
10309.254255	5519.045000	970.125000	-34.199024
10309.254255	5519.045000	968.956055	118.458954
10309.254255	5519.045000	967.786133	-14.960179
10309.254255	5519.045000	966.617188	-120.584579
10309.254255	5519.045000	965.447266	47.703423
10309.254255	5519.045000	964.276367	20.503544
10309.254255	5519.045000	963.106445	-59.712643
10309.254255	5519.045000	961.935547	-39.842213
10309.254255	5519.045000	960.764648	35.809456
10309.254255	5519.045000	959.593750	-47.047028
10309.254255	5519.045000	958.422852	-18.510622
10309.254255	5519.045000	957.250977	55.884445
10309.254255	5519.045000	956.079102	24.327002
10309.254255	5519.045000	954.907227	-26.933754
10309.254255	5519.045000	953.734375	-124.918915
10309.254255	5519.045000	952.562500	6.739408
10309.254255	5519.045000	951.389648	45.470520
10309.254255	5519.045000	950.215820	30.488417
10309.254255	5519.045000	949.042969	3.782187
10309.254255	5519.045000	947.869141	42.342083
10309.254255	5519.045000	946.695313	-67.415871
10309.254255	5519.045000	945.521484	-36.112083
10309.254255	5519.045000	944.346680	-24.189154
10309.254255	5519.045000	943.172852	-117.432243
10309.254255	5519.045000	941.998047	-24.911798
10309.254255	5519.045000	940.822266	-125.287338
10309.254255	5519.045000	939.647461	-15.932304
10309.254255	5519.045000	938.471680	-52.923092
10309.254255	5519.045000	937.295898	68.631081
10309.254255	5519.045000	936.119141	65.927666
10309.254255	5519.045000	934.943359	-29.733820
10309.254255	5519.045000	933.766602	11.382148
10309.254255	5519.045000	932.589844	-47.669044
10309.254255	5519.045000	931.413086	-79.807610
10309.254255	5519.045000	930.235352	90.459755
10309.254255	5519.045000	929.057617	160.681641
10309.254255	5519.045000	927.879883	-56.857090
10309.254255	5519.045000	926.702148	179.112823
10309.254255	5519.045000	925.523438	27.436678
10309.254255	5519.045000	924.344727	41.520542
10309.254255	5519.045000	923.166016	-15.081661
10309.254255	5519.045000	921.987305	45.264065
10309.254255	5519.045000	920.807617	27.632465
10309.254255	5519.045000	919.627930	28.002419
10309.254255	5519.045000	919.497070	100.144760
10309.254255	5519.045000	918.331055	-78.225906
10309.254255	5519.045000	917.165039	1.509255
10309.254255	5519.045000	915.999023	103.103867
10309.254255	5519.045000	914.833008	-82.498497
10309.254255	5519.045000	913.666016	26.344690
10309.254255	5519.045000	912.499023	-176.219162
10309.254255	5519.045000	911.332031	-103.905174
10309.254255	5519.045000	910.165039	55.898182
10309.254255	5519.045000	908.997070	-3.159265
10309.254255	5519.045000	907.830078	-8.735443
10309.254255	5519.045000	906.661133	53.717804
10309.254255	5519.045000	905.493164	77.262596
10309.254255	5519.045000	904.325195	10.914969
10309.254255	5519.045000	903.156250	-82.129410
10309.254255	5519.045000	901.987305	-70.744522
10309.254255	5519.045000	900.818359	52.289066
10309.254255	5519.045000	899.648438	29.643085
10309.254255	5519.045000	898.478516	50.672573
10309.254255	5519.045000	897.308594	-110.265327
10309.254255	5519.045000	896.138672	19.911125
10309.254255	5519.045000	894.968750	-0.325202
10309.254255	5519.045000	893.797852	81.266708
10309.254255	5519.045000	892.626953	99.791443
10309.254255	5519.045000	891.456055	144.958191
10309.254255	5519.045000	890.284180	78.638817
10309.254255	5519.045000	889.113281	208.561874
10309.254255	5519.045000	887.941406	168.881516
10309.254255	5519.045000	886.768555	109.836693
10309.254255	5519.045000	885.596680	186.385498
10309.254255	5519.045000	884.423828	158.811920
10309.254255	5519.045000	883.250977	78.000870
10309.254255	5519.045000	882.078125	110.933990
10309.254255	5519.045000	880.905273	180.131989
10309.254255	5519.045000	879.731445	75.158058
10309.254255	5519.045000	878.557617	175.755524
10309.254255	5519.045000	877.383789	107.074982
10309.254255	5519.045000	876.209961	89.174225
10309.254255	5519.045000	875.035156	61.608131
10309.254255	5519.045000	873.860352	152.435471
10309.254255	5519.045000	872.685547	132.102249
10309.254255	5519.045000	871.510742	-30.720469
10309.254255	5519.045000	870.334961	-43.776176
10309.254255	5519.045000	869.159180	27.661894
10309.254255	5519.045000	867.983398	19.415695
10309.254255	5519.045000	866.807617	155.955612
10309.254255	5519.045000	865.630859	-28.446226
10309.254255	5519.045000	864.454102	13.963787
10309.254255	5519.045000	863.277344	143.170685
10309.254255	5519.045000	862.100586	-77.297020
10309.254255	5519.045000	860.922852	34.992405
10309.254255	5519.045000	859.745117	60.465450
10309.254255	5519.045000	858.567383	-58.656528
10309.254255	5519.045000	857.389648	-86.184891
10309.254255	5519.045000	856.210938	45.267662
10309.254255	5519.045000	855.032227	-18.401192
10309.254255	5519.045000	853.853516	168.353134
10309.254255	5519.045000	852.674805	157.636765
10309.254255	5519.045000	851.495117	38.620163
10309.254255	5519.045000	850.315430	80.865082
10309.254255	5519.045000	849.135742	103.844330
10309.254255	5519.045000	847.956055	-58.390694
10309.254255	5519.045000	846.775391	173.813400
10309.254255	5519.045000	845.595703	21.242546
10309.254255	5519.045000	844.415039	87.471916
10309.254255	5519.045000	843.233398	139.252121
10309.254255	5519.045000	842.052734	61.261196
10309.254255	5519.045000	840.871094	141.848709
10309.254255	5519.045000	839.689453	-58.605251
10309.254255	5519.045000	838.506836	57.989182
10309.254255	5519.045000	837.325195	-94.352539
10309.254255	5519.045000	836.142578	-160.223267
10309.254255	5519.045000	834.959961	-58.082771
10309.254255	5519.045000	833.777344	103.996323
10309.254255	5519.045000	832.593750	26.127296
10309.254255	5519.045000	831.410156	17.840620
10309.254255	5519.045000	830.226563	-98.345535
10309.254255	5519.045000	829.042969	-164.140564
10309.254255	5519.045000	827.858398	-35.767101
10309.254255	5519.045000	826.673828	-17.678595
10309.254255	5519.045000	825.489258	38.735886
10309.254255	5519.045000	824.304688	80.753769
10309.254255	5519.045000	823.120117	-6.567248
10309.254255	5519.045000	821.934570	1.921242
10309.254255	5519.045000	820.749023	34.344414
10309.254255	5519.045000	819.562500	9.313072
10309.254255	5519.045000	818.376953	41.720551
10309.254255	5519.045000	817.190430	-153.160828
10309.254255	5519.045000	816.003906	-41.801128
10309.254255	5519.045000	814.817383	-11.794527
10309.254255	5519.045000	813.629883	-46.354458
10309.254255	5519.045000	812.442383	-59.386536
10309.254255	5519.045000	811.254883	47.082424
10309.254255	5519.045000	810.067383	-111.717072
10309.254255	5519.045000	808.878906	-2.892507
10309.254255	5519.045000	807.690430	-3.979886
10309.254255	5519.045000	806.501953	14.036928
10309.254255	5519.045000	805.313477	70.245361
10309.254255	5519.045000	804.124023	9.470532
10309.254255	5519.045000	802.934570	-39.346531
10309.254255	5519.045000	801.745117	133.750717
10309.254255	5519.045000	800.555664	13.364837
10309.254255	5519.045000	799.365234	-21.111698
10309.254255	5519.045000	798.175781	-10.269032
10309.254255	5519.045000	796.985352	-23.270441
10309.254255	5519.045000	795.793945	-136.372284
10309.254255	5519.045000	794.603516	50.829906
10309.254255	5519.045000	793.412109	-45.562511
10309.254255	5519.045000	792.220703	46.263519
10309.254255	5519.045000	791.028320	-85.810280
10309.254255	5519.045000	789.836914	8.367599
10309.254255	5519.045000	788.644531	-4.617115
10309.254255	5519.045000	787.452148	65.704865
10309.254255	5519.045000	786.258789	-82.920013
10309.254255	5519.045000	785.066406	-3.094656
10309.254255	5519.045000	783.873047	12.476616
10309.254255	5519.045000	782.679688	61.333866
10309.254255	5519.045000	781.485352	-11.084576
10309.254255	5519.045000	780.291992	-78.719521
10309.254255	5519.045000	779.097656	22.410229
10309.254255	5519.045000	777.903320	78.352539
10309.254255	5519.045000	776.708008	3.613102
10309.254255	5519.045000	775.512695	38.158718
10309.254255	5519.045000	774.318359	279.280396
10309.254255	5519.045000	773.122070	81.090096
10309.254255	5519.045000	771.926758	117.969810
10309.254255	5519.045000	770.730469	74.146805
10309.254255	5519.045000	769.534180	165.581009
10309.254255	5519.045000	768.337891	230.882690
10309.254255	5519.045000	767.141602	99.309525
10309.254255	5519.045000	765.944336	226.244614
10309.254255	5519.045000	764.747070	289.118073
10309.254255	5519.045000	763.549805	316.411255
10309.254255	5519.045000	762.351563	298.667389
10309.254255	5519.045000	761.154297	245.391388
10309.254255	5519.045000	759.956055	244.246506
10309.254255	5519.045000	758.757813	297.568634
10309.254255	5519.045000	757.558594	159.082108
10309.254255	5519.045000	756.359375	193.456818
10309.254255	5519.045000	755.160156	144.979706
10309.254255	5519.045000	753.960938	132.013397
10309.254255	5519.045000	752.761719	156.901001
10309.254255	5519.045000	751.561523	207.792618
10309.254255	5519.045000	750.361328	258.659363
10309.254255	5519.045000	749.160156	148.732910
10309.254255	5519.045000	747.959961	246.858963
10309.254255	5519.045000	746.758789	179.511734
10309.254255	5519.045000	745.557617	201.973358
10309.254255	5519.045000	744.356445	304.739258
10309.254255	5519.045000	743.154297	225.600143
10309.254255	5519.045000	741.952148	231.495819
10309.254255	5519.045000	740.750000	98.097023
10309.254255	5519.045000	739.547852	33.197472
10309.254255	5519.045000	738.344727	116.988213
10309.254255	5519.045000	737.142578	151.192459
10309.254255	5519.045000	735.939453	112.253044
10309.254255	5519.045000	734.735352	136.998352
10309.254255	5519.045000	733.532227	105.139412
10309.254255	5519.045000	732.328125	184.082382
10309.254255	5519.045000	731.124023	107.433159
10309.254255	5519.045000	729.918945	158.052643
10309.254255	5519.045000	728.714844	152.102570
10309.254255	5519.045000	727.509766	89.618942
10309.254255	5519.045000	726.303711	-12.879952
10309.254255	5519.045000	725.098633	23.565491
10309.254255	5519.045000	723.892578	52.925320
10309.254255	5519.045000	722.686523	28.135988
10309.254255	5519.045000	721.480469	111.582489
10309.254255	5519.045000	720.274414	-4.970798
10309.254255	5519.045000	719.067383	43.149937
10309.254255	5519.045000	717.860352	-2.816588
10309.254255	5519.045000	716.653320	24.105911
10309.254255	5519.045000	715.445313	25.151272
10309.254255	5519.045000	714.238281	75.535049
10309.254255	5519.045000	713.030273	163.478607
10309.254255	5519.045000	711.821289	2.382514
10309.254255	5519.045000	710.613281	-76.460495
10309.254255	5519.045000	709.404297	-96.582527
10309.254255	5519.045000	708.195313	68.743935
10309.254255	5519.045000	706.986328	65.004440
10309.254255	5519.045000	705.776367	-39.645878
10309.254255	5519.045000	704.566406	66.875984
10309.254255	5519.045000	703.356445	-4.920015
10309.254255	5519.045000	702.146484	-62.628910
10309.254255	5519.045000	700.935547	29.722246
10309.254255	5519.045000	699.724609	107.956741
10309.254255	5519.045000	698.513672	-139.610809
10309.254255	5519.045000	697.302734	-87.176987
10309.254255	5519.045000	696.090820	49.551895
10309.254255	5519.045000	694.878906	17.577862
10309.254255	5519.045000	693.666992	-12.056920
10309.254255	5519.045000	692.455078	-25.307362
10309.254255	5519.045000	691.242188	62.076233
10309.254255	5519.045000	690.029297	69.842522
10309.254255	5519.045000	688.816406	-130.637238
10309.254255	5519.045000	687.602539	50.226444
10309.254255	5519.045000	686.389648	109.387871
10309.254255	5519.045000	685.175781	72.642059
10309.254255	5519.045000	683.960938	101.346550
10309.254255	5519.045000	682.747070	41.208649
10309.254255	5519.045000	681.532227	-37.616840
10309.254255	5519.045000	680.317383	58.783875
10309.254255	5519.045000	679.102539	-27.058775
10309.254255	5519.045000	677.886719	-28.819572
10309.254255	5519.045000	676.670898	39.441200
10309.254255	5519.045000	675.455078	-34.734798
10309.254255	5519.045000	674.239258	-104.233643
10309.254255	5519.045000	673.022461	59.597458
10309.254255	5519.045000	671.805664	15.724162
10309.254255	5519.045000	670.588867	72.132957
10309.254255	5519.045000	669.372070	-53.381077
10309.254255	5519.045000	668.154297	119.535461
10309.254255	5519.045000	666.936523	-26.959808
10309.254255	5519.045000	665.718750	-66.224136
10309.254255	5519.045000	664.500977	146.120560
10309.254255	5519.045000	663.282227	48.554569
10309.254255	5519.045000	662.063477	118.678467
10309.254255	5519.045000	660.844727	-55.724876
10309.254255	5519.045000	659.625000	154.009338
10309.254255	5519.045000	658.405273	5.220535
10309.254255	5519.045000	657.185547	14.693531
10309.254255	5519.045000	655.965820	42.746376
10309.254255	5519.045000	654.745117	-17.622711
10309.254255	5519.045000	653.525391	10.371587
10309.254255	5519.045000	652.303711	-119.766716
10309.254255	5519.045000	651.083008	-91.819115
10309.254255	5519.045000	649.861328	-87.151733
10309.254255	5519.045000	648.640625	35.979893
10309.254255	5519.045000	647.417969	28.945745
10309.254255	5519.045000	646.196289	47.432873
10309.254255	5519.045000	644.973633	51.950451
10309.254255	5519.045000	643.750977	107.507599
10309.254255	5519.045000	642.528320	63.210484
10309.254255	5519.045000	641.305664	39.786346
10309.254255	5519.045000	640.082031	146.257584
10309.254255	5519.045000	638.858398	-25.683466
10309.254255	5519.045000	637.634766	64.461449
10309.254255	5519.045000	636.410156	147.579895
10309.254255	5519.045000	635.185547	110.095741
10309.254255	5519.045000	633.960938	156.024826
10309.254255	5519.045000	632.736328	171.781448
10309.254255	5519.045000	631.510742	-81.219582
10309.254255	5519.045000	630.285156	31.786549
10309.254255	5519.045000	629.059570	3.463160
10309.254255	5519.045000	627.833984	32.995068
10309.254255	5519.045000	626.607422	83.309715
10309.254255	5519.045000	625.380859	-86.267448
10309.254255	5519.045000	624.154297	-47.584782
10309.254255	5519.045000	622.927734	-2.014099
10309.254255	5519.045000	621.700195	94.377815
10309.254255	5519.045000	620.472656	79.712929
10309.254255	5519.045000	619.245117	32.656075
10309.254255	5519.045000	618.016602	34.115986
10309.254255	5519.045000	616.788086	-36.090443
10309.254255	5519.045000	615.559570	-0.036645
10309.254255	5519.045000	614.331055	-79.516754
10309.254255	5519.045000	613.101563	2.640091
10309.254255	5519.045000	611.872070	20.082449
10309.254255	5519.045000	610.642578	69.795509
10309.254255	5519.045000	609.413086	-19.011414
10309.254255	5519.045000	608.182617	-8.609942
10309.254255	5519.045000	606.952148	-21.317190
10309.254255	5519.045000	605.721680	-20.219721
10309.254255	5519.045000	604.491211	1.591509
10309.254255	5519.045000	603.259766	25.658754
10309.254255	5519.045000	602.028320	42.763680
10309.254255	5519.045000	600.796875	62.127357
10309.254255	5519.045000	599.564453	145.947739
10309.254255	5519.045000	598.332031	61.554939
10309.254255	5519.045000	597.099609	-48.171261
10309.254255	5519.045000	595.867188	70.038101
10309.254255	5519.045000	594.633789	54.651402
10309.254255	5519.045000	593.400391	55.341656
10309.254255	5519.045000	592.166992	154.928146
10309.254255	5519.045000	590.933594	63.505043
10309.254255	5519.045000	589.699219	61.773552
10309.254255	5519.045000	588.464844	87.595810
10309.254255	5519.045000	587.230469	99.574806
10309.254255	5519.045000	585.995117	122.998581
10309.254255	5519.045000	584.760742	98.119583
10309.254255	5519.045000	583.525391	27.261934
10309.254255	5519.045000	582.289063	78.128189
10309.254255	5519.045000	581.053711	-11.145216
10309.254255	5519.045000	579.817383	46.516178
10309.254255	5519.045000	578.581055	53.614464
10309.254255	5519.045000	577.343750	-72.439919
10309.254255	5519.045000	576.107422	47.029781
10309.254255	5519.045000	574.870117	21.886879
10309.254255	5519.045000	573.631836	21.939934
10309.254255	5519.045000	572.394531	79.281425
10309.254255	5519.045000	571.156250	63.196384
10309.254255	5519.045000	569.917969	76.874672
10309.254255	5519.045000	568.679688	-26.359402
10309.254255	5519.045000	567.440430	46.818001
10309.254255	5519.045000	566.202148	158.866867
10309.254255	5519.045000	564.961914	14.336617
10309.254255	5519.045000	563.722656	105.658043
10309.254255	5519.045000	562.482422	84.733025
10309.254255	5519.045000	561.243164	20.298677
10309.254255	5519.045000	560.001953	35.929958
10309.254255	5519.045000	558.761719	149.886673
10309.254255	5519.045000	557.520508	19.030943
10309.254255	5519.045000	556.279297	-50.068062
10309.254255	5519.045000	555.038086	40.854473
10309.254255	5519.045000	553.795898	19.699799
10309.254255	5519.045000	552.554688	85.355873
10309.254255	5519.045000	551.311523	43.559704
10309.254255	5519.045000	550.069336	49.714813
10309.254255	5519.045000	548.826172	5.585805
10309.254255	5519.045000	547.583984	121.265976
10309.254255	5519.045000	546.339844	29.125315
10309.254255	5519.045000	545.096680	-24.211096
10309.254255	5519.045000	543.852539	-143.735199
10309.254255	5519.045000	542.608398	-165.150375
10309.254255	5519.045000	541.364258	-118.170280
10309.254255	5519.045000	540.119141	56.446457
10309.254255	5519.045000	538.875000	-19.820717
10309.254255	5519.045000	537.628906	17.866919
10309.254255	5519.045000	536.383789	-76.664284
10309.254255	5519.045000	535.137695	-57.277691
10309.254255	5519.045000	533.892578	146.574249
10309.254255	5519.045000	532.645508	-137.055176
10309.254255	5519.045000	531.399414	-51.742142
10309.254255	5519.045000	530.152344	19.837801
10309.254255	5519.045000	528.905273	18.525051
10309.254255	5519.045000	527.658203	24.005930
10309.254255	5519.045000	526.410156	-184.393967
10309.254255	5519.045000	525.163086	-153.919693
10309.254255	5519.045000	523.914063	-173.525803
10309.254255	5519.045000	522.666016	-209.065735
10309.254255	5519.045000	521.416992	-165.072784
10309.254255	5519.045000	520.167969	-112.040871
10309.254255	5519.045000	518.918945	-49.975533
10309.254255	5519.045000	517.669922	-28.855482
10309.254255	5519.045000	516.419922	-107.702957
10309.254255	5519.045000	515.169922	-82.104050
10309.254255	5519.045000	513.919922	-244.958359
10309.254255	5519.045000	512.668945	-76.424423
10309.254255	5519.045000	511.417969	-80.441299
10309.254255	5519.045000	510.166992	-68.605873
10309.254255	5519.045000	508.916016	31.650023
10309.254255	5519.045000	507.664063	-92.661346
10309.254255	5519.045000	506.412109	12.028347
10309.254255	5519.045000	505.160156	-28.418308
10309.254255	5519.045000	503.907227	69.353157
10309.254255	5519.045000	502.655273	-41.380066
10309.254255	5519.045000	501.402344	20.053547
10309.254255	5519.045000	500.148438	-61.245224
10309.254255	5519.045000	498.895508	-104.041084
10309.254255	5519.045000	497.641602	72.727974
10309.254255	5519.045000	496.387695	47.968781
10309.254255	5519.045000	495.132813	-44.692425
10309.254255	5519.045000	493.878906	95.673126
10309.254255	5519.045000	492.624023	59.531551
10309.254255	5519.045000	491.368164	27.897615
10309.254255	5519.045000	490.113281	104.771935
10309.254255	5519.045000	488.857422	32.404163
10309.254255	5519.045000	487.601563	122.746574
10309.254255	5519.045000	486.344727	124.906639
10309.254255	5519.045000	485.088867	188.032516
10309.254255	5519.045000	483.832031	296.267700
10309.254255	5519.045000	482.575195	117.683571
10309.254255	5519.045000	481.317383	90.389450
10309.254255	5519.045000	480.059570	69.852234
10309.254255	5519.045000	478.801758	-9.368014
10309.254255	5519.045000	477.543945	125.730141
10309.254255	5519.045000	476.285156	91.583931
10309.254255	5519.045000	475.027344	120.568695
10309.254255	5519.045000	473.767578	178.813522
10309.254255	5519.045000	472.508789	151.360962
10309.254255	5519.045000	471.249023	205.014542
10309.254255	5519.045000	469.989258	148.222076
10309.254255	5519.045000	468.729492	140.981873
10309.254255	5519.045000	467.469727	340.902557
10309.254255	5519.045000	466.208984	243.503540
10309.254255	5519.045000	464.948242	15.558711
10309.254255	5519.045000	463.686523	219.785095
10309.254255	5519.045000	462.425781	219.143021
10309.254255	5519.045000	461.164063	171.226959
10309.254255	5519.045000	459.901367	105.303947
10309.254255	5519.045000	458.639648	320.459778
10309.254255	5519.045000	457.376953	119.585091
10309.254255	5519.045000	456.114258	139.033691
10309.254255	5519.045000	454.851563	57.320553
10309.254255	5519.045000	453.587891	137.364334
10309.254255	5519.045000	452.324219	284.725342
10309.254255	5519.045000	451.060547	140.048767
10309.254255	5519.045000	449.796875	148.072998
10309.254255	5519.045000	448.532227	68.508362
10309.254255	5519.045000	447.267578	235.806641
10309.254255	5519.045000	446.002930	127.013184
10309.254255	5519.045000	444.737305	72.060226
10309.254255	5519.045000	443.471680	153.900421
10309.254255	5519.045000	442.206055	76.460281
10309.254255	5519.045000	440.940430	140.243866
10309.254255	5519.045000	439.673828	237.570236
10309.254255	5519.045000	438.407227	195.876266
10309.254255	5519.045000	437.140625	228.084274
10309.254255	5519.045000	435.873047	114.632118
10309.254255	5519.045000	434.605469	59.402328
10309.254255	5519.045000	433.337891	207.883408
10309.254255	5519.045000	432.070313	125.688263
10309.254255	5519.045000	430.801758	182.218628
10309.254255	5519.045000	429.533203	223.003845
10309.254255	5519.045000	428.264648	176.469040
10309.254255	5519.045000	426.996094	179.093475
10309.254255	5519.045000	425.726563	145.870148
10309.254255	5519.045000	424.457031	143.890182
10309.254255	5519.045000	423.186523	63.609154
10309.254255	5519.045000	421.916992	95.022858
10309.254255	5519.045000	420.646484	88.362053
10309.254255	5519.045000	419.375977	108.428566
10309.254255	5519.045000	418.104492	12.278394
10309.254255	5519.045000	416.833008	65.669312
10309.254255	5519.045000	415.561523	22.968290
10309.254255	5519.045000	414.290039	87.312202
10309.254255	5519.045000	413.017578	37.739197
10309.254255	5519.045000	411.746094	-69.901352
10309.254255	5519.045000	410.472656	208.210526
10309.254255	5519.045000	409.200195	-4.430313
10309.254255	5519.045000	407.926758	135.119675
10309.254255	5519.045000	406.653320	64.994713
10309.254255	5519.045000	405.379883	37.118340
10309.254255	5519.045000	404.105469	26.946598
10309.254255	5519.045000	402.831055	74.560799
10309.254255	5519.045000	401.556641	41.857651
10309.254255	5519.045000	400.282227	73.594543
10309.254255	5519.045000	399.006836	136.329529
10309.254255	5519.045000	397.731445	49.792084
10309.254255	5519.045000	396.456055	185.625336
10309.254255	5519.045000	395.179688	152.180405
10309.254255	5519.045000	393.903320	42.973682
10309.254255	5519.045000	392.626953	13.686832
10309.254255	5519.045000	391.350586	104.273781
10309.254255	5519.045000	390.073242	147.959381
10309.254255	5519.045000	388.795898	120.334007
10309.254255	5519.045000	387.518555	43.651268
10309.254255	5519.045000	386.240234	-37.651623
10309.254255	5519.045000	384.961914	9.660013
10309.254255	5519.045000	383.683594	-83.128593
10309.254255	5519.045000	382.405273	-51.807606
10309.254255	5519.045000	381.125977	34.733929
10309.254255	5519.045000	379.846680	3.411108
10309.254255	5519.045000	378.567383	100.501915
10309.254255	5519.045000	377.287109	99.706871
10309.254255	5519.045000	376.006836	49.868130
10309.254255	5519.045000	374.726563	-37.908440
10309.254255	5519.045000	373.446289	-108.202759
10309.254255	5519.045000	372.165039	87.109131
10309.254255	5519.045000	370.883789	22.852562
10309.254255	5519.045000	369.602539	-17.330042
10309.254255	5519.045000	368.320313	-102.117035
10309.254255	5519.045000	367.039063	27.542316
10309.254255	5519.045000	365.755859	66.029427
10309.254255	5519.045000	364.473633	11.215489
10309.254255	5519.045000	363.190430	-74.929657
10309.254255	5519.045000	361.907227	86.304237
10309.254255	5519.045000	360.624023	-77.995186
10309.254255	5519.045000	359.340820	-34.808445
10309.254255	5519.045000	358.056641	25.608158
10309.254255	5519.045000	356.772461	36.946678
10309.254255	5519.045000	355.487305	-128.934799
10309.254255	5519.045000	354.202148	-133.953659
10309.254255	5519.045000	352.916992	30.604633
10309.254255	5519.045000	351.631836	-46.068180
10309.254255	5519.045000	350.346680	22.481483
10309.254255	5519.045000	349.060547	44.116875
10309.254255	5519.045000	347.774414	-84.838737
10309.254255	5519.045000	346.487305	76.890846
10309.254255	5519.045000	345.200195	90.205544
10309.254255	5519.045000	343.913086	8.108752
10309.254255	5519.045000	342.625977	-34.874073
10309.254255	5519.045000	341.338867	203.667862
10309.254255	5519.045000	340.050781	-58.782127
10309.254255	5519.045000	338.762695	-19.943665
10309.254255	5519.045000	337.473633	-52.307510
10309.254255	5519.045000	336.184570	-109.580544
10309.254255	5519.045000	334.895508	46.018375
10309.254255	5519.045000	333.606445	-43.527939
10309.254255	5519.045000	332.317383	2.651068
10309.254255	5519.045000	331.027344	-37.806190
10309.254255	5519.045000	329.736328	59.512497
10309.254255	5519.045000	328.446289	-72.745422
10309.254255	5519.045000	327.155273	75.631035
10309.254255	5519.045000	325.864258	-38.537628
10309.254255	5519.045000	324.573242	-81.025993
10309.254255	5519.045000	323.281250	18.384737
10309.254255	5519.045000	321.989258	-63.345947
10309.254255	5519.045000	320.697266	-47.176907
10309.254255	5519.045000	319.405273	82.173180
10309.254255	5519.045000	318.112305	-85.982498
10309.254255	5519.045000	316.819336	-90.497887
10309.254255	5519.045000	315.526367	-10.510910
10309.254255	5519.045000	314.232422	6.861093
10309.254255	5519.045000	312.938477	-22.985329
10309.254255	5519.045000	311.644531	-91.276405
10309.254255	5519.045000	310.349609	-29.222893
10309.254255	5519.045000	309.054688	103.903885
10309.254255	5519.045000	307.759766	58.178471
10309.254255	5519.045000	306.464844	13.359786
10309.254255	5519.045000	305.168945	146.821381
10309.254255	5519.045000	303.873047	-5.876084
10309.254255	5519.045000	302.577148	6.504711
10309.254255	5519.045000	301.281250	286.714020
10309.254255	5519.045000	299.984375	342.023041
