#X		#Y		#Wave		#Intensity
9233.054255	5063.351667	1999.946289	100.022972
9233.054255	5063.351667	1998.981445	62.750526
9233.054255	5063.351667	1998.017578	177.190552
9233.054255	5063.351667	1997.052734	36.246494
9233.054255	5063.351667	1996.088867	-65.101448
9233.054255	5063.351667	1995.124023	63.876785
9233.054255	5063.351667	1994.159180	-27.711443
9233.054255	5063.351667	1993.193359	49.036167
9233.054255	5063.351667	1992.228516	21.685297
9233.054255	5063.351667	1991.262695	-127.027153
9233.054255	5063.351667	1990.296875	75.672340
9233.054255	5063.351667	1989.331055	-60.775936
9233.054255	5063.351667	1988.365234	-135.396591
9233.054255	5063.351667	1987.398438	-111.118202
9233.054255	5063.351667	1986.432617	-57.240726
9233.054255	5063.351667	1985.465820	-25.699390
9233.054255	5063.351667	1984.499023	-110.423691
9233.054255	5063.351667	1983.532227	66.821266
9233.054255	5063.351667	1982.565430	53.658970
9233.054255	5063.351667	1981.597656	-28.734385
9233.054255	5063.351667	1980.629883	249.515457
9233.054255	5063.351667	1979.662109	129.964478
9233.054255	5063.351667	1978.694336	-9.346082
9233.054255	5063.351667	1977.726563	-27.673819
9233.054255	5063.351667	1976.758789	3.331023
9233.054255	5063.351667	1975.790039	-34.822948
9233.054255	5063.351667	1974.821289	60.245373
9233.054255	5063.351667	1973.852539	226.785019
9233.054255	5063.351667	1972.883789	45.429745
9233.054255	5063.351667	1971.915039	229.102295
9233.054255	5063.351667	1970.945313	114.321632
9233.054255	5063.351667	1969.975586	14.342844
9233.054255	5063.351667	1969.005859	-85.627266
9233.054255	5063.351667	1968.036133	280.173737
9233.054255	5063.351667	1967.066406	19.982861
9233.054255	5063.351667	1966.096680	-50.451244
9233.054255	5063.351667	1965.125977	86.008110
9233.054255	5063.351667	1964.155273	0.768292
9233.054255	5063.351667	1963.184570	235.608124
9233.054255	5063.351667	1962.213867	290.644257
9233.054255	5063.351667	1961.242188	-85.058136
9233.054255	5063.351667	1960.271484	85.635506
9233.054255	5063.351667	1959.299805	-161.987793
9233.054255	5063.351667	1958.328125	-35.646774
9233.054255	5063.351667	1957.356445	181.629547
9233.054255	5063.351667	1956.384766	66.867760
9233.054255	5063.351667	1955.412109	62.766510
9233.054255	5063.351667	1954.439453	100.443886
9233.054255	5063.351667	1953.467773	152.843155
9233.054255	5063.351667	1952.495117	25.853506
9233.054255	5063.351667	1951.521484	61.040379
9233.054255	5063.351667	1950.548828	108.488373
9233.054255	5063.351667	1949.575195	-35.625389
9233.054255	5063.351667	1948.601563	-22.556036
9233.054255	5063.351667	1947.627930	64.149475
9233.054255	5063.351667	1946.654297	126.278145
9233.054255	5063.351667	1945.680664	154.030014
9233.054255	5063.351667	1944.706055	-137.166214
9233.054255	5063.351667	1943.732422	27.989700
9233.054255	5063.351667	1942.757813	-135.544128
9233.054255	5063.351667	1941.783203	125.183998
9233.054255	5063.351667	1940.807617	52.406403
9233.054255	5063.351667	1939.833008	104.666321
9233.054255	5063.351667	1938.857422	-134.713943
9233.054255	5063.351667	1937.881836	37.630268
9233.054255	5063.351667	1936.906250	53.134098
9233.054255	5063.351667	1935.930664	232.739487
9233.054255	5063.351667	1934.955078	91.489914
9233.054255	5063.351667	1933.978516	11.510140
9233.054255	5063.351667	1933.001953	14.796491
9233.054255	5063.351667	1932.025391	125.777138
9233.054255	5063.351667	1931.048828	-52.019184
9233.054255	5063.351667	1930.072266	107.881546
9233.054255	5063.351667	1929.094727	245.718262
9233.054255	5063.351667	1928.118164	173.188980
9233.054255	5063.351667	1927.140625	171.607101
9233.054255	5063.351667	1926.163086	86.915993
9233.054255	5063.351667	1925.184570	-56.394478
9233.054255	5063.351667	1924.207031	-40.793465
9233.054255	5063.351667	1923.228516	175.167206
9233.054255	5063.351667	1922.250000	44.169048
9233.054255	5063.351667	1921.271484	96.413429
9233.054255	5063.351667	1920.292969	-14.961799
9233.054255	5063.351667	1919.314453	5.558172
9233.054255	5063.351667	1918.334961	167.665283
9233.054255	5063.351667	1917.355469	124.711807
9233.054255	5063.351667	1916.375977	72.027901
9233.054255	5063.351667	1915.396484	24.254261
9233.054255	5063.351667	1914.416992	-6.413735
9233.054255	5063.351667	1913.436523	189.749039
9233.054255	5063.351667	1912.457031	188.347107
9233.054255	5063.351667	1911.476563	30.934206
9233.054255	5063.351667	1910.496094	185.582092
9233.054255	5063.351667	1909.515625	103.799530
9233.054255	5063.351667	1908.534180	53.734478
9233.054255	5063.351667	1907.552734	-179.002319
9233.054255	5063.351667	1906.572266	-163.209335
9233.054255	5063.351667	1905.590820	-220.464661
9233.054255	5063.351667	1904.608398	60.737495
9233.054255	5063.351667	1903.626953	69.211288
9233.054255	5063.351667	1902.644531	-63.465084
9233.054255	5063.351667	1901.663086	27.785145
9233.054255	5063.351667	1900.680664	-31.824053
9233.054255	5063.351667	1899.698242	86.167473
9233.054255	5063.351667	1898.714844	14.433059
9233.054255	5063.351667	1897.732422	125.100090
9233.054255	5063.351667	1896.749023	-4.937719
9233.054255	5063.351667	1895.765625	37.656635
9233.054255	5063.351667	1894.782227	41.363388
9233.054255	5063.351667	1893.798828	149.556320
9233.054255	5063.351667	1892.814453	-43.506264
9233.054255	5063.351667	1891.831055	-3.325119
9233.054255	5063.351667	1890.846680	2.855841
9233.054255	5063.351667	1889.862305	-90.499557
9233.054255	5063.351667	1888.877930	41.938480
9233.054255	5063.351667	1887.892578	-85.348137
9233.054255	5063.351667	1886.908203	10.659256
9233.054255	5063.351667	1885.922852	-17.088890
9233.054255	5063.351667	1884.937500	-22.989187
9233.054255	5063.351667	1883.952148	104.503929
9233.054255	5063.351667	1882.965820	-51.732117
9233.054255	5063.351667	1881.980469	32.095627
9233.054255	5063.351667	1880.994141	6.829247
9233.054255	5063.351667	1880.007813	-25.691608
9233.054255	5063.351667	1879.021484	-21.852083
9233.054255	5063.351667	1878.035156	112.802528
9233.054255	5063.351667	1877.047852	53.654514
9233.054255	5063.351667	1876.061523	9.062149
9233.054255	5063.351667	1875.074219	-25.824827
9233.054255	5063.351667	1874.086914	-21.964699
9233.054255	5063.351667	1873.098633	-102.808182
9233.054255	5063.351667	1872.111328	14.796881
9233.054255	5063.351667	1871.123047	71.880119
9233.054255	5063.351667	1870.135742	-161.312576
9233.054255	5063.351667	1869.147461	-41.337513
9233.054255	5063.351667	1868.158203	-114.836716
9233.054255	5063.351667	1867.169922	130.793091
9233.054255	5063.351667	1866.180664	323.158691
9233.054255	5063.351667	1865.192383	227.883865
9233.054255	5063.351667	1864.203125	81.907417
9233.054255	5063.351667	1863.213867	-112.326668
9233.054255	5063.351667	1862.223633	-84.293556
9233.054255	5063.351667	1861.234375	122.414711
9233.054255	5063.351667	1860.244141	-62.066807
9233.054255	5063.351667	1859.253906	-111.307793
9233.054255	5063.351667	1858.263672	-44.692509
9233.054255	5063.351667	1857.273438	229.402618
9233.054255	5063.351667	1856.282227	45.026779
9233.054255	5063.351667	1855.291992	-170.641525
9233.054255	5063.351667	1854.300781	125.013199
9233.054255	5063.351667	1853.309570	70.944687
9233.054255	5063.351667	1852.317383	173.581055
9233.054255	5063.351667	1851.326172	170.124237
9233.054255	5063.351667	1850.333984	-33.345478
9233.054255	5063.351667	1849.342773	110.188354
9233.054255	5063.351667	1848.350586	157.307938
9233.054255	5063.351667	1847.357422	28.591879
9233.054255	5063.351667	1846.365234	-25.441395
9233.054255	5063.351667	1845.372070	84.245354
9233.054255	5063.351667	1844.379883	-1.088188
9233.054255	5063.351667	1843.386719	171.102005
9233.054255	5063.351667	1842.393555	-77.851318
9233.054255	5063.351667	1841.399414	-13.986968
9233.054255	5063.351667	1840.406250	-39.151627
9233.054255	5063.351667	1839.412109	-69.128487
9233.054255	5063.351667	1838.417969	194.216995
9233.054255	5063.351667	1837.423828	183.411667
9233.054255	5063.351667	1836.429688	64.444359
9233.054255	5063.351667	1835.434570	41.625778
9233.054255	5063.351667	1834.440430	-72.494102
9233.054255	5063.351667	1833.445313	12.782827
9233.054255	5063.351667	1832.450195	76.396843
9233.054255	5063.351667	1831.454102	12.712353
9233.054255	5063.351667	1830.458984	217.910294
9233.054255	5063.351667	1829.462891	120.586128
9233.054255	5063.351667	1828.466797	-132.704559
9233.054255	5063.351667	1827.470703	0.372747
9233.054255	5063.351667	1826.474609	94.999237
9233.054255	5063.351667	1825.478516	19.283840
9233.054255	5063.351667	1824.481445	149.802765
9233.054255	5063.351667	1823.484375	78.861710
9233.054255	5063.351667	1822.487305	-28.029028
9233.054255	5063.351667	1821.490234	147.898682
9233.054255	5063.351667	1820.493164	-16.513800
9233.054255	5063.351667	1819.495117	132.950287
9233.054255	5063.351667	1818.498047	148.201843
9233.054255	5063.351667	1817.500000	55.659168
9233.054255	5063.351667	1816.500977	123.549309
9233.054255	5063.351667	1815.502930	47.757942
9233.054255	5063.351667	1814.504883	-111.799973
9233.054255	5063.351667	1813.505859	80.447678
9233.054255	5063.351667	1812.506836	160.148636
9233.054255	5063.351667	1811.507813	172.816193
9233.054255	5063.351667	1810.508789	113.704834
9233.054255	5063.351667	1809.508789	-36.275517
9233.054255	5063.351667	1808.508789	146.086472
9233.054255	5063.351667	1807.508789	187.325592
9233.054255	5063.351667	1806.508789	37.336971
9233.054255	5063.351667	1805.508789	-24.216661
9233.054255	5063.351667	1804.508789	28.893824
9233.054255	5063.351667	1803.507813	184.660248
9233.054255	5063.351667	1802.506836	278.251160
9233.054255	5063.351667	1801.505859	324.025574
9233.054255	5063.351667	1800.504883	97.621857
9233.054255	5063.351667	1799.502930	-54.738800
9233.054255	5063.351667	1798.501953	-40.036953
9233.054255	5063.351667	1797.500000	113.002167
9233.054255	5063.351667	1796.498047	87.055138
9233.054255	5063.351667	1795.496094	-217.941849
9233.054255	5063.351667	1794.493164	-84.124115
9233.054255	5063.351667	1793.491211	125.898186
9233.054255	5063.351667	1792.488281	209.482574
9233.054255	5063.351667	1791.485352	171.466934
9233.054255	5063.351667	1790.482422	59.572651
9233.054255	5063.351667	1789.478516	138.259964
9233.054255	5063.351667	1788.475586	123.997185
9233.054255	5063.351667	1787.471680	-28.406292
9233.054255	5063.351667	1786.467773	88.245018
9233.054255	5063.351667	1785.463867	81.038742
9233.054255	5063.351667	1784.459961	0.024445
9233.054255	5063.351667	1783.455078	209.297928
9233.054255	5063.351667	1782.450195	130.598770
9233.054255	5063.351667	1781.445313	85.193336
9233.054255	5063.351667	1780.440430	-24.438116
9233.054255	5063.351667	1779.435547	82.300865
9233.054255	5063.351667	1778.429688	112.892662
9233.054255	5063.351667	1777.424805	333.576904
9233.054255	5063.351667	1776.418945	216.707275
9233.054255	5063.351667	1775.413086	78.462051
9233.054255	5063.351667	1774.406250	218.152634
9233.054255	5063.351667	1773.400391	77.511154
9233.054255	5063.351667	1772.393555	5.744506
9233.054255	5063.351667	1771.386719	-13.802794
9233.054255	5063.351667	1770.379883	37.826122
9233.054255	5063.351667	1769.373047	-3.154060
9233.054255	5063.351667	1768.365234	88.712395
9233.054255	5063.351667	1767.358398	-47.227669
9233.054255	5063.351667	1766.350586	87.227386
9233.054255	5063.351667	1765.342773	112.511177
9233.054255	5063.351667	1764.334961	272.887268
9233.054255	5063.351667	1763.326172	165.304413
9233.054255	5063.351667	1762.318359	121.713348
9233.054255	5063.351667	1761.309570	18.860302
9233.054255	5063.351667	1760.300781	13.140066
9233.054255	5063.351667	1759.291016	14.485641
9233.054255	5063.351667	1758.282227	162.620560
9233.054255	5063.351667	1757.272461	-8.984611
9233.054255	5063.351667	1756.262695	1.714502
9233.054255	5063.351667	1755.252930	-243.245056
9233.054255	5063.351667	1754.243164	-36.175846
9233.054255	5063.351667	1753.233398	54.843956
9233.054255	5063.351667	1752.222656	46.438549
9233.054255	5063.351667	1751.211914	127.867363
9233.054255	5063.351667	1750.201172	105.183105
9233.054255	5063.351667	1749.190430	32.821301
9233.054255	5063.351667	1748.179688	71.538757
9233.054255	5063.351667	1747.167969	-33.956493
9233.054255	5063.351667	1746.156250	120.451645
9233.054255	5063.351667	1745.144531	43.254387
9233.054255	5063.351667	1744.132813	55.796471
9233.054255	5063.351667	1743.121094	-30.885960
9233.054255	5063.351667	1742.108398	-1.889726
9233.054255	5063.351667	1741.095703	-242.043808
9233.054255	5063.351667	1740.083008	32.345169
9233.054255	5063.351667	1739.070313	-47.350670
9233.054255	5063.351667	1738.057617	0.337474
9233.054255	5063.351667	1737.043945	-77.047729
9233.054255	5063.351667	1736.030273	-38.887791
9233.054255	5063.351667	1735.016602	-3.141618
9233.054255	5063.351667	1734.002930	-5.166564
9233.054255	5063.351667	1732.989258	44.621437
9233.054255	5063.351667	1731.974609	47.218025
9233.054255	5063.351667	1730.959961	-60.958279
9233.054255	5063.351667	1729.945313	31.087744
9233.054255	5063.351667	1728.930664	35.920650
9233.054255	5063.351667	1727.916016	38.356953
9233.054255	5063.351667	1726.900391	224.378479
9233.054255	5063.351667	1725.885742	-126.364822
9233.054255	5063.351667	1724.870117	-107.548111
9233.054255	5063.351667	1723.853516	-4.076637
9233.054255	5063.351667	1722.837891	61.679283
9233.054255	5063.351667	1721.822266	-41.970440
9233.054255	5063.351667	1720.805664	-211.464096
9233.054255	5063.351667	1719.789063	143.353653
9233.054255	5063.351667	1718.772461	-216.587372
9233.054255	5063.351667	1717.754883	39.307690
9233.054255	5063.351667	1716.738281	-40.938435
9233.054255	5063.351667	1715.720703	163.064896
9233.054255	5063.351667	1714.703125	113.280823
9233.054255	5063.351667	1713.685547	-124.391037
9233.054255	5063.351667	1712.667969	37.134472
9233.054255	5063.351667	1711.649414	182.124863
9233.054255	5063.351667	1710.630859	59.463367
9233.054255	5063.351667	1709.612305	47.099426
9233.054255	5063.351667	1708.593750	154.354553
9233.054255	5063.351667	1707.575195	41.039505
9233.054255	5063.351667	1706.555664	-32.403519
9233.054255	5063.351667	1705.536133	-141.026642
9233.054255	5063.351667	1704.516602	116.067833
9233.054255	5063.351667	1703.497070	33.168255
9233.054255	5063.351667	1702.477539	109.616676
9233.054255	5063.351667	1701.457031	146.165680
9233.054255	5063.351667	1700.437500	271.684875
9233.054255	5063.351667	1699.416992	-12.743704
9233.054255	5063.351667	1698.395508	-158.947006
9233.054255	5063.351667	1697.375000	17.954535
9233.054255	5063.351667	1696.354492	157.303329
9233.054255	5063.351667	1695.333008	184.227753
9233.054255	5063.351667	1694.311523	-4.154914
9233.054255	5063.351667	1693.290039	85.886078
9233.054255	5063.351667	1692.267578	-128.204529
9233.054255	5063.351667	1691.246094	-40.578983
9233.054255	5063.351667	1690.223633	-6.799302
9233.054255	5063.351667	1689.201172	76.024391
9233.054255	5063.351667	1688.178711	18.557455
9233.054255	5063.351667	1687.155273	0.800183
9233.054255	5063.351667	1686.132813	-269.289001
9233.054255	5063.351667	1685.109375	16.602583
9233.054255	5063.351667	1684.085938	1.097437
9233.054255	5063.351667	1683.062500	11.250588
9233.054255	5063.351667	1682.039063	7.364151
9233.054255	5063.351667	1681.014648	169.156052
9233.054255	5063.351667	1679.990234	15.831877
9233.054255	5063.351667	1678.965820	128.507248
9233.054255	5063.351667	1677.941406	38.172756
9233.054255	5063.351667	1676.916992	62.120781
9233.054255	5063.351667	1675.891602	165.305466
9233.054255	5063.351667	1674.866211	137.871033
9233.054255	5063.351667	1673.840820	-45.744610
9233.054255	5063.351667	1672.815430	6.050707
9233.054255	5063.351667	1671.790039	-84.325623
9233.054255	5063.351667	1670.763672	170.064835
9233.054255	5063.351667	1669.737305	49.357651
9233.054255	5063.351667	1668.710938	80.029793
9233.054255	5063.351667	1667.684570	82.726212
9233.054255	5063.351667	1666.658203	27.206110
9233.054255	5063.351667	1665.630859	22.877550
9233.054255	5063.351667	1664.603516	58.081314
9233.054255	5063.351667	1663.576172	-106.815956
9233.054255	5063.351667	1662.548828	98.142220
9233.054255	5063.351667	1661.520508	63.475178
9233.054255	5063.351667	1660.493164	191.551788
9233.054255	5063.351667	1659.464844	61.530373
9233.054255	5063.351667	1658.436523	45.416908
9233.054255	5063.351667	1657.408203	305.801666
9233.054255	5063.351667	1656.378906	178.088699
9233.054255	5063.351667	1655.350586	294.296448
9233.054255	5063.351667	1654.321289	175.884888
9233.054255	5063.351667	1653.291992	157.338562
9233.054255	5063.351667	1652.261719	291.987244
9233.054255	5063.351667	1651.232422	182.871994
9233.054255	5063.351667	1650.202148	83.058121
9233.054255	5063.351667	1649.171875	238.469727
9233.054255	5063.351667	1648.141602	173.444183
9233.054255	5063.351667	1647.111328	310.190979
9233.054255	5063.351667	1646.080078	321.655945
9233.054255	5063.351667	1645.049805	353.969299
9233.054255	5063.351667	1644.018555	305.127777
9233.054255	5063.351667	1642.987305	395.330963
9233.054255	5063.351667	1641.955078	332.564758
9233.054255	5063.351667	1640.923828	552.421326
9233.054255	5063.351667	1639.891602	364.558502
9233.054255	5063.351667	1638.859375	359.684692
9233.054255	5063.351667	1637.827148	528.432251
9233.054255	5063.351667	1636.794922	627.663025
9233.054255	5063.351667	1635.761719	495.419434
9233.054255	5063.351667	1634.729492	344.711792
9233.054255	5063.351667	1633.696289	464.702698
9233.054255	5063.351667	1632.662109	672.522522
9233.054255	5063.351667	1631.628906	480.209839
9233.054255	5063.351667	1630.594727	435.923370
9233.054255	5063.351667	1629.561523	555.768127
9233.054255	5063.351667	1628.527344	615.466248
9233.054255	5063.351667	1627.493164	552.670593
9233.054255	5063.351667	1626.458008	670.080872
9233.054255	5063.351667	1625.423828	600.357849
9233.054255	5063.351667	1624.388672	662.279297
9233.054255	5063.351667	1623.353516	527.920898
9233.054255	5063.351667	1622.318359	612.906311
9233.054255	5063.351667	1621.282227	635.534729
9233.054255	5063.351667	1620.247070	665.078369
9233.054255	5063.351667	1619.210938	673.839294
9233.054255	5063.351667	1618.174805	590.330811
9233.054255	5063.351667	1617.137695	566.807312
9233.054255	5063.351667	1616.101563	494.876831
9233.054255	5063.351667	1615.064453	625.827881
9233.054255	5063.351667	1614.027344	535.469604
9233.054255	5063.351667	1612.990234	723.969482
9233.054255	5063.351667	1611.953125	511.521515
9233.054255	5063.351667	1610.916016	430.452271
9233.054255	5063.351667	1609.877930	586.618774
9233.054255	5063.351667	1608.839844	526.288147
9233.054255	5063.351667	1607.801758	622.525330
9233.054255	5063.351667	1606.763672	836.112183
9233.054255	5063.351667	1605.724609	722.845093
9233.054255	5063.351667	1604.685547	595.822205
9233.054255	5063.351667	1603.646484	770.191528
9233.054255	5063.351667	1602.607422	824.905701
9233.054255	5063.351667	1601.568359	718.647034
9233.054255	5063.351667	1600.528320	773.357300
9233.054255	5063.351667	1599.489258	779.789001
9233.054255	5063.351667	1598.449219	751.750366
9233.054255	5063.351667	1597.408203	748.998779
9233.054255	5063.351667	1596.368164	822.067810
9233.054255	5063.351667	1595.327148	837.694519
9233.054255	5063.351667	1594.287109	642.074463
9233.054255	5063.351667	1593.246094	754.173279
9233.054255	5063.351667	1592.204102	847.871399
9233.054255	5063.351667	1591.163086	523.875061
9233.054255	5063.351667	1590.121094	679.554321
9233.054255	5063.351667	1589.079102	793.891968
9233.054255	5063.351667	1588.037109	713.244873
9233.054255	5063.351667	1586.995117	754.178040
9233.054255	5063.351667	1585.953125	652.962585
9233.054255	5063.351667	1584.910156	742.051208
9233.054255	5063.351667	1583.867188	698.196350
9233.054255	5063.351667	1582.824219	700.200256
9233.054255	5063.351667	1581.781250	713.672668
9233.054255	5063.351667	1580.737305	628.664368
9233.054255	5063.351667	1579.693359	724.612976
9233.054255	5063.351667	1578.649414	884.648926
9233.054255	5063.351667	1577.605469	646.340149
9233.054255	5063.351667	1576.561523	696.510315
9233.054255	5063.351667	1575.516602	739.809753
9233.054255	5063.351667	1574.472656	753.376892
9233.054255	5063.351667	1573.427734	558.809692
9233.054255	5063.351667	1572.381836	645.616516
9233.054255	5063.351667	1571.336914	787.287170
9233.054255	5063.351667	1570.291016	496.876862
9233.054255	5063.351667	1569.246094	638.564758
9233.054255	5063.351667	1568.200195	496.868958
9233.054255	5063.351667	1567.153320	572.284180
9233.054255	5063.351667	1566.107422	558.616394
9233.054255	5063.351667	1565.060547	659.157288
9233.054255	5063.351667	1564.013672	590.723267
9233.054255	5063.351667	1562.966797	682.136963
9233.054255	5063.351667	1561.919922	508.786560
9233.054255	5063.351667	1560.872070	349.218201
9233.054255	5063.351667	1559.825195	671.129211
9233.054255	5063.351667	1558.777344	630.256775
9233.054255	5063.351667	1557.729492	799.239441
9233.054255	5063.351667	1556.680664	534.957336
9233.054255	5063.351667	1555.632813	558.049866
9233.054255	5063.351667	1554.583984	396.541718
9233.054255	5063.351667	1553.535156	581.497925
9233.054255	5063.351667	1552.486328	611.485352
9233.054255	5063.351667	1551.436523	304.363770
9233.054255	5063.351667	1550.387695	471.100525
9233.054255	5063.351667	1549.337891	676.506592
9233.054255	5063.351667	1548.288086	558.598022
9233.054255	5063.351667	1547.238281	399.798157
9233.054255	5063.351667	1546.187500	416.312622
9233.054255	5063.351667	1545.136719	437.403503
9233.054255	5063.351667	1544.086914	645.052429
9233.054255	5063.351667	1543.035156	634.313232
9233.054255	5063.351667	1541.984375	202.958145
9233.054255	5063.351667	1540.933594	362.887207
9233.054255	5063.351667	1539.881836	254.578735
9233.054255	5063.351667	1538.830078	432.682251
9233.054255	5063.351667	1537.778320	485.790009
9233.054255	5063.351667	1536.725586	404.885254
9233.054255	5063.351667	1535.673828	337.679413
9233.054255	5063.351667	1534.621094	424.941467
9233.054255	5063.351667	1533.568359	335.127350
9233.054255	5063.351667	1532.515625	277.164276
9233.054255	5063.351667	1531.461914	300.956543
9233.054255	5063.351667	1530.409180	331.588226
9233.054255	5063.351667	1529.355469	133.129486
9233.054255	5063.351667	1528.301758	356.639557
9233.054255	5063.351667	1527.247070	276.244629
9233.054255	5063.351667	1526.193359	338.754059
9233.054255	5063.351667	1525.138672	297.009674
9233.054255	5063.351667	1524.083984	209.998398
9233.054255	5063.351667	1523.029297	209.162933
9233.054255	5063.351667	1521.974609	328.433319
9233.054255	5063.351667	1520.918945	160.056107
9233.054255	5063.351667	1519.863281	148.034546
9233.054255	5063.351667	1518.807617	117.948097
9233.054255	5063.351667	1517.751953	85.655502
9233.054255	5063.351667	1516.696289	304.620972
9233.054255	5063.351667	1515.639648	274.651733
9233.054255	5063.351667	1514.583008	129.368073
9233.054255	5063.351667	1513.526367	223.932388
9233.054255	5063.351667	1512.469727	182.826462
9233.054255	5063.351667	1511.412109	-156.651062
9233.054255	5063.351667	1510.355469	252.245300
9233.054255	5063.351667	1509.297852	84.737572
9233.054255	5063.351667	1508.240234	-71.359001
9233.054255	5063.351667	1507.181641	39.219234
9233.054255	5063.351667	1506.124023	158.838501
9233.054255	5063.351667	1505.065430	109.094177
9233.054255	5063.351667	1504.006836	43.613842
9233.054255	5063.351667	1502.948242	-82.737968
9233.054255	5063.351667	1501.888672	138.556503
9233.054255	5063.351667	1500.830078	186.073944
9233.054255	5063.351667	1499.770508	44.123066
9233.054255	5063.351667	1498.710938	-90.954948
9233.054255	5063.351667	1497.650391	17.611750
9233.054255	5063.351667	1496.590820	-38.396469
9233.054255	5063.351667	1495.530273	-121.382423
9233.054255	5063.351667	1494.469727	-78.079369
9233.054255	5063.351667	1493.409180	-181.201904
9233.054255	5063.351667	1492.348633	-92.744904
9233.054255	5063.351667	1491.287109	-11.030016
9233.054255	5063.351667	1490.225586	-77.919609
9233.054255	5063.351667	1489.164063	66.904900
9233.054255	5063.351667	1488.102539	-148.434204
9233.054255	5063.351667	1487.041016	48.214668
9233.054255	5063.351667	1485.978516	-27.424006
9233.054255	5063.351667	1484.916016	59.010769
9233.054255	5063.351667	1483.853516	-50.245453
9233.054255	5063.351667	1482.791016	56.491116
9233.054255	5063.351667	1481.727539	-77.319511
9233.054255	5063.351667	1480.664063	-161.567535
9233.054255	5063.351667	1479.600586	-178.302567
9233.054255	5063.351667	1478.537109	38.719696
9233.054255	5063.351667	1477.473633	-22.893150
9233.054255	5063.351667	1476.409180	-10.307801
9233.054255	5063.351667	1475.344727	6.839161
9233.054255	5063.351667	1474.280273	46.471725
9233.054255	5063.351667	1473.215820	3.062700
9233.054255	5063.351667	1472.151367	-73.796951
9233.054255	5063.351667	1471.085938	15.283937
9233.054255	5063.351667	1470.020508	10.474157
9233.054255	5063.351667	1468.955078	36.738689
9233.054255	5063.351667	1467.888672	-192.245041
9233.054255	5063.351667	1466.823242	38.172462
9233.054255	5063.351667	1465.756836	-121.123772
9233.054255	5063.351667	1464.690430	37.718380
9233.054255	5063.351667	1463.624023	32.694134
9233.054255	5063.351667	1462.556641	97.714569
9233.054255	5063.351667	1461.490234	73.050667
9233.054255	5063.351667	1460.422852	99.961044
9233.054255	5063.351667	1459.355469	53.081699
9233.054255	5063.351667	1458.287109	51.128578
9233.054255	5063.351667	1457.219727	57.203281
9233.054255	5063.351667	1456.151367	-2.188103
9233.054255	5063.351667	1455.083008	84.728859
9233.054255	5063.351667	1454.014648	143.234497
9233.054255	5063.351667	1452.945313	178.878052
9233.054255	5063.351667	1451.876953	-55.919182
9233.054255	5063.351667	1450.807617	26.722485
9233.054255	5063.351667	1449.738281	96.278351
9233.054255	5063.351667	1448.668945	252.111740
9233.054255	5063.351667	1447.598633	31.041630
9233.054255	5063.351667	1446.528320	162.532425
9233.054255	5063.351667	1445.458008	22.993324
9233.054255	5063.351667	1444.387695	52.088409
9233.054255	5063.351667	1443.317383	89.283516
9233.054255	5063.351667	1442.246094	151.526794
9233.054255	5063.351667	1441.174805	149.760849
9233.054255	5063.351667	1440.103516	95.765953
9233.054255	5063.351667	1439.032227	149.624130
9233.054255	5063.351667	1437.960938	232.684021
9233.054255	5063.351667	1436.888672	362.057068
9233.054255	5063.351667	1435.816406	176.447357
9233.054255	5063.351667	1434.744141	102.716141
9233.054255	5063.351667	1433.670898	78.239723
9233.054255	5063.351667	1432.598633	-27.700319
9233.054255	5063.351667	1431.525391	216.542206
9233.054255	5063.351667	1430.452148	230.283325
9233.054255	5063.351667	1429.378906	-16.889101
9233.054255	5063.351667	1428.304688	-12.622976
9233.054255	5063.351667	1427.231445	-100.358963
9233.054255	5063.351667	1426.157227	-82.027489
9233.054255	5063.351667	1425.083008	12.405922
9233.054255	5063.351667	1424.007813	-16.678093
9233.054255	5063.351667	1422.933594	-119.498001
9233.054255	5063.351667	1421.858398	204.897034
9233.054255	5063.351667	1420.783203	186.488541
9233.054255	5063.351667	1419.708008	150.711960
9233.054255	5063.351667	1418.631836	89.884705
9233.054255	5063.351667	1417.555664	-51.512871
9233.054255	5063.351667	1416.479492	75.373627
9233.054255	5063.351667	1415.403320	117.379044
9233.054255	5063.351667	1414.327148	46.846043
9233.054255	5063.351667	1413.250000	-49.223152
9233.054255	5063.351667	1412.173828	-57.106728
9233.054255	5063.351667	1411.096680	144.160858
9233.054255	5063.351667	1410.018555	-69.038528
9233.054255	5063.351667	1408.941406	-175.748062
9233.054255	5063.351667	1407.863281	62.494209
9233.054255	5063.351667	1406.785156	127.439537
9233.054255	5063.351667	1405.707031	49.618053
9233.054255	5063.351667	1404.628906	237.443665
9233.054255	5063.351667	1403.549805	107.056717
9233.054255	5063.351667	1402.470703	146.216064
9233.054255	5063.351667	1401.391602	84.959618
9233.054255	5063.351667	1400.312500	250.073334
9233.054255	5063.351667	1399.233398	59.110760
9233.054255	5063.351667	1398.153320	440.936127
9233.054255	5063.351667	1397.073242	149.223969
9233.054255	5063.351667	1395.993164	212.643082
9233.054255	5063.351667	1394.913086	265.313385
9233.054255	5063.351667	1393.832031	73.745766
9233.054255	5063.351667	1392.750977	89.897781
9233.054255	5063.351667	1391.669922	176.033875
9233.054255	5063.351667	1390.588867	200.771027
9233.054255	5063.351667	1389.506836	220.986526
9233.054255	5063.351667	1388.425781	-75.256454
9233.054255	5063.351667	1387.343750	-83.738228
9233.054255	5063.351667	1386.261719	185.874420
9233.054255	5063.351667	1385.178711	173.705048
9233.054255	5063.351667	1384.096680	226.605484
9233.054255	5063.351667	1383.013672	246.731323
9233.054255	5063.351667	1381.930664	173.993713
9233.054255	5063.351667	1380.846680	-62.287327
9233.054255	5063.351667	1379.763672	4.284535
9233.054255	5063.351667	1378.679688	41.495182
9233.054255	5063.351667	1377.595703	226.994766
9233.054255	5063.351667	1376.511719	75.384583
9233.054255	5063.351667	1375.427734	29.671213
9233.054255	5063.351667	1374.342773	108.837067
9233.054255	5063.351667	1373.257813	165.494003
9233.054255	5063.351667	1372.172852	205.676910
9233.054255	5063.351667	1371.087891	144.718506
9233.054255	5063.351667	1370.001953	152.522278
9233.054255	5063.351667	1368.916992	235.036301
9233.054255	5063.351667	1367.831055	238.203629
9233.054255	5063.351667	1366.744141	268.456696
9233.054255	5063.351667	1365.658203	139.838043
9233.054255	5063.351667	1364.571289	229.383713
9233.054255	5063.351667	1363.484375	129.717850
9233.054255	5063.351667	1362.397461	271.248322
9233.054255	5063.351667	1361.310547	-66.119911
9233.054255	5063.351667	1360.222656	303.338318
9233.054255	5063.351667	1359.135742	162.611237
9233.054255	5063.351667	1358.047852	447.023529
9233.054255	5063.351667	1356.958984	224.502762
9233.054255	5063.351667	1355.871094	286.032959
9233.054255	5063.351667	1354.782227	253.308197
9233.054255	5063.351667	1353.693359	153.116241
9233.054255	5063.351667	1352.604492	220.208679
9233.054255	5063.351667	1351.515625	243.318588
9233.054255	5063.351667	1350.425781	134.600174
9233.054255	5063.351667	1349.335938	310.744293
9233.054255	5063.351667	1348.246094	120.572914
9233.054255	5063.351667	1347.156250	81.091492
9233.054255	5063.351667	1346.066406	100.648331
9233.054255	5063.351667	1344.975586	59.159546
9233.054255	5063.351667	1343.884766	138.970093
9233.054255	5063.351667	1342.793945	10.106946
9233.054255	5063.351667	1341.702148	118.410172
9233.054255	5063.351667	1340.611328	145.245453
9233.054255	5063.351667	1339.519531	118.483757
9233.054255	5063.351667	1338.427734	299.837982
9233.054255	5063.351667	1337.334961	153.813354
9233.054255	5063.351667	1336.243164	239.143417
9233.054255	5063.351667	1335.150391	47.403526
9233.054255	5063.351667	1334.057617	134.824982
9233.054255	5063.351667	1332.964844	172.899567
9233.054255	5063.351667	1331.871094	253.504791
9233.054255	5063.351667	1330.778320	171.318115
9233.054255	5063.351667	1329.684570	140.105698
9233.054255	5063.351667	1328.590820	-5.052742
9233.054255	5063.351667	1327.496094	4.297563
9233.054255	5063.351667	1326.402344	46.789864
9233.054255	5063.351667	1325.307617	-16.023300
9233.054255	5063.351667	1324.212891	99.422028
9233.054255	5063.351667	1323.117188	32.703793
9233.054255	5063.351667	1322.022461	239.742065
9233.054255	5063.351667	1320.926758	50.655087
9233.054255	5063.351667	1319.831055	-0.213062
9233.054255	5063.351667	1318.735352	-8.998539
9233.054255	5063.351667	1317.638672	30.109171
9233.054255	5063.351667	1316.542969	167.936066
9233.054255	5063.351667	1315.446289	109.068451
9233.054255	5063.351667	1314.349609	2.274085
9233.054255	5063.351667	1313.251953	58.924137
9233.054255	5063.351667	1312.155273	-72.218147
9233.054255	5063.351667	1311.057617	14.813659
9233.054255	5063.351667	1309.959961	-126.319267
9233.054255	5063.351667	1308.862305	241.178558
9233.054255	5063.351667	1307.763672	52.496773
9233.054255	5063.351667	1306.665039	230.840439
9233.054255	5063.351667	1305.566406	119.003044
9233.054255	5063.351667	1304.467773	26.224394
9233.054255	5063.351667	1303.369141	135.129059
9233.054255	5063.351667	1302.269531	141.893143
9233.054255	5063.351667	1301.169922	30.178596
9233.054255	5063.351667	1300.070313	230.668549
9233.054255	5063.351667	1298.970703	312.582275
9233.054255	5063.351667	1297.870117	59.887047
9233.054255	5063.351667	1296.769531	82.826675
9233.054255	5063.351667	1295.668945	267.452484
9233.054255	5063.351667	1294.568359	-90.826797
9233.054255	5063.351667	1293.466797	122.384872
9233.054255	5063.351667	1292.366211	136.154449
9233.054255	5063.351667	1291.264648	213.812561
9233.054255	5063.351667	1290.162109	159.777771
9233.054255	5063.351667	1289.060547	202.977264
9233.054255	5063.351667	1287.958008	-49.925209
9233.054255	5063.351667	1286.855469	110.637222
9233.054255	5063.351667	1285.752930	78.248100
9233.054255	5063.351667	1284.650391	58.214569
9233.054255	5063.351667	1283.546875	102.844002
9233.054255	5063.351667	1282.444336	-87.265793
9233.054255	5063.351667	1281.339844	89.026970
9233.054255	5063.351667	1280.236328	54.260265
9233.054255	5063.351667	1279.132813	167.300064
9233.054255	5063.351667	1278.028320	38.134460
9233.054255	5063.351667	1276.923828	85.973709
9233.054255	5063.351667	1275.819336	61.380829
9233.054255	5063.351667	1274.713867	75.374245
9233.054255	5063.351667	1273.608398	82.216873
9233.054255	5063.351667	1272.503906	48.101269
9233.054255	5063.351667	1271.397461	-46.288357
9233.054255	5063.351667	1270.291992	88.145096
9233.054255	5063.351667	1269.185547	-4.541421
9233.054255	5063.351667	1268.080078	88.319786
9233.054255	5063.351667	1266.972656	59.703152
9233.054255	5063.351667	1265.866211	-19.111784
9233.054255	5063.351667	1264.759766	98.058540
9233.054255	5063.351667	1263.652344	8.554955
9233.054255	5063.351667	1262.544922	-15.886126
9233.054255	5063.351667	1261.436523	3.171858
9233.054255	5063.351667	1260.329102	-156.385803
9233.054255	5063.351667	1259.220703	-18.571259
9233.054255	5063.351667	1258.112305	0.372361
9233.054255	5063.351667	1257.003906	-172.594467
9233.054255	5063.351667	1255.895508	-153.895020
9233.054255	5063.351667	1254.786133	-115.655205
9233.054255	5063.351667	1253.676758	-131.023438
9233.054255	5063.351667	1252.567383	-29.799011
9233.054255	5063.351667	1251.458008	-105.363228
9233.054255	5063.351667	1250.347656	-83.400513
9233.054255	5063.351667	1249.237305	-27.235132
9233.054255	5063.351667	1248.126953	-170.744476
9233.054255	5063.351667	1247.016602	37.230171
9233.054255	5063.351667	1245.905273	-11.604942
9233.054255	5063.351667	1244.793945	-48.032120
9233.054255	5063.351667	1243.682617	-132.698288
9233.054255	5063.351667	1242.571289	-31.570675
9233.054255	5063.351667	1241.459961	-109.428047
9233.054255	5063.351667	1240.347656	72.357719
9233.054255	5063.351667	1239.235352	49.661552
9233.054255	5063.351667	1238.123047	-33.791409
9233.054255	5063.351667	1237.009766	-79.294891
9233.054255	5063.351667	1235.897461	-2.769568
9233.054255	5063.351667	1234.784180	-42.128632
9233.054255	5063.351667	1233.670898	-144.445435
9233.054255	5063.351667	1232.556641	-61.011719
9233.054255	5063.351667	1231.443359	28.260603
9233.054255	5063.351667	1230.329102	-83.349258
9233.054255	5063.351667	1229.214844	58.545322
9233.054255	5063.351667	1228.099609	108.513908
9233.054255	5063.351667	1226.985352	9.945388
9233.054255	5063.351667	1225.870117	47.759609
9233.054255	5063.351667	1224.754883	43.495533
9233.054255	5063.351667	1223.639648	0.328526
9233.054255	5063.351667	1222.523438	100.175819
9233.054255	5063.351667	1221.408203	83.915581
9233.054255	5063.351667	1220.291992	130.095581
9233.054255	5063.351667	1219.174805	141.976135
9233.054255	5063.351667	1218.058594	10.156142
9233.054255	5063.351667	1216.941406	201.669678
9233.054255	5063.351667	1215.824219	207.153412
9233.054255	5063.351667	1214.707031	140.697739
9233.054255	5063.351667	1213.589844	93.295441
9233.054255	5063.351667	1212.471680	139.415497
9233.054255	5063.351667	1211.353516	69.641823
9233.054255	5063.351667	1210.235352	123.576584
9233.054255	5063.351667	1209.117188	-42.731773
9233.054255	5063.351667	1207.998047	39.803856
9233.054255	5063.351667	1206.878906	62.685425
9233.054255	5063.351667	1205.759766	150.926208
9233.054255	5063.351667	1204.640625	207.440887
9233.054255	5063.351667	1203.520508	68.291153
9233.054255	5063.351667	1202.401367	133.454987
9233.054255	5063.351667	1201.281250	130.218323
9233.054255	5063.351667	1200.160156	-19.905602
9233.054255	5063.351667	1199.040039	-92.985603
9233.054255	5063.351667	1197.918945	-103.051247
9233.054255	5063.351667	1196.797852	-61.537037
9233.054255	5063.351667	1195.676758	-25.330046
9233.054255	5063.351667	1194.555664	-43.773407
9233.054255	5063.351667	1193.433594	-14.444143
9233.054255	5063.351667	1192.311523	-2.178065
9233.054255	5063.351667	1191.189453	-75.118103
9233.054255	5063.351667	1190.066406	59.002453
9233.054255	5063.351667	1188.944336	-177.579361
9233.054255	5063.351667	1187.821289	-72.652092
9233.054255	5063.351667	1186.698242	-59.463566
9233.054255	5063.351667	1185.574219	-117.457092
9233.054255	5063.351667	1184.451172	-27.023451
9233.054255	5063.351667	1183.327148	-16.062588
9233.054255	5063.351667	1182.203125	-201.819366
9233.054255	5063.351667	1181.078125	-41.586723
9233.054255	5063.351667	1179.954102	93.880402
9233.054255	5063.351667	1178.829102	-130.123688
9233.054255	5063.351667	1177.704102	-139.341827
9233.054255	5063.351667	1176.579102	-28.418867
9233.054255	5063.351667	1175.453125	-89.844101
9233.054255	5063.351667	1174.327148	-173.032196
9233.054255	5063.351667	1173.201172	-62.182678
9233.054255	5063.351667	1172.075195	-103.356384
9233.054255	5063.351667	1170.949219	-152.663956
9233.054255	5063.351667	1169.822266	-127.068405
9233.054255	5063.351667	1168.695313	-105.659088
9233.054255	5063.351667	1167.568359	12.134983
9233.054255	5063.351667	1166.440430	-32.117966
9233.054255	5063.351667	1165.313477	94.948677
9233.054255	5063.351667	1164.185547	-89.635811
9233.054255	5063.351667	1163.057617	-77.673599
9233.054255	5063.351667	1161.928711	-48.888515
9233.054255	5063.351667	1160.800781	-221.588593
9233.054255	5063.351667	1159.671875	-109.851143
9233.054255	5063.351667	1158.541992	-58.398136
9233.054255	5063.351667	1157.413086	-24.685942
9233.054255	5063.351667	1156.283203	-61.904255
9233.054255	5063.351667	1155.154297	40.344170
9233.054255	5063.351667	1154.023438	127.906609
9233.054255	5063.351667	1152.893555	-4.813727
9233.054255	5063.351667	1151.763672	-2.386451
9233.054255	5063.351667	1150.632813	29.804283
9233.054255	5063.351667	1149.501953	4.131378
9233.054255	5063.351667	1148.370117	83.611038
9233.054255	5063.351667	1147.239258	26.374222
9233.054255	5063.351667	1146.107422	-23.950752
9233.054255	5063.351667	1144.975586	22.221035
9233.054255	5063.351667	1143.843750	164.573944
9233.054255	5063.351667	1142.710938	111.714897
9233.054255	5063.351667	1141.578125	56.592171
9233.054255	5063.351667	1140.445313	125.817871
9233.054255	5063.351667	1139.312500	84.872269
9233.054255	5063.351667	1138.178711	-73.399498
9233.054255	5063.351667	1137.045898	85.536285
9233.054255	5063.351667	1135.912109	98.878891
9233.054255	5063.351667	1134.777344	98.436638
9233.054255	5063.351667	1133.643555	39.805912
9233.054255	5063.351667	1132.508789	211.877228
9233.054255	5063.351667	1131.374023	71.853996
9233.054255	5063.351667	1130.239258	-21.951471
9233.054255	5063.351667	1129.104492	236.255585
9233.054255	5063.351667	1127.968750	155.550598
9233.054255	5063.351667	1126.833008	75.756218
9233.054255	5063.351667	1125.697266	146.810745
9233.054255	5063.351667	1124.560547	110.401871
9233.054255	5063.351667	1123.424805	142.945755
9233.054255	5063.351667	1122.288086	101.717293
9233.054255	5063.351667	1121.151367	69.409386
9233.054255	5063.351667	1120.013672	47.459629
9233.054255	5063.351667	1118.876953	203.479706
9233.054255	5063.351667	1117.739258	188.960159
9233.054255	5063.351667	1116.601563	-17.993912
9233.054255	5063.351667	1115.462891	-21.509432
9233.054255	5063.351667	1114.324219	-37.392372
9233.054255	5063.351667	1113.186523	-62.086285
9233.054255	5063.351667	1112.046875	102.952904
9233.054255	5063.351667	1110.908203	-5.165772
9233.054255	5063.351667	1109.769531	-24.583942
9233.054255	5063.351667	1108.629883	59.194366
9233.054255	5063.351667	1107.490234	103.629967
9233.054255	5063.351667	1106.349609	-38.484341
9233.054255	5063.351667	1105.209961	57.900311
9233.054255	5063.351667	1104.069336	52.047333
9233.054255	5063.351667	1102.928711	337.770203
9233.054255	5063.351667	1101.787109	172.044235
9233.054255	5063.351667	1100.646484	-46.604919
9233.054255	5063.351667	1099.504883	170.592804
9233.054255	5063.351667	1098.363281	114.825996
9233.054255	5063.351667	1097.221680	10.473494
9233.054255	5063.351667	1096.079102	33.392345
9233.054255	5063.351667	1094.936523	142.027100
9233.054255	5063.351667	1093.793945	94.139412
9233.054255	5063.351667	1092.651367	197.015381
9233.054255	5063.351667	1091.507813	218.664307
9233.054255	5063.351667	1090.364258	50.400948
9233.054255	5063.351667	1089.220703	47.251656
9233.054255	5063.351667	1088.077148	99.673424
9233.054255	5063.351667	1086.933594	158.396683
9233.054255	5063.351667	1085.789063	169.255829
9233.054255	5063.351667	1084.644531	60.806980
9233.054255	5063.351667	1083.499023	234.539764
9233.054255	5063.351667	1082.354492	332.368439
9233.054255	5063.351667	1081.208984	141.819061
9233.054255	5063.351667	1080.063477	290.212585
9233.054255	5063.351667	1078.917969	244.134918
9233.054255	5063.351667	1077.771484	176.989624
9233.054255	5063.351667	1076.625977	197.400223
9233.054255	5063.351667	1075.479492	240.780243
9233.054255	5063.351667	1074.332031	165.493881
9233.054255	5063.351667	1073.185547	215.795700
9233.054255	5063.351667	1072.038086	236.931091
9233.054255	5063.351667	1070.890625	139.790558
9233.054255	5063.351667	1069.743164	54.581158
9233.054255	5063.351667	1068.594727	58.230659
9233.054255	5063.351667	1067.447266	237.931412
9233.054255	5063.351667	1066.298828	186.242050
9233.054255	5063.351667	1065.149414	201.023849
9233.054255	5063.351667	1064.000977	267.809174
9233.054255	5063.351667	1062.851563	174.847931
9233.054255	5063.351667	1061.702148	93.657791
9233.054255	5063.351667	1060.552734	59.853046
9233.054255	5063.351667	1059.402344	102.488251
9233.054255	5063.351667	1058.252930	264.009125
9233.054255	5063.351667	1057.102539	56.081356
9233.054255	5063.351667	1055.951172	174.304489
9233.054255	5063.351667	1054.800781	-26.138248
9233.054255	5063.351667	1053.649414	12.323912
9233.054255	5063.351667	1052.498047	157.993073
9233.054255	5063.351667	1051.346680	104.489426
9233.054255	5063.351667	1050.194336	198.133926
9233.054255	5063.351667	1049.042969	16.555363
9233.054255	5063.351667	1047.890625	31.174854
9233.054255	5063.351667	1046.738281	238.963593
9233.054255	5063.351667	1045.584961	2.987555
9233.054255	5063.351667	1044.431641	161.058807
9233.054255	5063.351667	1043.278320	159.461639
9233.054255	5063.351667	1042.125000	22.161949
9233.054255	5063.351667	1040.971680	92.388351
9233.054255	5063.351667	1039.817383	153.999680
9233.054255	5063.351667	1038.663086	206.987823
9233.054255	5063.351667	1037.508789	137.297241
9233.054255	5063.351667	1036.353516	122.664619
9233.054255	5063.351667	1035.198242	77.311432
9233.054255	5063.351667	1034.042969	89.638184
9233.054255	5063.351667	1032.887695	61.684055
9233.054255	5063.351667	1031.732422	37.775333
9233.054255	5063.351667	1030.576172	-6.701999
9233.054255	5063.351667	1029.419922	94.219780
9233.054255	5063.351667	1028.263672	-37.607643
9233.054255	5063.351667	1027.106445	109.541489
9233.054255	5063.351667	1025.949219	68.133034
9233.054255	5063.351667	1024.792969	91.544052
9233.054255	5063.351667	1023.634766	210.518845
9233.054255	5063.351667	1022.477539	171.805573
9233.054255	5063.351667	1021.319336	7.426780
9233.054255	5063.351667	1020.161133	-26.562704
9233.054255	5063.351667	1019.002930	108.598991
9233.054255	5063.351667	1017.843750	-40.252205
9233.054255	5063.351667	1016.684570	-105.002769
9233.054255	5063.351667	1015.525391	37.743931
9233.054255	5063.351667	1014.366211	120.673592
9233.054255	5063.351667	1013.207031	163.904526
9233.054255	5063.351667	1012.046875	59.498138
9233.054255	5063.351667	1010.886719	-40.207302
9233.054255	5063.351667	1009.726563	99.707298
9233.054255	5063.351667	1008.565430	25.813066
9233.054255	5063.351667	1007.404297	-45.164955
9233.054255	5063.351667	1006.243164	67.849564
9233.054255	5063.351667	1005.082031	3.776708
9233.054255	5063.351667	1003.920898	-94.019096
9233.054255	5063.351667	1002.758789	-122.651421
9233.054255	5063.351667	1001.596680	53.109806
9233.054255	5063.351667	1000.433594	-22.583399
9233.054255	5063.351667	999.271484	-116.337341
9233.054255	5063.351667	998.108398	25.230946
9233.054255	5063.351667	996.945313	203.703171
9233.054255	5063.351667	995.782227	148.613693
9233.054255	5063.351667	994.618164	98.055840
9233.054255	5063.351667	993.454102	75.475647
9233.054255	5063.351667	992.290039	-13.714599
9233.054255	5063.351667	991.125977	48.185471
9233.054255	5063.351667	989.960938	-64.272881
9233.054255	5063.351667	988.796875	5.727281
9233.054255	5063.351667	987.630859	14.679168
9233.054255	5063.351667	986.465820	144.825287
9233.054255	5063.351667	985.300781	226.779358
9233.054255	5063.351667	984.134766	31.429493
9233.054255	5063.351667	982.968750	107.489479
9233.054255	5063.351667	981.801758	-0.222954
9233.054255	5063.351667	980.635742	13.066454
9233.054255	5063.351667	979.468750	213.037872
9233.054255	5063.351667	978.301758	236.044846
9233.054255	5063.351667	977.133789	142.656982
9233.054255	5063.351667	975.966797	-31.892328
9233.054255	5063.351667	974.798828	-18.128139
9233.054255	5063.351667	973.630859	160.785599
9233.054255	5063.351667	972.461914	15.053162
9233.054255	5063.351667	971.293945	15.770425
9233.054255	5063.351667	970.125000	-82.350517
9233.054255	5063.351667	968.956055	-43.950115
9233.054255	5063.351667	967.786133	160.688553
9233.054255	5063.351667	966.617188	116.071655
9233.054255	5063.351667	965.447266	55.053715
9233.054255	5063.351667	964.276367	101.605568
9233.054255	5063.351667	963.106445	-124.694244
9233.054255	5063.351667	961.935547	-26.052826
9233.054255	5063.351667	960.764648	-36.300926
9233.054255	5063.351667	959.593750	32.858524
9233.054255	5063.351667	958.422852	-72.140701
9233.054255	5063.351667	957.250977	42.013866
9233.054255	5063.351667	956.079102	12.262056
9233.054255	5063.351667	954.907227	-42.416454
9233.054255	5063.351667	953.734375	19.525126
9233.054255	5063.351667	952.562500	-202.203018
9233.054255	5063.351667	951.389648	-13.474809
9233.054255	5063.351667	950.215820	42.697708
9233.054255	5063.351667	949.042969	110.178108
9233.054255	5063.351667	947.869141	-14.702029
9233.054255	5063.351667	946.695313	-139.429031
9233.054255	5063.351667	945.521484	-55.487576
9233.054255	5063.351667	944.346680	59.463436
9233.054255	5063.351667	943.172852	-53.039413
9233.054255	5063.351667	941.998047	91.600929
9233.054255	5063.351667	940.822266	-62.446465
9233.054255	5063.351667	939.647461	4.392678
9233.054255	5063.351667	938.471680	-195.901871
9233.054255	5063.351667	937.295898	-109.637138
9233.054255	5063.351667	936.119141	-57.411083
9233.054255	5063.351667	934.943359	1.975672
9233.054255	5063.351667	933.766602	163.465668
9233.054255	5063.351667	932.589844	82.205070
9233.054255	5063.351667	931.413086	226.522171
9233.054255	5063.351667	930.235352	-39.265057
9233.054255	5063.351667	929.057617	34.686855
9233.054255	5063.351667	927.879883	-24.834816
9233.054255	5063.351667	926.702148	124.305832
9233.054255	5063.351667	925.523438	-17.710003
9233.054255	5063.351667	924.344727	29.482677
9233.054255	5063.351667	923.166016	59.684814
9233.054255	5063.351667	921.987305	-21.663498
9233.054255	5063.351667	920.807617	76.380119
9233.054255	5063.351667	919.627930	79.118690
9233.054255	5063.351667	919.497070	-26.466873
9233.054255	5063.351667	918.331055	-42.396351
9233.054255	5063.351667	917.165039	11.917135
9233.054255	5063.351667	915.999023	-96.072662
9233.054255	5063.351667	914.833008	-0.632683
9233.054255	5063.351667	913.666016	-35.972019
9233.054255	5063.351667	912.499023	129.586441
9233.054255	5063.351667	911.332031	43.390011
9233.054255	5063.351667	910.165039	-4.072909
9233.054255	5063.351667	908.997070	25.880156
9233.054255	5063.351667	907.830078	-14.329215
9233.054255	5063.351667	906.661133	-52.111927
9233.054255	5063.351667	905.493164	79.330383
9233.054255	5063.351667	904.325195	106.775383
9233.054255	5063.351667	903.156250	-80.867966
9233.054255	5063.351667	901.987305	-121.070419
9233.054255	5063.351667	900.818359	-40.492996
9233.054255	5063.351667	899.648438	-124.178909
9233.054255	5063.351667	898.478516	-36.410915
9233.054255	5063.351667	897.308594	-66.977959
9233.054255	5063.351667	896.138672	-56.513237
9233.054255	5063.351667	894.968750	219.372025
9233.054255	5063.351667	893.797852	19.860142
9233.054255	5063.351667	892.626953	39.917423
9233.054255	5063.351667	891.456055	-0.333966
9233.054255	5063.351667	890.284180	5.233075
9233.054255	5063.351667	889.113281	25.248413
9233.054255	5063.351667	887.941406	52.477364
9233.054255	5063.351667	886.768555	98.963440
9233.054255	5063.351667	885.596680	75.552872
9233.054255	5063.351667	884.423828	64.187180
9233.054255	5063.351667	883.250977	-74.815704
9233.054255	5063.351667	882.078125	173.858261
9233.054255	5063.351667	880.905273	97.455719
9233.054255	5063.351667	879.731445	61.988441
9233.054255	5063.351667	878.557617	24.119593
9233.054255	5063.351667	877.383789	3.095820
9233.054255	5063.351667	876.209961	-118.946579
9233.054255	5063.351667	875.035156	-34.144341
9233.054255	5063.351667	873.860352	65.038788
9233.054255	5063.351667	872.685547	-37.739922
9233.054255	5063.351667	871.510742	78.205620
9233.054255	5063.351667	870.334961	-41.370247
9233.054255	5063.351667	869.159180	-177.723251
9233.054255	5063.351667	867.983398	-42.633137
9233.054255	5063.351667	866.807617	-92.504646
9233.054255	5063.351667	865.630859	42.495129
9233.054255	5063.351667	864.454102	-19.391966
9233.054255	5063.351667	863.277344	-18.869020
9233.054255	5063.351667	862.100586	-102.331032
9233.054255	5063.351667	860.922852	10.934269
9233.054255	5063.351667	859.745117	-74.915245
9233.054255	5063.351667	858.567383	-38.450832
9233.054255	5063.351667	857.389648	-16.395145
9233.054255	5063.351667	856.210938	22.422045
9233.054255	5063.351667	855.032227	-44.225151
9233.054255	5063.351667	853.853516	-34.187794
9233.054255	5063.351667	852.674805	97.998466
9233.054255	5063.351667	851.495117	98.405670
9233.054255	5063.351667	850.315430	60.493488
9233.054255	5063.351667	849.135742	58.495323
9233.054255	5063.351667	847.956055	-137.375458
9233.054255	5063.351667	846.775391	-79.527351
9233.054255	5063.351667	845.595703	21.348272
9233.054255	5063.351667	844.415039	-172.029434
9233.054255	5063.351667	843.233398	89.031876
9233.054255	5063.351667	842.052734	-51.699192
9233.054255	5063.351667	840.871094	32.319218
9233.054255	5063.351667	839.689453	63.714809
9233.054255	5063.351667	838.506836	-96.066002
9233.054255	5063.351667	837.325195	30.880699
9233.054255	5063.351667	836.142578	105.221214
9233.054255	5063.351667	834.959961	9.975340
9233.054255	5063.351667	833.777344	-4.066926
9233.054255	5063.351667	832.593750	-115.978760
9233.054255	5063.351667	831.410156	-51.254009
9233.054255	5063.351667	830.226563	-41.444492
9233.054255	5063.351667	829.042969	-10.179666
9233.054255	5063.351667	827.858398	16.293421
9233.054255	5063.351667	826.673828	-105.095230
9233.054255	5063.351667	825.489258	-157.308105
9233.054255	5063.351667	824.304688	52.679638
9233.054255	5063.351667	823.120117	-35.310799
9233.054255	5063.351667	821.934570	43.504238
9233.054255	5063.351667	820.749023	93.691498
9233.054255	5063.351667	819.562500	96.216728
9233.054255	5063.351667	818.376953	-170.334274
9233.054255	5063.351667	817.190430	-93.979630
9233.054255	5063.351667	816.003906	13.273690
9233.054255	5063.351667	814.817383	-81.796089
9233.054255	5063.351667	813.629883	-191.110962
9233.054255	5063.351667	812.442383	-62.529930
9233.054255	5063.351667	811.254883	70.742310
9233.054255	5063.351667	810.067383	89.820877
9233.054255	5063.351667	808.878906	-90.800270
9233.054255	5063.351667	807.690430	-7.549426
9233.054255	5063.351667	806.501953	-128.695755
9233.054255	5063.351667	805.313477	-95.385391
9233.054255	5063.351667	804.124023	-95.352928
9233.054255	5063.351667	802.934570	2.029504
9233.054255	5063.351667	801.745117	61.371151
9233.054255	5063.351667	800.555664	151.533691
9233.054255	5063.351667	799.365234	260.632568
9233.054255	5063.351667	798.175781	-59.792068
9233.054255	5063.351667	796.985352	63.512291
9233.054255	5063.351667	795.793945	217.585495
9233.054255	5063.351667	794.603516	79.916008
9233.054255	5063.351667	793.412109	-52.968353
9233.054255	5063.351667	792.220703	-38.854691
9233.054255	5063.351667	791.028320	39.224388
9233.054255	5063.351667	789.836914	126.732048
9233.054255	5063.351667	788.644531	64.956238
9233.054255	5063.351667	787.452148	-20.492628
9233.054255	5063.351667	786.258789	159.276108
9233.054255	5063.351667	785.066406	90.384399
9233.054255	5063.351667	783.873047	-6.895051
9233.054255	5063.351667	782.679688	130.118515
9233.054255	5063.351667	781.485352	-9.744358
9233.054255	5063.351667	780.291992	30.200874
9233.054255	5063.351667	779.097656	6.263422
9233.054255	5063.351667	777.903320	27.242250
9233.054255	5063.351667	776.708008	201.850174
9233.054255	5063.351667	775.512695	-13.592342
9233.054255	5063.351667	774.318359	189.271362
9233.054255	5063.351667	773.122070	68.384224
9233.054255	5063.351667	771.926758	169.550476
9233.054255	5063.351667	770.730469	27.429708
9233.054255	5063.351667	769.534180	22.285324
9233.054255	5063.351667	768.337891	125.705498
9233.054255	5063.351667	767.141602	191.305267
9233.054255	5063.351667	765.944336	202.592224
9233.054255	5063.351667	764.747070	294.060760
9233.054255	5063.351667	763.549805	140.189667
9233.054255	5063.351667	762.351563	243.386414
9233.054255	5063.351667	761.154297	25.897951
9233.054255	5063.351667	759.956055	242.173141
9233.054255	5063.351667	758.757813	404.138092
9233.054255	5063.351667	757.558594	250.307632
9233.054255	5063.351667	756.359375	171.898392
9233.054255	5063.351667	755.160156	161.797394
9233.054255	5063.351667	753.960938	81.042961
9233.054255	5063.351667	752.761719	158.024048
9233.054255	5063.351667	751.561523	169.052734
9233.054255	5063.351667	750.361328	90.637253
9233.054255	5063.351667	749.160156	71.048126
9233.054255	5063.351667	747.959961	34.979965
9233.054255	5063.351667	746.758789	219.957886
9233.054255	5063.351667	745.557617	150.914063
9233.054255	5063.351667	744.356445	135.940536
9233.054255	5063.351667	743.154297	-15.357307
9233.054255	5063.351667	741.952148	275.120728
9233.054255	5063.351667	740.750000	123.809433
9233.054255	5063.351667	739.547852	186.267685
9233.054255	5063.351667	738.344727	147.704803
9233.054255	5063.351667	737.142578	41.049599
9233.054255	5063.351667	735.939453	101.066597
9233.054255	5063.351667	734.735352	283.064117
9233.054255	5063.351667	733.532227	237.375351
9233.054255	5063.351667	732.328125	72.048943
9233.054255	5063.351667	731.124023	9.956703
9233.054255	5063.351667	729.918945	163.582703
9233.054255	5063.351667	728.714844	26.428793
9233.054255	5063.351667	727.509766	51.027294
9233.054255	5063.351667	726.303711	136.514633
9233.054255	5063.351667	725.098633	-45.139435
9233.054255	5063.351667	723.892578	126.943466
9233.054255	5063.351667	722.686523	167.785721
9233.054255	5063.351667	721.480469	7.229854
9233.054255	5063.351667	720.274414	151.021759
9233.054255	5063.351667	719.067383	72.392860
9233.054255	5063.351667	717.860352	61.624420
9233.054255	5063.351667	716.653320	-45.082123
9233.054255	5063.351667	715.445313	-189.194122
9233.054255	5063.351667	714.238281	118.032982
9233.054255	5063.351667	713.030273	11.295556
9233.054255	5063.351667	711.821289	-27.642038
9233.054255	5063.351667	710.613281	115.686096
9233.054255	5063.351667	709.404297	22.945421
9233.054255	5063.351667	708.195313	103.072655
9233.054255	5063.351667	706.986328	92.053421
9233.054255	5063.351667	705.776367	-75.433311
9233.054255	5063.351667	704.566406	62.934006
9233.054255	5063.351667	703.356445	-137.214462
9233.054255	5063.351667	702.146484	187.724121
9233.054255	5063.351667	700.935547	73.891510
9233.054255	5063.351667	699.724609	51.042961
9233.054255	5063.351667	698.513672	179.752502
9233.054255	5063.351667	697.302734	154.495514
9233.054255	5063.351667	696.090820	68.609474
9233.054255	5063.351667	694.878906	-54.561871
9233.054255	5063.351667	693.666992	-26.260401
9233.054255	5063.351667	692.455078	118.474144
9233.054255	5063.351667	691.242188	-156.119492
9233.054255	5063.351667	690.029297	170.144363
9233.054255	5063.351667	688.816406	32.946178
9233.054255	5063.351667	687.602539	61.031479
9233.054255	5063.351667	686.389648	65.800308
9233.054255	5063.351667	685.175781	21.673044
9233.054255	5063.351667	683.960938	158.968292
9233.054255	5063.351667	682.747070	98.491531
9233.054255	5063.351667	681.532227	21.728924
9233.054255	5063.351667	680.317383	177.430313
9233.054255	5063.351667	679.102539	9.970074
9233.054255	5063.351667	677.886719	14.497819
9233.054255	5063.351667	676.670898	60.805984
9233.054255	5063.351667	675.455078	30.409088
9233.054255	5063.351667	674.239258	88.233757
9233.054255	5063.351667	673.022461	-4.915206
9233.054255	5063.351667	671.805664	52.820183
9233.054255	5063.351667	670.588867	105.852898
9233.054255	5063.351667	669.372070	249.317596
9233.054255	5063.351667	668.154297	262.776794
9233.054255	5063.351667	666.936523	241.404984
9233.054255	5063.351667	665.718750	-146.365250
9233.054255	5063.351667	664.500977	54.841923
9233.054255	5063.351667	663.282227	5.601645
9233.054255	5063.351667	662.063477	171.856628
9233.054255	5063.351667	660.844727	83.152222
9233.054255	5063.351667	659.625000	214.499985
9233.054255	5063.351667	658.405273	86.377884
9233.054255	5063.351667	657.185547	113.402580
9233.054255	5063.351667	655.965820	209.824982
9233.054255	5063.351667	654.745117	109.444168
9233.054255	5063.351667	653.525391	57.661331
9233.054255	5063.351667	652.303711	96.083168
9233.054255	5063.351667	651.083008	127.513557
9233.054255	5063.351667	649.861328	126.517349
9233.054255	5063.351667	648.640625	120.860756
9233.054255	5063.351667	647.417969	89.739494
9233.054255	5063.351667	646.196289	65.528137
9233.054255	5063.351667	644.973633	242.299622
9233.054255	5063.351667	643.750977	-1.461801
9233.054255	5063.351667	642.528320	6.578858
9233.054255	5063.351667	641.305664	-87.019318
9233.054255	5063.351667	640.082031	105.640114
9233.054255	5063.351667	638.858398	-52.642521
9233.054255	5063.351667	637.634766	-0.908701
9233.054255	5063.351667	636.410156	94.597321
9233.054255	5063.351667	635.185547	-33.713184
9233.054255	5063.351667	633.960938	13.255045
9233.054255	5063.351667	632.736328	-11.307989
9233.054255	5063.351667	631.510742	37.863129
9233.054255	5063.351667	630.285156	-5.209834
9233.054255	5063.351667	629.059570	23.125540
9233.054255	5063.351667	627.833984	143.556839
9233.054255	5063.351667	626.607422	31.278086
9233.054255	5063.351667	625.380859	-161.583817
9233.054255	5063.351667	624.154297	43.875038
9233.054255	5063.351667	622.927734	30.548801
9233.054255	5063.351667	621.700195	21.790604
9233.054255	5063.351667	620.472656	33.705498
9233.054255	5063.351667	619.245117	-94.736656
9233.054255	5063.351667	618.016602	75.803047
9233.054255	5063.351667	616.788086	64.591866
9233.054255	5063.351667	615.559570	-77.681068
9233.054255	5063.351667	614.331055	-148.683578
9233.054255	5063.351667	613.101563	37.656555
9233.054255	5063.351667	611.872070	53.881153
9233.054255	5063.351667	610.642578	21.828775
9233.054255	5063.351667	609.413086	-19.431067
9233.054255	5063.351667	608.182617	5.866633
9233.054255	5063.351667	606.952148	3.573898
9233.054255	5063.351667	605.721680	-67.600090
9233.054255	5063.351667	604.491211	-170.900238
9233.054255	5063.351667	603.259766	-5.810163
9233.054255	5063.351667	602.028320	-28.884445
9233.054255	5063.351667	600.796875	64.954292
9233.054255	5063.351667	599.564453	-77.403114
9233.054255	5063.351667	598.332031	23.209555
9233.054255	5063.351667	597.099609	-4.575620
9233.054255	5063.351667	595.867188	-11.765223
9233.054255	5063.351667	594.633789	-174.739975
9233.054255	5063.351667	593.400391	-28.531778
9233.054255	5063.351667	592.166992	-207.527557
9233.054255	5063.351667	590.933594	-59.152355
9233.054255	5063.351667	589.699219	68.527016
9233.054255	5063.351667	588.464844	-39.548080
9233.054255	5063.351667	587.230469	14.805758
9233.054255	5063.351667	585.995117	112.555328
9233.054255	5063.351667	584.760742	22.735668
9233.054255	5063.351667	583.525391	-105.943558
9233.054255	5063.351667	582.289063	-12.900077
9233.054255	5063.351667	581.053711	-38.749573
9233.054255	5063.351667	579.817383	-66.907021
9233.054255	5063.351667	578.581055	9.987148
9233.054255	5063.351667	577.343750	-34.217571
9233.054255	5063.351667	576.107422	51.709038
9233.054255	5063.351667	574.870117	0.606719
9233.054255	5063.351667	573.631836	88.706223
9233.054255	5063.351667	572.394531	-190.610245
9233.054255	5063.351667	571.156250	-6.754015
9233.054255	5063.351667	569.917969	44.713757
9233.054255	5063.351667	568.679688	-29.281763
9233.054255	5063.351667	567.440430	-121.514275
9233.054255	5063.351667	566.202148	64.337624
9233.054255	5063.351667	564.961914	-43.884350
9233.054255	5063.351667	563.722656	14.231263
9233.054255	5063.351667	562.482422	-0.597268
9233.054255	5063.351667	561.243164	-49.601597
9233.054255	5063.351667	560.001953	17.501177
9233.054255	5063.351667	558.761719	61.789738
9233.054255	5063.351667	557.520508	67.341103
9233.054255	5063.351667	556.279297	152.504028
9233.054255	5063.351667	555.038086	203.483017
9233.054255	5063.351667	553.795898	-57.179432
9233.054255	5063.351667	552.554688	148.401016
9233.054255	5063.351667	551.311523	110.606979
9233.054255	5063.351667	550.069336	147.817337
9233.054255	5063.351667	548.826172	148.626434
9233.054255	5063.351667	547.583984	76.713150
9233.054255	5063.351667	546.339844	-101.956085
9233.054255	5063.351667	545.096680	-12.591100
9233.054255	5063.351667	543.852539	-68.600113
9233.054255	5063.351667	542.608398	56.994717
9233.054255	5063.351667	541.364258	155.281647
9233.054255	5063.351667	540.119141	53.826920
9233.054255	5063.351667	538.875000	-4.497998
9233.054255	5063.351667	537.628906	-60.556110
9233.054255	5063.351667	536.383789	33.055332
9233.054255	5063.351667	535.137695	-41.160980
9233.054255	5063.351667	533.892578	-101.761246
9233.054255	5063.351667	532.645508	195.688232
9233.054255	5063.351667	531.399414	-114.197258
9233.054255	5063.351667	530.152344	90.221077
9233.054255	5063.351667	528.905273	-83.666740
9233.054255	5063.351667	527.658203	-10.699753
9233.054255	5063.351667	526.410156	7.886330
9233.054255	5063.351667	525.163086	24.188734
9233.054255	5063.351667	523.914063	-7.055914
9233.054255	5063.351667	522.666016	-90.331772
9233.054255	5063.351667	521.416992	-33.362560
9233.054255	5063.351667	520.167969	-73.666939
9233.054255	5063.351667	518.918945	-19.016165
9233.054255	5063.351667	517.669922	-113.584846
9233.054255	5063.351667	516.419922	-135.816376
9233.054255	5063.351667	515.169922	-33.790443
9233.054255	5063.351667	513.919922	-53.800354
9233.054255	5063.351667	512.668945	-130.277847
9233.054255	5063.351667	511.417969	-59.975998
9233.054255	5063.351667	510.166992	32.855324
9233.054255	5063.351667	508.916016	-30.093370
9233.054255	5063.351667	507.664063	17.531715
9233.054255	5063.351667	506.412109	141.824158
9233.054255	5063.351667	505.160156	-31.670092
9233.054255	5063.351667	503.907227	81.273743
9233.054255	5063.351667	502.655273	110.742218
9233.054255	5063.351667	501.402344	-53.663780
9233.054255	5063.351667	500.148438	-125.622055
9233.054255	5063.351667	498.895508	18.729296
9233.054255	5063.351667	497.641602	84.162926
9233.054255	5063.351667	496.387695	39.201992
9233.054255	5063.351667	495.132813	104.570076
9233.054255	5063.351667	493.878906	185.656403
9233.054255	5063.351667	492.624023	48.379921
9233.054255	5063.351667	491.368164	194.658310
9233.054255	5063.351667	490.113281	61.908131
9233.054255	5063.351667	488.857422	7.915340
9233.054255	5063.351667	487.601563	-21.336109
9233.054255	5063.351667	486.344727	86.544075
9233.054255	5063.351667	485.088867	41.522175
9233.054255	5063.351667	483.832031	79.643715
9233.054255	5063.351667	482.575195	173.899384
9233.054255	5063.351667	481.317383	202.950729
9233.054255	5063.351667	480.059570	106.208336
9233.054255	5063.351667	478.801758	76.845398
9233.054255	5063.351667	477.543945	166.449158
9233.054255	5063.351667	476.285156	89.910477
9233.054255	5063.351667	475.027344	217.573425
9233.054255	5063.351667	473.767578	293.555176
9233.054255	5063.351667	472.508789	369.484009
9233.054255	5063.351667	471.249023	187.478989
9233.054255	5063.351667	469.989258	229.716003
9233.054255	5063.351667	468.729492	325.700928
9233.054255	5063.351667	467.469727	255.790115
9233.054255	5063.351667	466.208984	315.821167
9233.054255	5063.351667	464.948242	299.638824
9233.054255	5063.351667	463.686523	285.667358
9233.054255	5063.351667	462.425781	354.515381
9233.054255	5063.351667	461.164063	255.409576
9233.054255	5063.351667	459.901367	167.496918
9233.054255	5063.351667	458.639648	126.578316
9233.054255	5063.351667	457.376953	291.442627
9233.054255	5063.351667	456.114258	232.539734
9233.054255	5063.351667	454.851563	178.093582
9233.054255	5063.351667	453.587891	161.628372
9233.054255	5063.351667	452.324219	118.303825
9233.054255	5063.351667	451.060547	195.621017
9233.054255	5063.351667	449.796875	170.085800
9233.054255	5063.351667	448.532227	84.196556
9233.054255	5063.351667	447.267578	156.847214
9233.054255	5063.351667	446.002930	180.292419
9233.054255	5063.351667	444.737305	210.361237
9233.054255	5063.351667	443.471680	142.161316
9233.054255	5063.351667	442.206055	149.790833
9233.054255	5063.351667	440.940430	222.044113
9233.054255	5063.351667	439.673828	392.325836
9233.054255	5063.351667	438.407227	263.670288
9233.054255	5063.351667	437.140625	291.049225
9233.054255	5063.351667	435.873047	244.783875
9233.054255	5063.351667	434.605469	227.427887
9233.054255	5063.351667	433.337891	129.792603
9233.054255	5063.351667	432.070313	152.393372
9233.054255	5063.351667	430.801758	223.881805
9233.054255	5063.351667	429.533203	293.020355
9233.054255	5063.351667	428.264648	286.349426
9233.054255	5063.351667	426.996094	368.601685
9233.054255	5063.351667	425.726563	214.859650
9233.054255	5063.351667	424.457031	207.894379
9233.054255	5063.351667	423.186523	356.494995
9233.054255	5063.351667	421.916992	329.261475
9233.054255	5063.351667	420.646484	270.791351
9233.054255	5063.351667	419.375977	287.788086
9233.054255	5063.351667	418.104492	182.428650
9233.054255	5063.351667	416.833008	130.297256
9233.054255	5063.351667	415.561523	329.037598
9233.054255	5063.351667	414.290039	256.628143
9233.054255	5063.351667	413.017578	259.580750
9233.054255	5063.351667	411.746094	269.042816
9233.054255	5063.351667	410.472656	407.039886
9233.054255	5063.351667	409.200195	431.664459
9233.054255	5063.351667	407.926758	334.096497
9233.054255	5063.351667	406.653320	178.731461
9233.054255	5063.351667	405.379883	229.456924
9233.054255	5063.351667	404.105469	2.863853
9233.054255	5063.351667	402.831055	265.977478
9233.054255	5063.351667	401.556641	382.528687
9233.054255	5063.351667	400.282227	308.299866
9233.054255	5063.351667	399.006836	326.902130
9233.054255	5063.351667	397.731445	323.129211
9233.054255	5063.351667	396.456055	208.430939
9233.054255	5063.351667	395.179688	352.506256
9233.054255	5063.351667	393.903320	102.368492
9233.054255	5063.351667	392.626953	93.242348
9233.054255	5063.351667	391.350586	384.686279
9233.054255	5063.351667	390.073242	379.383026
9233.054255	5063.351667	388.795898	336.214966
9233.054255	5063.351667	387.518555	235.302521
9233.054255	5063.351667	386.240234	271.150330
9233.054255	5063.351667	384.961914	280.161285
9233.054255	5063.351667	383.683594	167.351669
9233.054255	5063.351667	382.405273	288.378021
9233.054255	5063.351667	381.125977	159.485321
9233.054255	5063.351667	379.846680	32.511143
9233.054255	5063.351667	378.567383	13.387729
9233.054255	5063.351667	377.287109	93.193512
9233.054255	5063.351667	376.006836	269.660614
9233.054255	5063.351667	374.726563	158.916809
9233.054255	5063.351667	373.446289	169.109268
9233.054255	5063.351667	372.165039	-41.604748
9233.054255	5063.351667	370.883789	201.432755
9233.054255	5063.351667	369.602539	-177.547897
9233.054255	5063.351667	368.320313	66.717178
9233.054255	5063.351667	367.039063	52.695377
9233.054255	5063.351667	365.755859	73.412956
9233.054255	5063.351667	364.473633	14.379497
9233.054255	5063.351667	363.190430	89.140770
9233.054255	5063.351667	361.907227	187.563156
9233.054255	5063.351667	360.624023	-119.470757
9233.054255	5063.351667	359.340820	21.879383
9233.054255	5063.351667	358.056641	-44.161167
9233.054255	5063.351667	356.772461	-167.922989
9233.054255	5063.351667	355.487305	-50.400097
9233.054255	5063.351667	354.202148	48.879826
9233.054255	5063.351667	352.916992	154.085571
9233.054255	5063.351667	351.631836	14.727390
9233.054255	5063.351667	350.346680	-140.602768
9233.054255	5063.351667	349.060547	107.531570
9233.054255	5063.351667	347.774414	-18.397655
9233.054255	5063.351667	346.487305	109.638954
9233.054255	5063.351667	345.200195	-46.227192
9233.054255	5063.351667	343.913086	214.130173
9233.054255	5063.351667	342.625977	-30.954046
9233.054255	5063.351667	341.338867	25.953293
9233.054255	5063.351667	340.050781	-27.632935
9233.054255	5063.351667	338.762695	47.322857
9233.054255	5063.351667	337.473633	27.124474
9233.054255	5063.351667	336.184570	8.256119
9233.054255	5063.351667	334.895508	16.986809
9233.054255	5063.351667	333.606445	72.988472
9233.054255	5063.351667	332.317383	22.915052
9233.054255	5063.351667	331.027344	-50.018173
9233.054255	5063.351667	329.736328	-112.986496
9233.054255	5063.351667	328.446289	9.117043
9233.054255	5063.351667	327.155273	-184.968307
9233.054255	5063.351667	325.864258	118.732864
9233.054255	5063.351667	324.573242	14.427460
9233.054255	5063.351667	323.281250	-167.502899
9233.054255	5063.351667	321.989258	-44.434414
9233.054255	5063.351667	320.697266	42.449654
9233.054255	5063.351667	319.405273	134.663834
9233.054255	5063.351667	318.112305	-154.547562
9233.054255	5063.351667	316.819336	85.880081
9233.054255	5063.351667	315.526367	-28.832273
9233.054255	5063.351667	314.232422	90.951744
9233.054255	5063.351667	312.938477	82.749062
9233.054255	5063.351667	311.644531	223.762436
9233.054255	5063.351667	310.349609	33.821766
9233.054255	5063.351667	309.054688	189.367111
9233.054255	5063.351667	307.759766	-121.137749
9233.054255	5063.351667	306.464844	-84.140739
9233.054255	5063.351667	305.168945	49.361027
9233.054255	5063.351667	303.873047	194.318314
9233.054255	5063.351667	302.577148	200.341965
9233.054255	5063.351667	301.281250	355.044189
9233.054255	5063.351667	299.984375	248.778030
