#X		#Y		#Wave		#Intensity
9259.565426	5131.905000	1999.946289	-155.641830
9259.565426	5131.905000	1998.981445	3.867963
9259.565426	5131.905000	1998.017578	64.841576
9259.565426	5131.905000	1997.052734	-62.741215
9259.565426	5131.905000	1996.088867	62.246181
9259.565426	5131.905000	1995.124023	134.979797
9259.565426	5131.905000	1994.159180	103.478745
9259.565426	5131.905000	1993.193359	52.002346
9259.565426	5131.905000	1992.228516	-103.614632
9259.565426	5131.905000	1991.262695	-14.282012
9259.565426	5131.905000	1990.296875	37.729641
9259.565426	5131.905000	1989.331055	280.095154
9259.565426	5131.905000	1988.365234	34.840759
9259.565426	5131.905000	1987.398438	24.513355
9259.565426	5131.905000	1986.432617	-35.419071
9259.565426	5131.905000	1985.465820	-58.379547
9259.565426	5131.905000	1984.499023	165.744598
9259.565426	5131.905000	1983.532227	78.221375
9259.565426	5131.905000	1982.565430	133.932983
9259.565426	5131.905000	1981.597656	253.739380
9259.565426	5131.905000	1980.629883	22.596237
9259.565426	5131.905000	1979.662109	152.021240
9259.565426	5131.905000	1978.694336	-54.552013
9259.565426	5131.905000	1977.726563	-61.174351
9259.565426	5131.905000	1976.758789	146.857193
9259.565426	5131.905000	1975.790039	-67.320229
9259.565426	5131.905000	1974.821289	-118.658943
9259.565426	5131.905000	1973.852539	61.834820
9259.565426	5131.905000	1972.883789	269.303162
9259.565426	5131.905000	1971.915039	-73.352058
9259.565426	5131.905000	1970.945313	-26.382265
9259.565426	5131.905000	1969.975586	59.933197
9259.565426	5131.905000	1969.005859	-58.440601
9259.565426	5131.905000	1968.036133	141.055099
9259.565426	5131.905000	1967.066406	148.220169
9259.565426	5131.905000	1966.096680	152.848587
9259.565426	5131.905000	1965.125977	-0.222049
9259.565426	5131.905000	1964.155273	85.563904
9259.565426	5131.905000	1963.184570	77.697479
9259.565426	5131.905000	1962.213867	10.697945
9259.565426	5131.905000	1961.242188	-66.179611
9259.565426	5131.905000	1960.271484	-0.361463
9259.565426	5131.905000	1959.299805	-200.324615
9259.565426	5131.905000	1958.328125	81.852768
9259.565426	5131.905000	1957.356445	7.278516
9259.565426	5131.905000	1956.384766	-0.923978
9259.565426	5131.905000	1955.412109	158.004593
9259.565426	5131.905000	1954.439453	98.076859
9259.565426	5131.905000	1953.467773	87.284996
9259.565426	5131.905000	1952.495117	128.057220
9259.565426	5131.905000	1951.521484	249.845627
9259.565426	5131.905000	1950.548828	91.561150
9259.565426	5131.905000	1949.575195	85.554466
9259.565426	5131.905000	1948.601563	64.791206
9259.565426	5131.905000	1947.627930	44.008511
9259.565426	5131.905000	1946.654297	94.382927
9259.565426	5131.905000	1945.680664	-127.659050
9259.565426	5131.905000	1944.706055	69.885117
9259.565426	5131.905000	1943.732422	26.951717
9259.565426	5131.905000	1942.757813	15.896615
9259.565426	5131.905000	1941.783203	17.088562
9259.565426	5131.905000	1940.807617	-165.603943
9259.565426	5131.905000	1939.833008	122.369576
9259.565426	5131.905000	1938.857422	15.668389
9259.565426	5131.905000	1937.881836	87.858398
9259.565426	5131.905000	1936.906250	0.779725
9259.565426	5131.905000	1935.930664	9.246088
9259.565426	5131.905000	1934.955078	-23.927866
9259.565426	5131.905000	1933.978516	-32.615231
9259.565426	5131.905000	1933.001953	56.611050
9259.565426	5131.905000	1932.025391	-67.127861
9259.565426	5131.905000	1931.048828	22.063574
9259.565426	5131.905000	1930.072266	-3.767781
9259.565426	5131.905000	1929.094727	104.940315
9259.565426	5131.905000	1928.118164	-57.853809
9259.565426	5131.905000	1927.140625	60.604195
9259.565426	5131.905000	1926.163086	66.563385
9259.565426	5131.905000	1925.184570	84.740166
9259.565426	5131.905000	1924.207031	-46.157291
9259.565426	5131.905000	1923.228516	-37.733177
9259.565426	5131.905000	1922.250000	85.506554
9259.565426	5131.905000	1921.271484	130.546890
9259.565426	5131.905000	1920.292969	43.708775
9259.565426	5131.905000	1919.314453	54.568928
9259.565426	5131.905000	1918.334961	136.220505
9259.565426	5131.905000	1917.355469	-38.414913
9259.565426	5131.905000	1916.375977	-110.492134
9259.565426	5131.905000	1915.396484	68.753937
9259.565426	5131.905000	1914.416992	47.922344
9259.565426	5131.905000	1913.436523	-41.180000
9259.565426	5131.905000	1912.457031	52.635971
9259.565426	5131.905000	1911.476563	36.719975
9259.565426	5131.905000	1910.496094	-52.303555
9259.565426	5131.905000	1909.515625	143.841049
9259.565426	5131.905000	1908.534180	-130.326492
9259.565426	5131.905000	1907.552734	70.649185
9259.565426	5131.905000	1906.572266	-13.402583
9259.565426	5131.905000	1905.590820	29.212631
9259.565426	5131.905000	1904.608398	-86.433708
9259.565426	5131.905000	1903.626953	146.070663
9259.565426	5131.905000	1902.644531	-57.148193
9259.565426	5131.905000	1901.663086	9.819942
9259.565426	5131.905000	1900.680664	-32.706486
9259.565426	5131.905000	1899.698242	82.900475
9259.565426	5131.905000	1898.714844	67.147720
9259.565426	5131.905000	1897.732422	12.509740
9259.565426	5131.905000	1896.749023	4.092108
9259.565426	5131.905000	1895.765625	-9.173654
9259.565426	5131.905000	1894.782227	67.492653
9259.565426	5131.905000	1893.798828	-81.820183
9259.565426	5131.905000	1892.814453	-150.904144
9259.565426	5131.905000	1891.831055	-47.505714
9259.565426	5131.905000	1890.846680	123.855721
9259.565426	5131.905000	1889.862305	130.068542
9259.565426	5131.905000	1888.877930	-9.355733
9259.565426	5131.905000	1887.892578	-131.731552
9259.565426	5131.905000	1886.908203	-89.046791
9259.565426	5131.905000	1885.922852	84.636200
9259.565426	5131.905000	1884.937500	61.789639
9259.565426	5131.905000	1883.952148	-2.266406
9259.565426	5131.905000	1882.965820	176.177994
9259.565426	5131.905000	1881.980469	165.475586
9259.565426	5131.905000	1880.994141	52.984970
9259.565426	5131.905000	1880.007813	-1.296360
9259.565426	5131.905000	1879.021484	-116.121658
9259.565426	5131.905000	1878.035156	-83.128967
9259.565426	5131.905000	1877.047852	-101.003876
9259.565426	5131.905000	1876.061523	45.798576
9259.565426	5131.905000	1875.074219	49.708290
9259.565426	5131.905000	1874.086914	-118.241226
9259.565426	5131.905000	1873.098633	88.999763
9259.565426	5131.905000	1872.111328	-59.525833
9259.565426	5131.905000	1871.123047	162.152924
9259.565426	5131.905000	1870.135742	-22.603725
9259.565426	5131.905000	1869.147461	46.636108
9259.565426	5131.905000	1868.158203	111.017509
9259.565426	5131.905000	1867.169922	-233.167694
9259.565426	5131.905000	1866.180664	-50.321606
9259.565426	5131.905000	1865.192383	6.800707
9259.565426	5131.905000	1864.203125	237.857697
9259.565426	5131.905000	1863.213867	89.578003
9259.565426	5131.905000	1862.223633	100.753517
9259.565426	5131.905000	1861.234375	-313.062286
9259.565426	5131.905000	1860.244141	-38.661186
9259.565426	5131.905000	1859.253906	28.047771
9259.565426	5131.905000	1858.263672	-25.935928
9259.565426	5131.905000	1857.273438	91.413567
9259.565426	5131.905000	1856.282227	297.975983
9259.565426	5131.905000	1855.291992	-21.355362
9259.565426	5131.905000	1854.300781	-31.894762
9259.565426	5131.905000	1853.309570	-32.789581
9259.565426	5131.905000	1852.317383	-81.902298
9259.565426	5131.905000	1851.326172	-87.617950
9259.565426	5131.905000	1850.333984	145.224747
9259.565426	5131.905000	1849.342773	214.145096
9259.565426	5131.905000	1848.350586	112.004547
9259.565426	5131.905000	1847.357422	-168.325409
9259.565426	5131.905000	1846.365234	-34.394775
9259.565426	5131.905000	1845.372070	130.772110
9259.565426	5131.905000	1844.379883	67.203354
9259.565426	5131.905000	1843.386719	143.228134
9259.565426	5131.905000	1842.393555	173.498917
9259.565426	5131.905000	1841.399414	42.566174
9259.565426	5131.905000	1840.406250	-155.671768
9259.565426	5131.905000	1839.412109	-199.944443
9259.565426	5131.905000	1838.417969	41.897732
9259.565426	5131.905000	1837.423828	134.598328
9259.565426	5131.905000	1836.429688	203.216370
9259.565426	5131.905000	1835.434570	170.868683
9259.565426	5131.905000	1834.440430	138.521103
9259.565426	5131.905000	1833.445313	7.686152
9259.565426	5131.905000	1832.450195	126.648239
9259.565426	5131.905000	1831.454102	77.468483
9259.565426	5131.905000	1830.458984	105.113792
9259.565426	5131.905000	1829.462891	101.527267
9259.565426	5131.905000	1828.466797	124.321487
9259.565426	5131.905000	1827.470703	156.685364
9259.565426	5131.905000	1826.474609	157.833206
9259.565426	5131.905000	1825.478516	106.195129
9259.565426	5131.905000	1824.481445	205.626099
9259.565426	5131.905000	1823.484375	96.416527
9259.565426	5131.905000	1822.487305	143.034637
9259.565426	5131.905000	1821.490234	53.007256
9259.565426	5131.905000	1820.493164	-25.027487
9259.565426	5131.905000	1819.495117	-40.769394
9259.565426	5131.905000	1818.498047	-90.060654
9259.565426	5131.905000	1817.500000	92.935936
9259.565426	5131.905000	1816.500977	215.978607
9259.565426	5131.905000	1815.502930	164.196960
9259.565426	5131.905000	1814.504883	-102.999428
9259.565426	5131.905000	1813.505859	122.833054
9259.565426	5131.905000	1812.506836	205.000717
9259.565426	5131.905000	1811.507813	4.843886
9259.565426	5131.905000	1810.508789	82.164833
9259.565426	5131.905000	1809.508789	298.115082
9259.565426	5131.905000	1808.508789	121.875130
9259.565426	5131.905000	1807.508789	127.334114
9259.565426	5131.905000	1806.508789	68.236717
9259.565426	5131.905000	1805.508789	212.227966
9259.565426	5131.905000	1804.508789	19.295721
9259.565426	5131.905000	1803.507813	175.120667
9259.565426	5131.905000	1802.506836	75.336601
9259.565426	5131.905000	1801.505859	231.029022
9259.565426	5131.905000	1800.504883	59.594944
9259.565426	5131.905000	1799.502930	-73.623863
9259.565426	5131.905000	1798.501953	100.999329
9259.565426	5131.905000	1797.500000	67.958969
9259.565426	5131.905000	1796.498047	53.979870
9259.565426	5131.905000	1795.496094	32.816513
9259.565426	5131.905000	1794.493164	-121.903343
9259.565426	5131.905000	1793.491211	-42.969612
9259.565426	5131.905000	1792.488281	9.678279
9259.565426	5131.905000	1791.485352	114.695992
9259.565426	5131.905000	1790.482422	-90.099449
9259.565426	5131.905000	1789.478516	31.495749
9259.565426	5131.905000	1788.475586	10.110010
9259.565426	5131.905000	1787.471680	169.665909
9259.565426	5131.905000	1786.467773	102.948212
9259.565426	5131.905000	1785.463867	102.866760
9259.565426	5131.905000	1784.459961	-16.247717
9259.565426	5131.905000	1783.455078	78.790825
9259.565426	5131.905000	1782.450195	-76.040291
9259.565426	5131.905000	1781.445313	-35.812637
9259.565426	5131.905000	1780.440430	-2.773587
9259.565426	5131.905000	1779.435547	63.498459
9259.565426	5131.905000	1778.429688	63.140568
9259.565426	5131.905000	1777.424805	-6.179868
9259.565426	5131.905000	1776.418945	26.662128
9259.565426	5131.905000	1775.413086	-2.322602
9259.565426	5131.905000	1774.406250	-171.488327
9259.565426	5131.905000	1773.400391	82.109062
9259.565426	5131.905000	1772.393555	124.235863
9259.565426	5131.905000	1771.386719	28.610123
9259.565426	5131.905000	1770.379883	77.766800
9259.565426	5131.905000	1769.373047	-27.391972
9259.565426	5131.905000	1768.365234	5.057678
9259.565426	5131.905000	1767.358398	61.177555
9259.565426	5131.905000	1766.350586	-27.450062
9259.565426	5131.905000	1765.342773	57.019150
9259.565426	5131.905000	1764.334961	25.239325
9259.565426	5131.905000	1763.326172	244.687881
9259.565426	5131.905000	1762.318359	227.015930
9259.565426	5131.905000	1761.309570	161.910873
9259.565426	5131.905000	1760.300781	253.144989
9259.565426	5131.905000	1759.291016	187.967056
9259.565426	5131.905000	1758.282227	248.285400
9259.565426	5131.905000	1757.272461	7.831048
9259.565426	5131.905000	1756.262695	160.389191
9259.565426	5131.905000	1755.252930	2.790789
9259.565426	5131.905000	1754.243164	188.329727
9259.565426	5131.905000	1753.233398	321.702209
9259.565426	5131.905000	1752.222656	26.825710
9259.565426	5131.905000	1751.211914	70.211281
9259.565426	5131.905000	1750.201172	70.973114
9259.565426	5131.905000	1749.190430	-53.610489
9259.565426	5131.905000	1748.179688	169.267075
9259.565426	5131.905000	1747.167969	113.149094
9259.565426	5131.905000	1746.156250	40.467747
9259.565426	5131.905000	1745.144531	88.244514
9259.565426	5131.905000	1744.132813	13.141522
9259.565426	5131.905000	1743.121094	-26.559000
9259.565426	5131.905000	1742.108398	287.849152
9259.565426	5131.905000	1741.095703	309.387268
9259.565426	5131.905000	1740.083008	97.225349
9259.565426	5131.905000	1739.070313	64.428825
9259.565426	5131.905000	1738.057617	144.837631
9259.565426	5131.905000	1737.043945	156.761276
9259.565426	5131.905000	1736.030273	-81.340164
9259.565426	5131.905000	1735.016602	-31.743984
9259.565426	5131.905000	1734.002930	-64.721565
9259.565426	5131.905000	1732.989258	199.238892
9259.565426	5131.905000	1731.974609	130.786636
9259.565426	5131.905000	1730.959961	-20.146397
9259.565426	5131.905000	1729.945313	19.732899
9259.565426	5131.905000	1728.930664	-88.820473
9259.565426	5131.905000	1727.916016	-11.359100
9259.565426	5131.905000	1726.900391	-138.795456
9259.565426	5131.905000	1725.885742	18.581526
9259.565426	5131.905000	1724.870117	79.362770
9259.565426	5131.905000	1723.853516	102.424294
9259.565426	5131.905000	1722.837891	-1.592866
9259.565426	5131.905000	1721.822266	51.967136
9259.565426	5131.905000	1720.805664	321.793182
9259.565426	5131.905000	1719.789063	-0.993697
9259.565426	5131.905000	1718.772461	-6.368928
9259.565426	5131.905000	1717.754883	131.566269
9259.565426	5131.905000	1716.738281	217.718109
9259.565426	5131.905000	1715.720703	80.607498
9259.565426	5131.905000	1714.703125	30.411329
9259.565426	5131.905000	1713.685547	-57.382843
9259.565426	5131.905000	1712.667969	-185.099976
9259.565426	5131.905000	1711.649414	76.859695
9259.565426	5131.905000	1710.630859	-67.355087
9259.565426	5131.905000	1709.612305	-77.803627
9259.565426	5131.905000	1708.593750	-90.636024
9259.565426	5131.905000	1707.575195	-178.566833
9259.565426	5131.905000	1706.555664	293.992798
9259.565426	5131.905000	1705.536133	142.624435
9259.565426	5131.905000	1704.516602	-74.367859
9259.565426	5131.905000	1703.497070	-42.868557
9259.565426	5131.905000	1702.477539	-25.482796
9259.565426	5131.905000	1701.457031	-38.608196
9259.565426	5131.905000	1700.437500	-77.529617
9259.565426	5131.905000	1699.416992	-67.299477
9259.565426	5131.905000	1698.395508	83.377388
9259.565426	5131.905000	1697.375000	88.813026
9259.565426	5131.905000	1696.354492	2.919366
9259.565426	5131.905000	1695.333008	15.305449
9259.565426	5131.905000	1694.311523	149.318954
9259.565426	5131.905000	1693.290039	201.365555
9259.565426	5131.905000	1692.267578	75.590340
9259.565426	5131.905000	1691.246094	-127.334816
9259.565426	5131.905000	1690.223633	-61.354485
9259.565426	5131.905000	1689.201172	9.239564
9259.565426	5131.905000	1688.178711	-205.356949
9259.565426	5131.905000	1687.155273	-57.729500
9259.565426	5131.905000	1686.132813	213.631027
9259.565426	5131.905000	1685.109375	279.299316
9259.565426	5131.905000	1684.085938	-7.724246
9259.565426	5131.905000	1683.062500	69.567650
9259.565426	5131.905000	1682.039063	37.079735
9259.565426	5131.905000	1681.014648	256.631653
9259.565426	5131.905000	1679.990234	214.713226
9259.565426	5131.905000	1678.965820	165.779984
9259.565426	5131.905000	1677.941406	144.825546
9259.565426	5131.905000	1676.916992	-97.708176
9259.565426	5131.905000	1675.891602	-39.394234
9259.565426	5131.905000	1674.866211	35.186050
9259.565426	5131.905000	1673.840820	142.338837
9259.565426	5131.905000	1672.815430	144.554840
9259.565426	5131.905000	1671.790039	88.492783
9259.565426	5131.905000	1670.763672	55.712341
9259.565426	5131.905000	1669.737305	160.328629
9259.565426	5131.905000	1668.710938	101.877312
9259.565426	5131.905000	1667.684570	211.046417
9259.565426	5131.905000	1666.658203	99.019096
9259.565426	5131.905000	1665.630859	161.542419
9259.565426	5131.905000	1664.603516	0.646697
9259.565426	5131.905000	1663.576172	195.716248
9259.565426	5131.905000	1662.548828	211.593414
9259.565426	5131.905000	1661.520508	227.433441
9259.565426	5131.905000	1660.493164	64.228233
9259.565426	5131.905000	1659.464844	52.151012
9259.565426	5131.905000	1658.436523	165.556427
9259.565426	5131.905000	1657.408203	18.649139
9259.565426	5131.905000	1656.378906	206.309906
9259.565426	5131.905000	1655.350586	136.060150
9259.565426	5131.905000	1654.321289	42.588543
9259.565426	5131.905000	1653.291992	209.178558
9259.565426	5131.905000	1652.261719	215.502884
9259.565426	5131.905000	1651.232422	428.377045
9259.565426	5131.905000	1650.202148	211.853851
9259.565426	5131.905000	1649.171875	292.362366
9259.565426	5131.905000	1648.141602	252.203964
9259.565426	5131.905000	1647.111328	346.556000
9259.565426	5131.905000	1646.080078	285.495392
9259.565426	5131.905000	1645.049805	338.046814
9259.565426	5131.905000	1644.018555	323.339142
9259.565426	5131.905000	1642.987305	345.700958
9259.565426	5131.905000	1641.955078	381.935699
9259.565426	5131.905000	1640.923828	406.569092
9259.565426	5131.905000	1639.891602	345.480957
9259.565426	5131.905000	1638.859375	624.791870
9259.565426	5131.905000	1637.827148	376.142059
9259.565426	5131.905000	1636.794922	611.339844
9259.565426	5131.905000	1635.761719	506.241333
9259.565426	5131.905000	1634.729492	361.849945
9259.565426	5131.905000	1633.696289	490.468201
9259.565426	5131.905000	1632.662109	406.238403
9259.565426	5131.905000	1631.628906	627.281006
9259.565426	5131.905000	1630.594727	429.759064
9259.565426	5131.905000	1629.561523	620.648499
9259.565426	5131.905000	1628.527344	617.323242
9259.565426	5131.905000	1627.493164	436.077728
9259.565426	5131.905000	1626.458008	735.405884
9259.565426	5131.905000	1625.423828	544.962524
9259.565426	5131.905000	1624.388672	747.157532
9259.565426	5131.905000	1623.353516	607.568726
9259.565426	5131.905000	1622.318359	648.084351
9259.565426	5131.905000	1621.282227	672.422058
9259.565426	5131.905000	1620.247070	708.295044
9259.565426	5131.905000	1619.210938	679.550964
9259.565426	5131.905000	1618.174805	676.191223
9259.565426	5131.905000	1617.137695	492.950104
9259.565426	5131.905000	1616.101563	784.759644
9259.565426	5131.905000	1615.064453	772.161682
9259.565426	5131.905000	1614.027344	741.135315
9259.565426	5131.905000	1612.990234	751.602112
9259.565426	5131.905000	1611.953125	833.492371
9259.565426	5131.905000	1610.916016	777.149475
9259.565426	5131.905000	1609.877930	727.737488
9259.565426	5131.905000	1608.839844	802.688354
9259.565426	5131.905000	1607.801758	645.108337
9259.565426	5131.905000	1606.763672	851.256836
9259.565426	5131.905000	1605.724609	981.386658
9259.565426	5131.905000	1604.685547	876.802002
9259.565426	5131.905000	1603.646484	882.681213
9259.565426	5131.905000	1602.607422	874.770996
9259.565426	5131.905000	1601.568359	816.289856
9259.565426	5131.905000	1600.528320	881.979004
9259.565426	5131.905000	1599.489258	828.142090
9259.565426	5131.905000	1598.449219	813.399597
9259.565426	5131.905000	1597.408203	1095.059814
9259.565426	5131.905000	1596.368164	859.774109
9259.565426	5131.905000	1595.327148	966.796753
9259.565426	5131.905000	1594.287109	708.698914
9259.565426	5131.905000	1593.246094	889.209534
9259.565426	5131.905000	1592.204102	821.762024
9259.565426	5131.905000	1591.163086	740.597290
9259.565426	5131.905000	1590.121094	865.976685
9259.565426	5131.905000	1589.079102	954.623962
9259.565426	5131.905000	1588.037109	777.203918
9259.565426	5131.905000	1586.995117	654.908569
9259.565426	5131.905000	1585.953125	798.632080
9259.565426	5131.905000	1584.910156	1105.062134
9259.565426	5131.905000	1583.867188	925.540833
9259.565426	5131.905000	1582.824219	858.388855
9259.565426	5131.905000	1581.781250	871.467346
9259.565426	5131.905000	1580.737305	973.884949
9259.565426	5131.905000	1579.693359	877.060669
9259.565426	5131.905000	1578.649414	782.590820
9259.565426	5131.905000	1577.605469	626.379272
9259.565426	5131.905000	1576.561523	776.932617
9259.565426	5131.905000	1575.516602	774.140869
9259.565426	5131.905000	1574.472656	846.880920
9259.565426	5131.905000	1573.427734	937.913940
9259.565426	5131.905000	1572.381836	859.708374
9259.565426	5131.905000	1571.336914	735.843079
9259.565426	5131.905000	1570.291016	948.084229
9259.565426	5131.905000	1569.246094	934.017334
9259.565426	5131.905000	1568.200195	702.902893
9259.565426	5131.905000	1567.153320	727.780701
9259.565426	5131.905000	1566.107422	848.623596
9259.565426	5131.905000	1565.060547	679.417053
9259.565426	5131.905000	1564.013672	683.839111
9259.565426	5131.905000	1562.966797	720.253723
9259.565426	5131.905000	1561.919922	809.184814
9259.565426	5131.905000	1560.872070	781.734985
9259.565426	5131.905000	1559.825195	642.548523
9259.565426	5131.905000	1558.777344	699.615173
9259.565426	5131.905000	1557.729492	571.972229
9259.565426	5131.905000	1556.680664	535.617737
9259.565426	5131.905000	1555.632813	633.823853
9259.565426	5131.905000	1554.583984	554.246399
9259.565426	5131.905000	1553.535156	552.219421
9259.565426	5131.905000	1552.486328	643.645813
9259.565426	5131.905000	1551.436523	596.123596
9259.565426	5131.905000	1550.387695	783.242615
9259.565426	5131.905000	1549.337891	906.570374
9259.565426	5131.905000	1548.288086	601.906494
9259.565426	5131.905000	1547.238281	682.063965
9259.565426	5131.905000	1546.187500	755.402771
9259.565426	5131.905000	1545.136719	730.925354
9259.565426	5131.905000	1544.086914	579.125366
9259.565426	5131.905000	1543.035156	579.796570
9259.565426	5131.905000	1541.984375	623.723389
9259.565426	5131.905000	1540.933594	569.925964
9259.565426	5131.905000	1539.881836	734.394226
9259.565426	5131.905000	1538.830078	757.951843
9259.565426	5131.905000	1537.778320	683.852173
9259.565426	5131.905000	1536.725586	553.036560
9259.565426	5131.905000	1535.673828	338.295776
9259.565426	5131.905000	1534.621094	527.870361
9259.565426	5131.905000	1533.568359	606.178406
9259.565426	5131.905000	1532.515625	627.763306
9259.565426	5131.905000	1531.461914	311.253143
9259.565426	5131.905000	1530.409180	705.093384
9259.565426	5131.905000	1529.355469	513.565186
9259.565426	5131.905000	1528.301758	326.702515
9259.565426	5131.905000	1527.247070	398.464691
9259.565426	5131.905000	1526.193359	465.725433
9259.565426	5131.905000	1525.138672	449.142303
9259.565426	5131.905000	1524.083984	462.083954
9259.565426	5131.905000	1523.029297	180.526413
9259.565426	5131.905000	1521.974609	320.486694
9259.565426	5131.905000	1520.918945	245.280884
9259.565426	5131.905000	1519.863281	462.274506
9259.565426	5131.905000	1518.807617	353.227722
9259.565426	5131.905000	1517.751953	85.835297
9259.565426	5131.905000	1516.696289	244.068298
9259.565426	5131.905000	1515.639648	212.231339
9259.565426	5131.905000	1514.583008	302.626190
9259.565426	5131.905000	1513.526367	112.590111
9259.565426	5131.905000	1512.469727	153.341263
9259.565426	5131.905000	1511.412109	295.871979
9259.565426	5131.905000	1510.355469	366.079620
9259.565426	5131.905000	1509.297852	131.223923
9259.565426	5131.905000	1508.240234	167.663849
9259.565426	5131.905000	1507.181641	328.396820
9259.565426	5131.905000	1506.124023	127.756241
9259.565426	5131.905000	1505.065430	498.569672
9259.565426	5131.905000	1504.006836	334.222198
9259.565426	5131.905000	1502.948242	138.403595
9259.565426	5131.905000	1501.888672	260.933838
9259.565426	5131.905000	1500.830078	187.180847
9259.565426	5131.905000	1499.770508	361.670013
9259.565426	5131.905000	1498.710938	55.741161
9259.565426	5131.905000	1497.650391	169.430344
9259.565426	5131.905000	1496.590820	57.687923
9259.565426	5131.905000	1495.530273	-11.119370
9259.565426	5131.905000	1494.469727	59.896843
9259.565426	5131.905000	1493.409180	38.570820
9259.565426	5131.905000	1492.348633	-72.790535
9259.565426	5131.905000	1491.287109	52.451702
9259.565426	5131.905000	1490.225586	173.210037
9259.565426	5131.905000	1489.164063	-106.766266
9259.565426	5131.905000	1488.102539	-159.213272
9259.565426	5131.905000	1487.041016	-90.039948
9259.565426	5131.905000	1485.978516	-135.581665
9259.565426	5131.905000	1484.916016	-68.551277
9259.565426	5131.905000	1483.853516	-185.913406
9259.565426	5131.905000	1482.791016	-145.744019
9259.565426	5131.905000	1481.727539	-139.246429
9259.565426	5131.905000	1480.664063	-114.691376
9259.565426	5131.905000	1479.600586	-188.973206
9259.565426	5131.905000	1478.537109	-110.316338
9259.565426	5131.905000	1477.473633	-63.153202
9259.565426	5131.905000	1476.409180	37.998745
9259.565426	5131.905000	1475.344727	-9.000767
9259.565426	5131.905000	1474.280273	-91.814651
9259.565426	5131.905000	1473.215820	-12.900758
9259.565426	5131.905000	1472.151367	-28.360497
9259.565426	5131.905000	1471.085938	-79.340897
9259.565426	5131.905000	1470.020508	17.563307
9259.565426	5131.905000	1468.955078	-42.454391
9259.565426	5131.905000	1467.888672	79.180847
9259.565426	5131.905000	1466.823242	-5.214381
9259.565426	5131.905000	1465.756836	208.419678
9259.565426	5131.905000	1464.690430	276.517212
9259.565426	5131.905000	1463.624023	-11.145290
9259.565426	5131.905000	1462.556641	45.756329
9259.565426	5131.905000	1461.490234	324.209808
9259.565426	5131.905000	1460.422852	416.817596
9259.565426	5131.905000	1459.355469	98.279106
9259.565426	5131.905000	1458.287109	254.150223
9259.565426	5131.905000	1457.219727	286.262817
9259.565426	5131.905000	1456.151367	218.421036
9259.565426	5131.905000	1455.083008	164.734146
9259.565426	5131.905000	1454.014648	233.139709
9259.565426	5131.905000	1452.945313	167.708572
9259.565426	5131.905000	1451.876953	174.199615
9259.565426	5131.905000	1450.807617	175.855148
9259.565426	5131.905000	1449.738281	313.424683
9259.565426	5131.905000	1448.668945	402.373108
9259.565426	5131.905000	1447.598633	273.316498
9259.565426	5131.905000	1446.528320	361.765869
9259.565426	5131.905000	1445.458008	347.314972
9259.565426	5131.905000	1444.387695	277.911041
9259.565426	5131.905000	1443.317383	212.115646
9259.565426	5131.905000	1442.246094	309.151611
9259.565426	5131.905000	1441.174805	287.016876
9259.565426	5131.905000	1440.103516	368.697754
9259.565426	5131.905000	1439.032227	281.944183
9259.565426	5131.905000	1437.960938	156.185822
9259.565426	5131.905000	1436.888672	230.965179
9259.565426	5131.905000	1435.816406	247.778854
9259.565426	5131.905000	1434.744141	336.134583
9259.565426	5131.905000	1433.670898	462.479370
9259.565426	5131.905000	1432.598633	319.167145
9259.565426	5131.905000	1431.525391	297.077332
9259.565426	5131.905000	1430.452148	342.735504
9259.565426	5131.905000	1429.378906	150.594650
9259.565426	5131.905000	1428.304688	192.033737
9259.565426	5131.905000	1427.231445	180.399109
9259.565426	5131.905000	1426.157227	185.664673
9259.565426	5131.905000	1425.083008	62.407314
9259.565426	5131.905000	1424.007813	36.044323
9259.565426	5131.905000	1422.933594	67.884354
9259.565426	5131.905000	1421.858398	81.336411
9259.565426	5131.905000	1420.783203	218.234879
9259.565426	5131.905000	1419.708008	230.559113
9259.565426	5131.905000	1418.631836	31.295109
9259.565426	5131.905000	1417.555664	385.757477
9259.565426	5131.905000	1416.479492	150.004654
9259.565426	5131.905000	1415.403320	116.789421
9259.565426	5131.905000	1414.327148	51.294201
9259.565426	5131.905000	1413.250000	109.539482
9259.565426	5131.905000	1412.173828	111.408638
9259.565426	5131.905000	1411.096680	-41.892090
9259.565426	5131.905000	1410.018555	268.467377
9259.565426	5131.905000	1408.941406	72.083855
9259.565426	5131.905000	1407.863281	122.768471
9259.565426	5131.905000	1406.785156	45.115376
9259.565426	5131.905000	1405.707031	163.419281
9259.565426	5131.905000	1404.628906	234.118439
9259.565426	5131.905000	1403.549805	217.779785
9259.565426	5131.905000	1402.470703	321.689575
9259.565426	5131.905000	1401.391602	46.500896
9259.565426	5131.905000	1400.312500	-6.396855
9259.565426	5131.905000	1399.233398	129.597641
9259.565426	5131.905000	1398.153320	42.442245
9259.565426	5131.905000	1397.073242	67.078133
9259.565426	5131.905000	1395.993164	140.357574
9259.565426	5131.905000	1394.913086	-35.483372
9259.565426	5131.905000	1393.832031	20.133520
9259.565426	5131.905000	1392.750977	79.686241
9259.565426	5131.905000	1391.669922	44.384476
9259.565426	5131.905000	1390.588867	61.832420
9259.565426	5131.905000	1389.506836	210.874161
9259.565426	5131.905000	1388.425781	237.561905
9259.565426	5131.905000	1387.343750	151.434784
9259.565426	5131.905000	1386.261719	215.944962
9259.565426	5131.905000	1385.178711	244.548080
9259.565426	5131.905000	1384.096680	174.809525
9259.565426	5131.905000	1383.013672	40.665363
9259.565426	5131.905000	1381.930664	118.796013
9259.565426	5131.905000	1380.846680	283.871216
9259.565426	5131.905000	1379.763672	119.553505
9259.565426	5131.905000	1378.679688	239.211044
9259.565426	5131.905000	1377.595703	213.227127
9259.565426	5131.905000	1376.511719	271.197113
9259.565426	5131.905000	1375.427734	89.273956
9259.565426	5131.905000	1374.342773	200.731262
9259.565426	5131.905000	1373.257813	68.696190
9259.565426	5131.905000	1372.172852	6.793378
9259.565426	5131.905000	1371.087891	64.622063
9259.565426	5131.905000	1370.001953	86.123055
9259.565426	5131.905000	1368.916992	167.864838
9259.565426	5131.905000	1367.831055	197.860291
9259.565426	5131.905000	1366.744141	195.228363
9259.565426	5131.905000	1365.658203	289.433655
9259.565426	5131.905000	1364.571289	362.466919
9259.565426	5131.905000	1363.484375	260.936218
9259.565426	5131.905000	1362.397461	232.255234
9259.565426	5131.905000	1361.310547	151.440109
9259.565426	5131.905000	1360.222656	147.783722
9259.565426	5131.905000	1359.135742	242.951141
9259.565426	5131.905000	1358.047852	206.498245
9259.565426	5131.905000	1356.958984	438.219666
9259.565426	5131.905000	1355.871094	51.524338
9259.565426	5131.905000	1354.782227	56.965477
9259.565426	5131.905000	1353.693359	312.769745
9259.565426	5131.905000	1352.604492	269.583191
9259.565426	5131.905000	1351.515625	217.946411
9259.565426	5131.905000	1350.425781	81.074532
9259.565426	5131.905000	1349.335938	270.804352
9259.565426	5131.905000	1348.246094	97.730133
9259.565426	5131.905000	1347.156250	104.960808
9259.565426	5131.905000	1346.066406	341.036926
9259.565426	5131.905000	1344.975586	247.986404
9259.565426	5131.905000	1343.884766	246.589096
9259.565426	5131.905000	1342.793945	420.691193
9259.565426	5131.905000	1341.702148	282.342255
9259.565426	5131.905000	1340.611328	344.891083
9259.565426	5131.905000	1339.519531	343.537781
9259.565426	5131.905000	1338.427734	248.330551
9259.565426	5131.905000	1337.334961	193.453842
9259.565426	5131.905000	1336.243164	107.031448
9259.565426	5131.905000	1335.150391	-13.190201
9259.565426	5131.905000	1334.057617	281.287048
9259.565426	5131.905000	1332.964844	168.367950
9259.565426	5131.905000	1331.871094	362.954987
9259.565426	5131.905000	1330.778320	215.933182
9259.565426	5131.905000	1329.684570	304.455658
9259.565426	5131.905000	1328.590820	264.739075
9259.565426	5131.905000	1327.496094	224.960464
9259.565426	5131.905000	1326.402344	216.304306
9259.565426	5131.905000	1325.307617	196.032455
9259.565426	5131.905000	1324.212891	195.048889
9259.565426	5131.905000	1323.117188	346.477081
9259.565426	5131.905000	1322.022461	183.957245
9259.565426	5131.905000	1320.926758	40.434151
9259.565426	5131.905000	1319.831055	152.875076
9259.565426	5131.905000	1318.735352	238.037308
9259.565426	5131.905000	1317.638672	263.139252
9259.565426	5131.905000	1316.542969	308.179108
9259.565426	5131.905000	1315.446289	198.004364
9259.565426	5131.905000	1314.349609	304.246155
9259.565426	5131.905000	1313.251953	261.493164
9259.565426	5131.905000	1312.155273	168.296967
9259.565426	5131.905000	1311.057617	186.406723
9259.565426	5131.905000	1309.959961	123.415337
9259.565426	5131.905000	1308.862305	90.285149
9259.565426	5131.905000	1307.763672	245.022980
9259.565426	5131.905000	1306.665039	194.592667
9259.565426	5131.905000	1305.566406	214.562057
9259.565426	5131.905000	1304.467773	70.716713
9259.565426	5131.905000	1303.369141	183.543411
9259.565426	5131.905000	1302.269531	293.873322
9259.565426	5131.905000	1301.169922	192.644775
9259.565426	5131.905000	1300.070313	102.212639
9259.565426	5131.905000	1298.970703	37.151600
9259.565426	5131.905000	1297.870117	91.013641
9259.565426	5131.905000	1296.769531	-55.405632
9259.565426	5131.905000	1295.668945	-139.275726
9259.565426	5131.905000	1294.568359	-1.502480
9259.565426	5131.905000	1293.466797	-43.178288
9259.565426	5131.905000	1292.366211	-0.129725
9259.565426	5131.905000	1291.264648	-80.536156
9259.565426	5131.905000	1290.162109	-51.947861
9259.565426	5131.905000	1289.060547	52.920731
9259.565426	5131.905000	1287.958008	-70.746307
9259.565426	5131.905000	1286.855469	120.090485
9259.565426	5131.905000	1285.752930	135.163956
9259.565426	5131.905000	1284.650391	94.854408
9259.565426	5131.905000	1283.546875	100.164391
9259.565426	5131.905000	1282.444336	77.073479
9259.565426	5131.905000	1281.339844	2.945974
9259.565426	5131.905000	1280.236328	-15.640173
9259.565426	5131.905000	1279.132813	150.148666
9259.565426	5131.905000	1278.028320	25.594435
9259.565426	5131.905000	1276.923828	96.320374
9259.565426	5131.905000	1275.819336	28.270245
9259.565426	5131.905000	1274.713867	185.605957
9259.565426	5131.905000	1273.608398	107.910637
9259.565426	5131.905000	1272.503906	163.599350
9259.565426	5131.905000	1271.397461	117.892418
9259.565426	5131.905000	1270.291992	84.725632
9259.565426	5131.905000	1269.185547	74.506500
9259.565426	5131.905000	1268.080078	-27.533009
9259.565426	5131.905000	1266.972656	-74.923317
9259.565426	5131.905000	1265.866211	-189.870468
9259.565426	5131.905000	1264.759766	65.992653
9259.565426	5131.905000	1263.652344	97.098618
9259.565426	5131.905000	1262.544922	-83.098526
9259.565426	5131.905000	1261.436523	-58.119297
9259.565426	5131.905000	1260.329102	26.842289
9259.565426	5131.905000	1259.220703	-97.221992
9259.565426	5131.905000	1258.112305	-173.989014
9259.565426	5131.905000	1257.003906	-123.152687
9259.565426	5131.905000	1255.895508	-94.082703
9259.565426	5131.905000	1254.786133	5.895841
9259.565426	5131.905000	1253.676758	-105.048294
9259.565426	5131.905000	1252.567383	-113.961540
9259.565426	5131.905000	1251.458008	-140.467499
9259.565426	5131.905000	1250.347656	33.565823
9259.565426	5131.905000	1249.237305	117.407722
9259.565426	5131.905000	1248.126953	-149.196243
9259.565426	5131.905000	1247.016602	-177.806168
9259.565426	5131.905000	1245.905273	-63.762695
9259.565426	5131.905000	1244.793945	2.286452
9259.565426	5131.905000	1243.682617	-17.983469
9259.565426	5131.905000	1242.571289	-25.047596
9259.565426	5131.905000	1241.459961	-34.887901
9259.565426	5131.905000	1240.347656	60.924545
9259.565426	5131.905000	1239.235352	-8.861513
9259.565426	5131.905000	1238.123047	-30.727064
9259.565426	5131.905000	1237.009766	-32.120117
9259.565426	5131.905000	1235.897461	126.645790
9259.565426	5131.905000	1234.784180	29.908560
9259.565426	5131.905000	1233.670898	74.594658
9259.565426	5131.905000	1232.556641	-29.585690
9259.565426	5131.905000	1231.443359	39.859612
9259.565426	5131.905000	1230.329102	125.020462
9259.565426	5131.905000	1229.214844	111.738350
9259.565426	5131.905000	1228.099609	129.703995
9259.565426	5131.905000	1226.985352	132.648727
9259.565426	5131.905000	1225.870117	162.240616
9259.565426	5131.905000	1224.754883	101.758636
9259.565426	5131.905000	1223.639648	287.141785
9259.565426	5131.905000	1222.523438	95.887360
9259.565426	5131.905000	1221.408203	164.990448
9259.565426	5131.905000	1220.291992	142.018494
9259.565426	5131.905000	1219.174805	72.721008
9259.565426	5131.905000	1218.058594	-43.087616
9259.565426	5131.905000	1216.941406	217.267502
9259.565426	5131.905000	1215.824219	37.698196
9259.565426	5131.905000	1214.707031	-108.617279
9259.565426	5131.905000	1213.589844	130.069626
9259.565426	5131.905000	1212.471680	186.911530
9259.565426	5131.905000	1211.353516	78.296867
9259.565426	5131.905000	1210.235352	-15.824623
9259.565426	5131.905000	1209.117188	-4.050084
9259.565426	5131.905000	1207.998047	-66.673203
9259.565426	5131.905000	1206.878906	260.398590
9259.565426	5131.905000	1205.759766	1.264476
9259.565426	5131.905000	1204.640625	-132.187332
9259.565426	5131.905000	1203.520508	11.095152
9259.565426	5131.905000	1202.401367	-7.204311
9259.565426	5131.905000	1201.281250	105.394676
9259.565426	5131.905000	1200.160156	-8.330032
9259.565426	5131.905000	1199.040039	-70.956337
9259.565426	5131.905000	1197.918945	40.464867
9259.565426	5131.905000	1196.797852	81.136604
9259.565426	5131.905000	1195.676758	-8.781379
9259.565426	5131.905000	1194.555664	70.479050
9259.565426	5131.905000	1193.433594	-32.035061
9259.565426	5131.905000	1192.311523	56.774883
9259.565426	5131.905000	1191.189453	-74.842499
9259.565426	5131.905000	1190.066406	1.764309
9259.565426	5131.905000	1188.944336	-22.822214
9259.565426	5131.905000	1187.821289	-62.653145
9259.565426	5131.905000	1186.698242	-105.687416
9259.565426	5131.905000	1185.574219	-123.169083
9259.565426	5131.905000	1184.451172	-84.747940
9259.565426	5131.905000	1183.327148	-10.655837
9259.565426	5131.905000	1182.203125	60.366131
9259.565426	5131.905000	1181.078125	-97.454437
9259.565426	5131.905000	1179.954102	27.290396
9259.565426	5131.905000	1178.829102	-75.888153
9259.565426	5131.905000	1177.704102	-61.987938
9259.565426	5131.905000	1176.579102	-166.977097
9259.565426	5131.905000	1175.453125	-201.396637
9259.565426	5131.905000	1174.327148	-34.177963
9259.565426	5131.905000	1173.201172	-248.414185
9259.565426	5131.905000	1172.075195	-227.107605
9259.565426	5131.905000	1170.949219	-8.035904
9259.565426	5131.905000	1169.822266	-77.447197
9259.565426	5131.905000	1168.695313	-134.651672
9259.565426	5131.905000	1167.568359	94.451897
9259.565426	5131.905000	1166.440430	-73.368050
9259.565426	5131.905000	1165.313477	-69.583923
9259.565426	5131.905000	1164.185547	-124.773788
9259.565426	5131.905000	1163.057617	-20.783852
9259.565426	5131.905000	1161.928711	-107.247108
9259.565426	5131.905000	1160.800781	-77.401421
9259.565426	5131.905000	1159.671875	19.620314
9259.565426	5131.905000	1158.541992	-22.687136
9259.565426	5131.905000	1157.413086	-102.298798
9259.565426	5131.905000	1156.283203	-25.432642
9259.565426	5131.905000	1155.154297	18.911987
9259.565426	5131.905000	1154.023438	49.478924
9259.565426	5131.905000	1152.893555	52.227890
9259.565426	5131.905000	1151.763672	-12.871662
9259.565426	5131.905000	1150.632813	-76.222443
9259.565426	5131.905000	1149.501953	-41.047298
9259.565426	5131.905000	1148.370117	4.731484
9259.565426	5131.905000	1147.239258	41.648117
9259.565426	5131.905000	1146.107422	116.994019
9259.565426	5131.905000	1144.975586	108.968330
9259.565426	5131.905000	1143.843750	70.721191
9259.565426	5131.905000	1142.710938	0.517745
9259.565426	5131.905000	1141.578125	90.580627
9259.565426	5131.905000	1140.445313	-7.693891
9259.565426	5131.905000	1139.312500	-73.820679
9259.565426	5131.905000	1138.178711	128.772919
9259.565426	5131.905000	1137.045898	21.000507
9259.565426	5131.905000	1135.912109	225.579849
9259.565426	5131.905000	1134.777344	97.860298
9259.565426	5131.905000	1133.643555	-72.279564
9259.565426	5131.905000	1132.508789	126.756821
9259.565426	5131.905000	1131.374023	107.724586
9259.565426	5131.905000	1130.239258	130.958527
9259.565426	5131.905000	1129.104492	218.143997
9259.565426	5131.905000	1127.968750	253.541946
9259.565426	5131.905000	1126.833008	115.423248
9259.565426	5131.905000	1125.697266	212.382492
9259.565426	5131.905000	1124.560547	191.489136
9259.565426	5131.905000	1123.424805	161.831268
9259.565426	5131.905000	1122.288086	192.876099
9259.565426	5131.905000	1121.151367	238.560699
9259.565426	5131.905000	1120.013672	243.678055
9259.565426	5131.905000	1118.876953	172.328247
9259.565426	5131.905000	1117.739258	82.764397
9259.565426	5131.905000	1116.601563	131.696167
9259.565426	5131.905000	1115.462891	77.349060
9259.565426	5131.905000	1114.324219	167.803909
9259.565426	5131.905000	1113.186523	145.799835
9259.565426	5131.905000	1112.046875	75.686386
9259.565426	5131.905000	1110.908203	136.809097
9259.565426	5131.905000	1109.769531	166.534119
9259.565426	5131.905000	1108.629883	93.818260
9259.565426	5131.905000	1107.490234	9.119484
9259.565426	5131.905000	1106.349609	79.028366
9259.565426	5131.905000	1105.209961	65.130074
9259.565426	5131.905000	1104.069336	256.189789
9259.565426	5131.905000	1102.928711	146.135361
9259.565426	5131.905000	1101.787109	181.810150
9259.565426	5131.905000	1100.646484	183.486130
9259.565426	5131.905000	1099.504883	56.948776
9259.565426	5131.905000	1098.363281	136.440491
9259.565426	5131.905000	1097.221680	85.422157
9259.565426	5131.905000	1096.079102	68.139404
9259.565426	5131.905000	1094.936523	208.503662
9259.565426	5131.905000	1093.793945	60.596947
9259.565426	5131.905000	1092.651367	192.548111
9259.565426	5131.905000	1091.507813	195.473755
9259.565426	5131.905000	1090.364258	179.120453
9259.565426	5131.905000	1089.220703	353.543823
9259.565426	5131.905000	1088.077148	159.574905
9259.565426	5131.905000	1086.933594	129.017395
9259.565426	5131.905000	1085.789063	146.991684
9259.565426	5131.905000	1084.644531	219.117523
9259.565426	5131.905000	1083.499023	42.885384
9259.565426	5131.905000	1082.354492	121.861176
9259.565426	5131.905000	1081.208984	91.160568
9259.565426	5131.905000	1080.063477	265.354614
9259.565426	5131.905000	1078.917969	71.632805
9259.565426	5131.905000	1077.771484	88.617287
9259.565426	5131.905000	1076.625977	29.443632
9259.565426	5131.905000	1075.479492	131.325867
9259.565426	5131.905000	1074.332031	125.797112
9259.565426	5131.905000	1073.185547	166.541977
9259.565426	5131.905000	1072.038086	60.584866
9259.565426	5131.905000	1070.890625	16.838896
9259.565426	5131.905000	1069.743164	110.977943
9259.565426	5131.905000	1068.594727	204.408142
9259.565426	5131.905000	1067.447266	34.060505
9259.565426	5131.905000	1066.298828	166.009918
9259.565426	5131.905000	1065.149414	180.835449
9259.565426	5131.905000	1064.000977	251.934128
9259.565426	5131.905000	1062.851563	209.308395
9259.565426	5131.905000	1061.702148	217.631439
9259.565426	5131.905000	1060.552734	-11.115235
9259.565426	5131.905000	1059.402344	243.586609
9259.565426	5131.905000	1058.252930	229.119644
9259.565426	5131.905000	1057.102539	27.249739
9259.565426	5131.905000	1055.951172	71.742500
9259.565426	5131.905000	1054.800781	6.254248
9259.565426	5131.905000	1053.649414	126.383667
9259.565426	5131.905000	1052.498047	17.414549
9259.565426	5131.905000	1051.346680	-19.012386
9259.565426	5131.905000	1050.194336	93.658966
9259.565426	5131.905000	1049.042969	116.248314
9259.565426	5131.905000	1047.890625	100.616768
9259.565426	5131.905000	1046.738281	101.838318
9259.565426	5131.905000	1045.584961	81.379128
9259.565426	5131.905000	1044.431641	4.304445
9259.565426	5131.905000	1043.278320	-47.461773
9259.565426	5131.905000	1042.125000	117.533722
9259.565426	5131.905000	1040.971680	-75.801727
9259.565426	5131.905000	1039.817383	-8.737432
9259.565426	5131.905000	1038.663086	39.640659
9259.565426	5131.905000	1037.508789	34.070961
9259.565426	5131.905000	1036.353516	96.053612
9259.565426	5131.905000	1035.198242	56.865055
9259.565426	5131.905000	1034.042969	95.739815
9259.565426	5131.905000	1032.887695	239.859665
9259.565426	5131.905000	1031.732422	71.488426
9259.565426	5131.905000	1030.576172	-35.486176
9259.565426	5131.905000	1029.419922	69.816933
9259.565426	5131.905000	1028.263672	126.884239
9259.565426	5131.905000	1027.106445	98.853378
9259.565426	5131.905000	1025.949219	80.764717
9259.565426	5131.905000	1024.792969	49.784683
9259.565426	5131.905000	1023.634766	31.028868
9259.565426	5131.905000	1022.477539	37.619320
9259.565426	5131.905000	1021.319336	92.362244
9259.565426	5131.905000	1020.161133	117.288361
9259.565426	5131.905000	1019.002930	-19.796476
9259.565426	5131.905000	1017.843750	140.583069
9259.565426	5131.905000	1016.684570	76.379669
9259.565426	5131.905000	1015.525391	20.491968
9259.565426	5131.905000	1014.366211	-61.781044
9259.565426	5131.905000	1013.207031	-50.644257
9259.565426	5131.905000	1012.046875	-77.528702
9259.565426	5131.905000	1010.886719	68.472557
9259.565426	5131.905000	1009.726563	-57.908360
9259.565426	5131.905000	1008.565430	174.009262
9259.565426	5131.905000	1007.404297	120.268677
9259.565426	5131.905000	1006.243164	-11.833553
9259.565426	5131.905000	1005.082031	-44.893906
9259.565426	5131.905000	1003.920898	-101.254478
9259.565426	5131.905000	1002.758789	-94.972931
9259.565426	5131.905000	1001.596680	21.396439
9259.565426	5131.905000	1000.433594	110.426781
9259.565426	5131.905000	999.271484	-16.362585
9259.565426	5131.905000	998.108398	-30.725002
9259.565426	5131.905000	996.945313	-38.586239
9259.565426	5131.905000	995.782227	-113.086235
9259.565426	5131.905000	994.618164	71.202545
9259.565426	5131.905000	993.454102	1.688387
9259.565426	5131.905000	992.290039	85.734772
9259.565426	5131.905000	991.125977	222.681259
9259.565426	5131.905000	989.960938	112.149643
9259.565426	5131.905000	988.796875	34.861309
9259.565426	5131.905000	987.630859	-15.133327
9259.565426	5131.905000	986.465820	-10.066391
9259.565426	5131.905000	985.300781	-33.307331
9259.565426	5131.905000	984.134766	50.496494
9259.565426	5131.905000	982.968750	172.999664
9259.565426	5131.905000	981.801758	26.576744
9259.565426	5131.905000	980.635742	-16.597935
9259.565426	5131.905000	979.468750	-34.861893
9259.565426	5131.905000	978.301758	-82.991615
9259.565426	5131.905000	977.133789	136.061218
9259.565426	5131.905000	975.966797	-39.085056
9259.565426	5131.905000	974.798828	59.828564
9259.565426	5131.905000	973.630859	-5.275599
9259.565426	5131.905000	972.461914	-10.766293
9259.565426	5131.905000	971.293945	-97.724243
9259.565426	5131.905000	970.125000	-13.810524
9259.565426	5131.905000	968.956055	-112.370316
9259.565426	5131.905000	967.786133	-22.701143
9259.565426	5131.905000	966.617188	-126.160934
9259.565426	5131.905000	965.447266	-2.508083
9259.565426	5131.905000	964.276367	-86.079338
9259.565426	5131.905000	963.106445	-10.825285
9259.565426	5131.905000	961.935547	-31.876984
9259.565426	5131.905000	960.764648	28.609970
9259.565426	5131.905000	959.593750	-37.780231
9259.565426	5131.905000	958.422852	-36.305187
9259.565426	5131.905000	957.250977	-39.524315
9259.565426	5131.905000	956.079102	33.111443
9259.565426	5131.905000	954.907227	-35.639404
9259.565426	5131.905000	953.734375	-145.443741
9259.565426	5131.905000	952.562500	-46.944248
9259.565426	5131.905000	951.389648	32.096375
9259.565426	5131.905000	950.215820	144.229050
9259.565426	5131.905000	949.042969	1.751166
9259.565426	5131.905000	947.869141	-24.094736
9259.565426	5131.905000	946.695313	1.738576
9259.565426	5131.905000	945.521484	-138.756989
9259.565426	5131.905000	944.346680	36.314026
9259.565426	5131.905000	943.172852	19.930794
9259.565426	5131.905000	941.998047	59.422134
9259.565426	5131.905000	940.822266	147.994751
9259.565426	5131.905000	939.647461	-43.935127
9259.565426	5131.905000	938.471680	26.178053
9259.565426	5131.905000	937.295898	-168.075409
9259.565426	5131.905000	936.119141	72.415184
9259.565426	5131.905000	934.943359	83.954865
9259.565426	5131.905000	933.766602	-16.873362
9259.565426	5131.905000	932.589844	-98.937630
9259.565426	5131.905000	931.413086	216.049362
9259.565426	5131.905000	930.235352	131.554169
9259.565426	5131.905000	929.057617	47.254116
9259.565426	5131.905000	927.879883	137.857880
9259.565426	5131.905000	926.702148	86.179581
9259.565426	5131.905000	925.523438	102.138390
9259.565426	5131.905000	924.344727	64.412628
9259.565426	5131.905000	923.166016	50.008335
9259.565426	5131.905000	921.987305	-87.991814
9259.565426	5131.905000	920.807617	-2.114520
9259.565426	5131.905000	919.627930	1.405504
9259.565426	5131.905000	919.497070	42.146214
9259.565426	5131.905000	918.331055	169.848068
9259.565426	5131.905000	917.165039	101.749458
9259.565426	5131.905000	915.999023	42.984810
9259.565426	5131.905000	914.833008	49.449299
9259.565426	5131.905000	913.666016	9.326578
9259.565426	5131.905000	912.499023	-16.822609
9259.565426	5131.905000	911.332031	-96.513252
9259.565426	5131.905000	910.165039	79.823624
9259.565426	5131.905000	908.997070	74.583534
9259.565426	5131.905000	907.830078	46.067158
9259.565426	5131.905000	906.661133	138.503693
9259.565426	5131.905000	905.493164	-31.887070
9259.565426	5131.905000	904.325195	-78.996765
9259.565426	5131.905000	903.156250	145.870377
9259.565426	5131.905000	901.987305	5.762449
9259.565426	5131.905000	900.818359	-108.740326
9259.565426	5131.905000	899.648438	-81.497429
9259.565426	5131.905000	898.478516	-65.889908
9259.565426	5131.905000	897.308594	70.450989
9259.565426	5131.905000	896.138672	88.321281
9259.565426	5131.905000	894.968750	34.216171
9259.565426	5131.905000	893.797852	49.746838
9259.565426	5131.905000	892.626953	134.867233
9259.565426	5131.905000	891.456055	266.337677
9259.565426	5131.905000	890.284180	137.986618
9259.565426	5131.905000	889.113281	79.239006
9259.565426	5131.905000	887.941406	6.597759
9259.565426	5131.905000	886.768555	75.368118
9259.565426	5131.905000	885.596680	100.067360
9259.565426	5131.905000	884.423828	-65.238167
9259.565426	5131.905000	883.250977	-52.120354
9259.565426	5131.905000	882.078125	60.569305
9259.565426	5131.905000	880.905273	154.678543
9259.565426	5131.905000	879.731445	24.184568
9259.565426	5131.905000	878.557617	81.212807
9259.565426	5131.905000	877.383789	-65.431030
9259.565426	5131.905000	876.209961	-8.427067
9259.565426	5131.905000	875.035156	-48.605244
9259.565426	5131.905000	873.860352	135.550964
9259.565426	5131.905000	872.685547	-41.078495
9259.565426	5131.905000	871.510742	-132.112259
9259.565426	5131.905000	870.334961	109.702705
9259.565426	5131.905000	869.159180	-173.134628
9259.565426	5131.905000	867.983398	-42.323456
9259.565426	5131.905000	866.807617	-6.277813
9259.565426	5131.905000	865.630859	2.033593
9259.565426	5131.905000	864.454102	-58.934185
9259.565426	5131.905000	863.277344	57.860371
9259.565426	5131.905000	862.100586	-21.575899
9259.565426	5131.905000	860.922852	-17.918776
9259.565426	5131.905000	859.745117	34.174015
9259.565426	5131.905000	858.567383	72.396812
9259.565426	5131.905000	857.389648	126.736908
9259.565426	5131.905000	856.210938	162.602463
9259.565426	5131.905000	855.032227	-82.776543
9259.565426	5131.905000	853.853516	61.415318
9259.565426	5131.905000	852.674805	-13.355190
9259.565426	5131.905000	851.495117	-5.170682
9259.565426	5131.905000	850.315430	-155.919312
9259.565426	5131.905000	849.135742	100.966278
9259.565426	5131.905000	847.956055	17.003624
9259.565426	5131.905000	846.775391	66.570511
9259.565426	5131.905000	845.595703	-84.108292
9259.565426	5131.905000	844.415039	45.968910
9259.565426	5131.905000	843.233398	-14.945534
9259.565426	5131.905000	842.052734	133.443024
9259.565426	5131.905000	840.871094	-76.946304
9259.565426	5131.905000	839.689453	48.386532
9259.565426	5131.905000	838.506836	77.123436
9259.565426	5131.905000	837.325195	82.856476
9259.565426	5131.905000	836.142578	-51.570049
9259.565426	5131.905000	834.959961	-64.207802
9259.565426	5131.905000	833.777344	3.528587
9259.565426	5131.905000	832.593750	2.345849
9259.565426	5131.905000	831.410156	-99.854538
9259.565426	5131.905000	830.226563	18.310646
9259.565426	5131.905000	829.042969	-47.158215
9259.565426	5131.905000	827.858398	-296.145752
9259.565426	5131.905000	826.673828	-40.419384
9259.565426	5131.905000	825.489258	-140.266357
9259.565426	5131.905000	824.304688	-125.443588
9259.565426	5131.905000	823.120117	-12.068880
9259.565426	5131.905000	821.934570	158.545822
9259.565426	5131.905000	820.749023	79.318184
9259.565426	5131.905000	819.562500	13.859558
9259.565426	5131.905000	818.376953	-12.649845
9259.565426	5131.905000	817.190430	-59.767460
9259.565426	5131.905000	816.003906	30.490799
9259.565426	5131.905000	814.817383	10.826942
9259.565426	5131.905000	813.629883	-79.783958
9259.565426	5131.905000	812.442383	-87.999901
9259.565426	5131.905000	811.254883	102.794708
9259.565426	5131.905000	810.067383	144.835068
9259.565426	5131.905000	808.878906	72.514137
9259.565426	5131.905000	807.690430	9.354166
9259.565426	5131.905000	806.501953	60.492188
9259.565426	5131.905000	805.313477	-46.085629
9259.565426	5131.905000	804.124023	30.149380
9259.565426	5131.905000	802.934570	-51.277115
9259.565426	5131.905000	801.745117	-192.063522
9259.565426	5131.905000	800.555664	-74.788643
9259.565426	5131.905000	799.365234	3.616177
9259.565426	5131.905000	798.175781	-125.726143
9259.565426	5131.905000	796.985352	164.845261
9259.565426	5131.905000	795.793945	-7.850481
9259.565426	5131.905000	794.603516	-50.477016
9259.565426	5131.905000	793.412109	27.767075
9259.565426	5131.905000	792.220703	67.202469
9259.565426	5131.905000	791.028320	152.198471
9259.565426	5131.905000	789.836914	-59.139885
9259.565426	5131.905000	788.644531	-28.872650
9259.565426	5131.905000	787.452148	-28.250383
9259.565426	5131.905000	786.258789	-105.084503
9259.565426	5131.905000	785.066406	84.526482
9259.565426	5131.905000	783.873047	62.308083
9259.565426	5131.905000	782.679688	8.213378
9259.565426	5131.905000	781.485352	33.777565
9259.565426	5131.905000	780.291992	-68.106049
9259.565426	5131.905000	779.097656	-63.046574
9259.565426	5131.905000	777.903320	158.056595
9259.565426	5131.905000	776.708008	44.788883
9259.565426	5131.905000	775.512695	-84.364815
9259.565426	5131.905000	774.318359	-22.558203
9259.565426	5131.905000	773.122070	-3.970721
9259.565426	5131.905000	771.926758	135.003860
9259.565426	5131.905000	770.730469	58.107273
9259.565426	5131.905000	769.534180	83.419708
9259.565426	5131.905000	768.337891	131.406754
9259.565426	5131.905000	767.141602	-59.008480
9259.565426	5131.905000	765.944336	95.621544
9259.565426	5131.905000	764.747070	288.741364
9259.565426	5131.905000	763.549805	98.349724
9259.565426	5131.905000	762.351563	109.889267
9259.565426	5131.905000	761.154297	89.651756
9259.565426	5131.905000	759.956055	58.065105
9259.565426	5131.905000	758.757813	225.948425
9259.565426	5131.905000	757.558594	56.056282
9259.565426	5131.905000	756.359375	192.103302
9259.565426	5131.905000	755.160156	53.957897
9259.565426	5131.905000	753.960938	72.126167
9259.565426	5131.905000	752.761719	-142.975632
9259.565426	5131.905000	751.561523	92.520714
9259.565426	5131.905000	750.361328	110.598015
9259.565426	5131.905000	749.160156	60.753353
9259.565426	5131.905000	747.959961	-59.235748
9259.565426	5131.905000	746.758789	15.339954
9259.565426	5131.905000	745.557617	-18.697792
9259.565426	5131.905000	744.356445	116.838264
9259.565426	5131.905000	743.154297	-66.461639
9259.565426	5131.905000	741.952148	-89.237602
9259.565426	5131.905000	740.750000	197.552124
9259.565426	5131.905000	739.547852	-12.840767
9259.565426	5131.905000	738.344727	25.294003
9259.565426	5131.905000	737.142578	244.049774
9259.565426	5131.905000	735.939453	126.268684
9259.565426	5131.905000	734.735352	-16.321043
9259.565426	5131.905000	733.532227	109.690460
9259.565426	5131.905000	732.328125	77.672081
9259.565426	5131.905000	731.124023	147.156265
9259.565426	5131.905000	729.918945	135.385391
9259.565426	5131.905000	728.714844	-4.945839
9259.565426	5131.905000	727.509766	107.260780
9259.565426	5131.905000	726.303711	95.418022
9259.565426	5131.905000	725.098633	-6.594660
9259.565426	5131.905000	723.892578	-65.784691
9259.565426	5131.905000	722.686523	64.242393
9259.565426	5131.905000	721.480469	191.931671
9259.565426	5131.905000	720.274414	-76.764450
9259.565426	5131.905000	719.067383	-104.496422
9259.565426	5131.905000	717.860352	-51.220753
9259.565426	5131.905000	716.653320	164.021805
9259.565426	5131.905000	715.445313	-12.326473
9259.565426	5131.905000	714.238281	20.555723
9259.565426	5131.905000	713.030273	183.827545
9259.565426	5131.905000	711.821289	47.959869
9259.565426	5131.905000	710.613281	-31.686239
9259.565426	5131.905000	709.404297	-95.599266
9259.565426	5131.905000	708.195313	-51.663708
9259.565426	5131.905000	706.986328	16.931746
9259.565426	5131.905000	705.776367	173.060806
9259.565426	5131.905000	704.566406	100.040230
9259.565426	5131.905000	703.356445	67.428421
9259.565426	5131.905000	702.146484	66.220291
9259.565426	5131.905000	700.935547	-67.428307
9259.565426	5131.905000	699.724609	-23.803528
9259.565426	5131.905000	698.513672	28.740444
9259.565426	5131.905000	697.302734	4.973453
9259.565426	5131.905000	696.090820	-32.273468
9259.565426	5131.905000	694.878906	17.890417
9259.565426	5131.905000	693.666992	-88.897362
9259.565426	5131.905000	692.455078	39.615482
9259.565426	5131.905000	691.242188	58.257927
9259.565426	5131.905000	690.029297	103.734802
9259.565426	5131.905000	688.816406	28.225170
9259.565426	5131.905000	687.602539	-42.812187
9259.565426	5131.905000	686.389648	-24.315805
9259.565426	5131.905000	685.175781	128.417664
9259.565426	5131.905000	683.960938	75.192688
9259.565426	5131.905000	682.747070	93.539192
9259.565426	5131.905000	681.532227	67.108101
9259.565426	5131.905000	680.317383	154.693893
9259.565426	5131.905000	679.102539	-17.135191
9259.565426	5131.905000	677.886719	121.764992
9259.565426	5131.905000	676.670898	12.510798
9259.565426	5131.905000	675.455078	-5.130296
9259.565426	5131.905000	674.239258	193.876785
9259.565426	5131.905000	673.022461	-127.606621
9259.565426	5131.905000	671.805664	-134.158859
9259.565426	5131.905000	670.588867	24.449503
9259.565426	5131.905000	669.372070	55.732079
9259.565426	5131.905000	668.154297	136.054489
9259.565426	5131.905000	666.936523	149.373703
9259.565426	5131.905000	665.718750	-67.094490
9259.565426	5131.905000	664.500977	73.295868
9259.565426	5131.905000	663.282227	50.828274
9259.565426	5131.905000	662.063477	264.615601
9259.565426	5131.905000	660.844727	230.895172
9259.565426	5131.905000	659.625000	194.920578
9259.565426	5131.905000	658.405273	245.801437
9259.565426	5131.905000	657.185547	381.255524
9259.565426	5131.905000	655.965820	380.780884
9259.565426	5131.905000	654.745117	309.025116
9259.565426	5131.905000	653.525391	317.390350
9259.565426	5131.905000	652.303711	354.639557
9259.565426	5131.905000	651.083008	207.170502
9259.565426	5131.905000	649.861328	162.045303
9259.565426	5131.905000	648.640625	334.846069
9259.565426	5131.905000	647.417969	102.862755
9259.565426	5131.905000	646.196289	188.826050
9259.565426	5131.905000	644.973633	136.916519
9259.565426	5131.905000	643.750977	69.435120
9259.565426	5131.905000	642.528320	177.447876
9259.565426	5131.905000	641.305664	63.264946
9259.565426	5131.905000	640.082031	264.420380
9259.565426	5131.905000	638.858398	221.233322
9259.565426	5131.905000	637.634766	229.078461
9259.565426	5131.905000	636.410156	97.068840
9259.565426	5131.905000	635.185547	58.264492
9259.565426	5131.905000	633.960938	-13.836383
9259.565426	5131.905000	632.736328	193.499786
9259.565426	5131.905000	631.510742	34.846432
9259.565426	5131.905000	630.285156	102.343315
9259.565426	5131.905000	629.059570	39.005775
9259.565426	5131.905000	627.833984	73.158234
9259.565426	5131.905000	626.607422	54.086441
9259.565426	5131.905000	625.380859	3.974753
9259.565426	5131.905000	624.154297	-12.934416
9259.565426	5131.905000	622.927734	25.477829
9259.565426	5131.905000	621.700195	-15.853909
9259.565426	5131.905000	620.472656	82.222160
9259.565426	5131.905000	619.245117	-266.735107
9259.565426	5131.905000	618.016602	-0.596348
9259.565426	5131.905000	616.788086	-119.443535
9259.565426	5131.905000	615.559570	-98.967789
9259.565426	5131.905000	614.331055	-266.451508
9259.565426	5131.905000	613.101563	-33.836224
9259.565426	5131.905000	611.872070	-15.708141
9259.565426	5131.905000	610.642578	35.518017
9259.565426	5131.905000	609.413086	-74.560242
9259.565426	5131.905000	608.182617	-52.122269
9259.565426	5131.905000	606.952148	-73.886497
9259.565426	5131.905000	605.721680	133.903793
9259.565426	5131.905000	604.491211	125.285614
9259.565426	5131.905000	603.259766	68.092705
9259.565426	5131.905000	602.028320	-110.442039
9259.565426	5131.905000	600.796875	-15.437360
9259.565426	5131.905000	599.564453	101.545448
9259.565426	5131.905000	598.332031	48.687618
9259.565426	5131.905000	597.099609	59.743961
9259.565426	5131.905000	595.867188	-39.421307
9259.565426	5131.905000	594.633789	17.855555
9259.565426	5131.905000	593.400391	59.659706
9259.565426	5131.905000	592.166992	160.879807
9259.565426	5131.905000	590.933594	61.659370
9259.565426	5131.905000	589.699219	107.743164
9259.565426	5131.905000	588.464844	-77.317223
9259.565426	5131.905000	587.230469	10.530952
9259.565426	5131.905000	585.995117	406.309753
9259.565426	5131.905000	584.760742	23.269020
9259.565426	5131.905000	583.525391	-31.978273
9259.565426	5131.905000	582.289063	42.485817
9259.565426	5131.905000	581.053711	108.104164
9259.565426	5131.905000	579.817383	24.229378
9259.565426	5131.905000	578.581055	-6.901683
9259.565426	5131.905000	577.343750	69.593811
9259.565426	5131.905000	576.107422	5.478237
9259.565426	5131.905000	574.870117	42.371181
9259.565426	5131.905000	573.631836	191.184311
9259.565426	5131.905000	572.394531	221.395447
9259.565426	5131.905000	571.156250	7.997164
9259.565426	5131.905000	569.917969	182.989166
9259.565426	5131.905000	568.679688	195.574707
9259.565426	5131.905000	567.440430	276.115540
9259.565426	5131.905000	566.202148	225.057938
9259.565426	5131.905000	564.961914	294.560638
9259.565426	5131.905000	563.722656	212.803085
9259.565426	5131.905000	562.482422	139.825989
9259.565426	5131.905000	561.243164	246.498093
9259.565426	5131.905000	560.001953	24.583529
9259.565426	5131.905000	558.761719	76.461533
9259.565426	5131.905000	557.520508	60.436001
9259.565426	5131.905000	556.279297	11.573723
9259.565426	5131.905000	555.038086	61.192738
9259.565426	5131.905000	553.795898	-101.440460
9259.565426	5131.905000	552.554688	-23.405720
9259.565426	5131.905000	551.311523	10.843649
9259.565426	5131.905000	550.069336	108.476631
9259.565426	5131.905000	548.826172	26.810207
9259.565426	5131.905000	547.583984	-35.157295
9259.565426	5131.905000	546.339844	-59.966156
9259.565426	5131.905000	545.096680	31.011667
9259.565426	5131.905000	543.852539	58.603863
9259.565426	5131.905000	542.608398	-3.348756
9259.565426	5131.905000	541.364258	13.313174
9259.565426	5131.905000	540.119141	10.317538
9259.565426	5131.905000	538.875000	-58.143448
9259.565426	5131.905000	537.628906	167.948975
9259.565426	5131.905000	536.383789	-103.380653
9259.565426	5131.905000	535.137695	-136.892044
9259.565426	5131.905000	533.892578	185.003952
9259.565426	5131.905000	532.645508	3.211357
9259.565426	5131.905000	531.399414	2.388980
9259.565426	5131.905000	530.152344	-57.265892
9259.565426	5131.905000	528.905273	-45.004269
9259.565426	5131.905000	527.658203	-65.414864
9259.565426	5131.905000	526.410156	-20.491507
9259.565426	5131.905000	525.163086	33.127384
9259.565426	5131.905000	523.914063	-39.519405
9259.565426	5131.905000	522.666016	90.250763
9259.565426	5131.905000	521.416992	-8.474206
9259.565426	5131.905000	520.167969	-46.246166
9259.565426	5131.905000	518.918945	-5.705657
9259.565426	5131.905000	517.669922	6.559989
9259.565426	5131.905000	516.419922	-59.430855
9259.565426	5131.905000	515.169922	-90.611954
9259.565426	5131.905000	513.919922	-13.128779
9259.565426	5131.905000	512.668945	5.673748
9259.565426	5131.905000	511.417969	-84.117210
9259.565426	5131.905000	510.166992	-130.429871
9259.565426	5131.905000	508.916016	33.872459
9259.565426	5131.905000	507.664063	48.347675
9259.565426	5131.905000	506.412109	-67.374191
9259.565426	5131.905000	505.160156	-33.332767
9259.565426	5131.905000	503.907227	24.564007
9259.565426	5131.905000	502.655273	-108.389244
9259.565426	5131.905000	501.402344	42.756783
9259.565426	5131.905000	500.148438	-55.437477
9259.565426	5131.905000	498.895508	-140.569138
9259.565426	5131.905000	497.641602	69.028885
9259.565426	5131.905000	496.387695	-139.546341
9259.565426	5131.905000	495.132813	-29.640352
9259.565426	5131.905000	493.878906	108.386375
9259.565426	5131.905000	492.624023	-2.598878
9259.565426	5131.905000	491.368164	-35.602749
9259.565426	5131.905000	490.113281	-40.442921
9259.565426	5131.905000	488.857422	108.342117
9259.565426	5131.905000	487.601563	-39.258289
9259.565426	5131.905000	486.344727	-37.563385
9259.565426	5131.905000	485.088867	54.957535
9259.565426	5131.905000	483.832031	110.704926
9259.565426	5131.905000	482.575195	34.611309
9259.565426	5131.905000	481.317383	111.975517
9259.565426	5131.905000	480.059570	57.546364
9259.565426	5131.905000	478.801758	-37.879444
9259.565426	5131.905000	477.543945	-44.716179
9259.565426	5131.905000	476.285156	49.928631
9259.565426	5131.905000	475.027344	2.096399
9259.565426	5131.905000	473.767578	-75.916344
9259.565426	5131.905000	472.508789	-35.218872
9259.565426	5131.905000	471.249023	-199.441132
9259.565426	5131.905000	469.989258	104.386917
9259.565426	5131.905000	468.729492	99.779396
9259.565426	5131.905000	467.469727	118.897842
9259.565426	5131.905000	466.208984	-40.858234
9259.565426	5131.905000	464.948242	19.241699
9259.565426	5131.905000	463.686523	27.622456
9259.565426	5131.905000	462.425781	-56.599106
9259.565426	5131.905000	461.164063	-134.318344
9259.565426	5131.905000	459.901367	22.657230
9259.565426	5131.905000	458.639648	-35.659782
9259.565426	5131.905000	457.376953	7.189634
9259.565426	5131.905000	456.114258	4.845688
9259.565426	5131.905000	454.851563	2.505939
9259.565426	5131.905000	453.587891	56.080097
9259.565426	5131.905000	452.324219	23.631012
9259.565426	5131.905000	451.060547	23.439032
9259.565426	5131.905000	449.796875	-4.693093
9259.565426	5131.905000	448.532227	-97.277817
9259.565426	5131.905000	447.267578	91.581383
9259.565426	5131.905000	446.002930	48.401375
9259.565426	5131.905000	444.737305	-177.285141
9259.565426	5131.905000	443.471680	26.468428
9259.565426	5131.905000	442.206055	9.052223
9259.565426	5131.905000	440.940430	-70.599731
9259.565426	5131.905000	439.673828	-184.562057
9259.565426	5131.905000	438.407227	-30.380188
9259.565426	5131.905000	437.140625	48.657936
9259.565426	5131.905000	435.873047	11.861651
9259.565426	5131.905000	434.605469	144.393280
9259.565426	5131.905000	433.337891	-1.758083
9259.565426	5131.905000	432.070313	74.951767
9259.565426	5131.905000	430.801758	110.891731
9259.565426	5131.905000	429.533203	168.194977
9259.565426	5131.905000	428.264648	13.456161
9259.565426	5131.905000	426.996094	-8.533895
9259.565426	5131.905000	425.726563	215.566788
9259.565426	5131.905000	424.457031	65.056068
9259.565426	5131.905000	423.186523	72.864960
9259.565426	5131.905000	421.916992	50.672165
9259.565426	5131.905000	420.646484	-1.512595
9259.565426	5131.905000	419.375977	78.813774
9259.565426	5131.905000	418.104492	212.470749
9259.565426	5131.905000	416.833008	155.802582
9259.565426	5131.905000	415.561523	20.029127
9259.565426	5131.905000	414.290039	12.398479
9259.565426	5131.905000	413.017578	209.702484
9259.565426	5131.905000	411.746094	-141.904816
9259.565426	5131.905000	410.472656	125.603210
9259.565426	5131.905000	409.200195	104.774193
9259.565426	5131.905000	407.926758	175.598190
9259.565426	5131.905000	406.653320	205.746414
9259.565426	5131.905000	405.379883	97.129951
9259.565426	5131.905000	404.105469	-17.961950
9259.565426	5131.905000	402.831055	188.788147
9259.565426	5131.905000	401.556641	64.937332
9259.565426	5131.905000	400.282227	151.969299
9259.565426	5131.905000	399.006836	104.588684
9259.565426	5131.905000	397.731445	174.229324
9259.565426	5131.905000	396.456055	17.940800
9259.565426	5131.905000	395.179688	-25.606377
9259.565426	5131.905000	393.903320	3.066842
9259.565426	5131.905000	392.626953	-30.172680
9259.565426	5131.905000	391.350586	44.929916
9259.565426	5131.905000	390.073242	-35.495235
9259.565426	5131.905000	388.795898	139.131241
9259.565426	5131.905000	387.518555	196.517197
9259.565426	5131.905000	386.240234	26.180338
9259.565426	5131.905000	384.961914	117.118324
9259.565426	5131.905000	383.683594	248.152634
9259.565426	5131.905000	382.405273	132.437531
9259.565426	5131.905000	381.125977	75.984238
9259.565426	5131.905000	379.846680	144.582199
9259.565426	5131.905000	378.567383	206.504120
9259.565426	5131.905000	377.287109	113.151497
9259.565426	5131.905000	376.006836	-35.633625
9259.565426	5131.905000	374.726563	29.635607
9259.565426	5131.905000	373.446289	90.316887
9259.565426	5131.905000	372.165039	248.194519
9259.565426	5131.905000	370.883789	110.931732
9259.565426	5131.905000	369.602539	104.812210
9259.565426	5131.905000	368.320313	94.085449
9259.565426	5131.905000	367.039063	144.447861
9259.565426	5131.905000	365.755859	-57.721092
9259.565426	5131.905000	364.473633	55.397392
9259.565426	5131.905000	363.190430	-83.949532
9259.565426	5131.905000	361.907227	74.853477
9259.565426	5131.905000	360.624023	84.980690
9259.565426	5131.905000	359.340820	81.952805
9259.565426	5131.905000	358.056641	19.206833
9259.565426	5131.905000	356.772461	-168.798065
9259.565426	5131.905000	355.487305	-50.578415
9259.565426	5131.905000	354.202148	45.933395
9259.565426	5131.905000	352.916992	-105.453514
9259.565426	5131.905000	351.631836	-202.367844
9259.565426	5131.905000	350.346680	-71.597801
9259.565426	5131.905000	349.060547	-125.264191
9259.565426	5131.905000	347.774414	-14.760071
9259.565426	5131.905000	346.487305	40.169075
9259.565426	5131.905000	345.200195	-74.446823
9259.565426	5131.905000	343.913086	4.522163
9259.565426	5131.905000	342.625977	8.935092
9259.565426	5131.905000	341.338867	-73.838600
9259.565426	5131.905000	340.050781	89.492256
9259.565426	5131.905000	338.762695	-17.903206
9259.565426	5131.905000	337.473633	-69.086319
9259.565426	5131.905000	336.184570	30.758766
9259.565426	5131.905000	334.895508	53.907684
9259.565426	5131.905000	333.606445	-10.146544
9259.565426	5131.905000	332.317383	-47.615414
9259.565426	5131.905000	331.027344	-39.604404
9259.565426	5131.905000	329.736328	-68.286804
9259.565426	5131.905000	328.446289	-95.725304
9259.565426	5131.905000	327.155273	10.606979
9259.565426	5131.905000	325.864258	-35.555733
9259.565426	5131.905000	324.573242	98.258926
9259.565426	5131.905000	323.281250	-15.091732
9259.565426	5131.905000	321.989258	11.479732
9259.565426	5131.905000	320.697266	-51.305756
9259.565426	5131.905000	319.405273	67.735161
9259.565426	5131.905000	318.112305	-207.380295
9259.565426	5131.905000	316.819336	69.069221
9259.565426	5131.905000	315.526367	-115.780380
9259.565426	5131.905000	314.232422	107.759789
9259.565426	5131.905000	312.938477	-66.845848
9259.565426	5131.905000	311.644531	-57.886768
9259.565426	5131.905000	310.349609	40.008984
9259.565426	5131.905000	309.054688	25.348867
9259.565426	5131.905000	307.759766	223.337845
9259.565426	5131.905000	306.464844	-24.765976
9259.565426	5131.905000	305.168945	31.949955
9259.565426	5131.905000	303.873047	116.558174
9259.565426	5131.905000	302.577148	-9.935926
9259.565426	5131.905000	301.281250	260.275177
9259.565426	5131.905000	299.984375	254.337494
