#X		#Y		#Wave		#Intensity
9300.537234	4798.931667	1999.946289	-39.660889
9300.537234	4798.931667	1998.981445	146.099716
9300.537234	4798.931667	1998.017578	-35.158829
9300.537234	4798.931667	1997.052734	-248.554108
9300.537234	4798.931667	1996.088867	18.809822
9300.537234	4798.931667	1995.124023	13.595715
9300.537234	4798.931667	1994.159180	-63.429115
9300.537234	4798.931667	1993.193359	-9.170532
9300.537234	4798.931667	1992.228516	37.656933
9300.537234	4798.931667	1991.262695	82.002281
9300.537234	4798.931667	1990.296875	12.500912
9300.537234	4798.931667	1989.331055	-19.844210
9300.537234	4798.931667	1988.365234	78.957169
9300.537234	4798.931667	1987.398438	271.727783
9300.537234	4798.931667	1986.432617	130.579056
9300.537234	4798.931667	1985.465820	38.947483
9300.537234	4798.931667	1984.499023	6.695902
9300.537234	4798.931667	1983.532227	-112.039940
9300.537234	4798.931667	1982.565430	-18.190697
9300.537234	4798.931667	1981.597656	-60.257778
9300.537234	4798.931667	1980.629883	223.786621
9300.537234	4798.931667	1979.662109	80.455208
9300.537234	4798.931667	1978.694336	85.355385
9300.537234	4798.931667	1977.726563	26.075039
9300.537234	4798.931667	1976.758789	-47.979595
9300.537234	4798.931667	1975.790039	221.059296
9300.537234	4798.931667	1974.821289	8.838550
9300.537234	4798.931667	1973.852539	18.750719
9300.537234	4798.931667	1972.883789	255.603394
9300.537234	4798.931667	1971.915039	92.861404
9300.537234	4798.931667	1970.945313	-138.849594
9300.537234	4798.931667	1969.975586	-123.932632
9300.537234	4798.931667	1969.005859	107.895432
9300.537234	4798.931667	1968.036133	-2.892781
9300.537234	4798.931667	1967.066406	-86.523888
9300.537234	4798.931667	1966.096680	-14.912964
9300.537234	4798.931667	1965.125977	-19.668638
9300.537234	4798.931667	1964.155273	-147.535889
9300.537234	4798.931667	1963.184570	118.589722
9300.537234	4798.931667	1962.213867	-95.383667
9300.537234	4798.931667	1961.242188	-124.679878
9300.537234	4798.931667	1960.271484	141.334076
9300.537234	4798.931667	1959.299805	-45.423153
9300.537234	4798.931667	1958.328125	-3.337270
9300.537234	4798.931667	1957.356445	193.683441
9300.537234	4798.931667	1956.384766	139.840042
9300.537234	4798.931667	1955.412109	-29.516962
9300.537234	4798.931667	1954.439453	113.361389
9300.537234	4798.931667	1953.467773	-53.442020
9300.537234	4798.931667	1952.495117	-97.320824
9300.537234	4798.931667	1951.521484	-101.866882
9300.537234	4798.931667	1950.548828	36.058289
9300.537234	4798.931667	1949.575195	-66.712326
9300.537234	4798.931667	1948.601563	-12.298017
9300.537234	4798.931667	1947.627930	-56.081730
9300.537234	4798.931667	1946.654297	91.597542
9300.537234	4798.931667	1945.680664	197.518951
9300.537234	4798.931667	1944.706055	244.530182
9300.537234	4798.931667	1943.732422	156.627884
9300.537234	4798.931667	1942.757813	78.576866
9300.537234	4798.931667	1941.783203	69.223503
9300.537234	4798.931667	1940.807617	145.687958
9300.537234	4798.931667	1939.833008	-47.483406
9300.537234	4798.931667	1938.857422	9.391273
9300.537234	4798.931667	1937.881836	-80.753792
9300.537234	4798.931667	1936.906250	120.661324
9300.537234	4798.931667	1935.930664	108.927452
9300.537234	4798.931667	1934.955078	84.963371
9300.537234	4798.931667	1933.978516	14.498675
9300.537234	4798.931667	1933.001953	414.067108
9300.537234	4798.931667	1932.025391	304.428223
9300.537234	4798.931667	1931.048828	339.212738
9300.537234	4798.931667	1930.072266	227.201660
9300.537234	4798.931667	1929.094727	352.510406
9300.537234	4798.931667	1928.118164	203.873413
9300.537234	4798.931667	1927.140625	192.228714
9300.537234	4798.931667	1926.163086	278.385315
9300.537234	4798.931667	1925.184570	247.192993
9300.537234	4798.931667	1924.207031	321.105865
9300.537234	4798.931667	1923.228516	123.786575
9300.537234	4798.931667	1922.250000	244.124191
9300.537234	4798.931667	1921.271484	242.304031
9300.537234	4798.931667	1920.292969	445.616882
9300.537234	4798.931667	1919.314453	224.038086
9300.537234	4798.931667	1918.334961	207.596191
9300.537234	4798.931667	1917.355469	8.122561
9300.537234	4798.931667	1916.375977	18.582767
9300.537234	4798.931667	1915.396484	19.286144
9300.537234	4798.931667	1914.416992	151.715836
9300.537234	4798.931667	1913.436523	67.047867
9300.537234	4798.931667	1912.457031	99.458755
9300.537234	4798.931667	1911.476563	36.784180
9300.537234	4798.931667	1910.496094	100.884727
9300.537234	4798.931667	1909.515625	52.865604
9300.537234	4798.931667	1908.534180	-21.934072
9300.537234	4798.931667	1907.552734	29.974188
9300.537234	4798.931667	1906.572266	154.936279
9300.537234	4798.931667	1905.590820	67.995934
9300.537234	4798.931667	1904.608398	39.523979
9300.537234	4798.931667	1903.626953	30.540575
9300.537234	4798.931667	1902.644531	-136.633179
9300.537234	4798.931667	1901.663086	-2.007436
9300.537234	4798.931667	1900.680664	-181.271820
9300.537234	4798.931667	1899.698242	-32.090240
9300.537234	4798.931667	1898.714844	5.165496
9300.537234	4798.931667	1897.732422	-35.397610
9300.537234	4798.931667	1896.749023	113.676346
9300.537234	4798.931667	1895.765625	31.788845
9300.537234	4798.931667	1894.782227	282.863434
9300.537234	4798.931667	1893.798828	-156.188080
9300.537234	4798.931667	1892.814453	31.665810
9300.537234	4798.931667	1891.831055	-135.150528
9300.537234	4798.931667	1890.846680	-105.212463
9300.537234	4798.931667	1889.862305	-155.405609
9300.537234	4798.931667	1888.877930	49.298046
9300.537234	4798.931667	1887.892578	-165.942062
9300.537234	4798.931667	1886.908203	172.141174
9300.537234	4798.931667	1885.922852	49.145248
9300.537234	4798.931667	1884.937500	-279.983429
9300.537234	4798.931667	1883.952148	-63.333088
9300.537234	4798.931667	1882.965820	104.737160
9300.537234	4798.931667	1881.980469	-95.740929
9300.537234	4798.931667	1880.994141	55.299862
9300.537234	4798.931667	1880.007813	-40.899166
9300.537234	4798.931667	1879.021484	131.872604
9300.537234	4798.931667	1878.035156	-192.021851
9300.537234	4798.931667	1877.047852	-130.707336
9300.537234	4798.931667	1876.061523	-98.478203
9300.537234	4798.931667	1875.074219	40.258087
9300.537234	4798.931667	1874.086914	-14.711235
9300.537234	4798.931667	1873.098633	70.701920
9300.537234	4798.931667	1872.111328	-95.571213
9300.537234	4798.931667	1871.123047	-150.505493
9300.537234	4798.931667	1870.135742	-328.781982
9300.537234	4798.931667	1869.147461	34.706497
9300.537234	4798.931667	1868.158203	93.396095
9300.537234	4798.931667	1867.169922	-89.686180
9300.537234	4798.931667	1866.180664	55.999386
9300.537234	4798.931667	1865.192383	13.134119
9300.537234	4798.931667	1864.203125	25.843653
9300.537234	4798.931667	1863.213867	-157.125748
9300.537234	4798.931667	1862.223633	225.110794
9300.537234	4798.931667	1861.234375	104.935860
9300.537234	4798.931667	1860.244141	8.935929
9300.537234	4798.931667	1859.253906	-77.382927
9300.537234	4798.931667	1858.263672	-79.213409
9300.537234	4798.931667	1857.273438	58.893368
9300.537234	4798.931667	1856.282227	30.476543
9300.537234	4798.931667	1855.291992	-46.180824
9300.537234	4798.931667	1854.300781	45.985199
9300.537234	4798.931667	1853.309570	181.503189
9300.537234	4798.931667	1852.317383	177.138824
9300.537234	4798.931667	1851.326172	139.021896
9300.537234	4798.931667	1850.333984	76.807106
9300.537234	4798.931667	1849.342773	-101.042686
9300.537234	4798.931667	1848.350586	84.890831
9300.537234	4798.931667	1847.357422	-61.617306
9300.537234	4798.931667	1846.365234	23.077496
9300.537234	4798.931667	1845.372070	-94.504974
9300.537234	4798.931667	1844.379883	163.437164
9300.537234	4798.931667	1843.386719	36.215652
9300.537234	4798.931667	1842.393555	46.172676
9300.537234	4798.931667	1841.399414	188.419464
9300.537234	4798.931667	1840.406250	41.972874
9300.537234	4798.931667	1839.412109	54.276348
9300.537234	4798.931667	1838.417969	-10.380578
9300.537234	4798.931667	1837.423828	170.160980
9300.537234	4798.931667	1836.429688	314.565735
9300.537234	4798.931667	1835.434570	84.037651
9300.537234	4798.931667	1834.440430	341.283203
9300.537234	4798.931667	1833.445313	173.251495
9300.537234	4798.931667	1832.450195	267.035919
9300.537234	4798.931667	1831.454102	-129.065948
9300.537234	4798.931667	1830.458984	156.754120
9300.537234	4798.931667	1829.462891	87.210739
9300.537234	4798.931667	1828.466797	-11.123177
9300.537234	4798.931667	1827.470703	322.435699
9300.537234	4798.931667	1826.474609	216.854843
9300.537234	4798.931667	1825.478516	197.635956
9300.537234	4798.931667	1824.481445	-1.446926
9300.537234	4798.931667	1823.484375	82.429230
9300.537234	4798.931667	1822.487305	87.147942
9300.537234	4798.931667	1821.490234	72.669891
9300.537234	4798.931667	1820.493164	166.001633
9300.537234	4798.931667	1819.495117	113.133949
9300.537234	4798.931667	1818.498047	0.384328
9300.537234	4798.931667	1817.500000	91.209129
9300.537234	4798.931667	1816.500977	114.932259
9300.537234	4798.931667	1815.502930	-81.614975
9300.537234	4798.931667	1814.504883	150.314026
9300.537234	4798.931667	1813.505859	-77.325279
9300.537234	4798.931667	1812.506836	70.724014
9300.537234	4798.931667	1811.507813	63.207764
9300.537234	4798.931667	1810.508789	156.115967
9300.537234	4798.931667	1809.508789	103.099335
9300.537234	4798.931667	1808.508789	-143.572433
9300.537234	4798.931667	1807.508789	-170.271652
9300.537234	4798.931667	1806.508789	163.876480
9300.537234	4798.931667	1805.508789	94.067047
9300.537234	4798.931667	1804.508789	57.702194
9300.537234	4798.931667	1803.507813	35.651253
9300.537234	4798.931667	1802.506836	78.059074
9300.537234	4798.931667	1801.505859	-27.606770
9300.537234	4798.931667	1800.504883	179.451370
9300.537234	4798.931667	1799.502930	226.494354
9300.537234	4798.931667	1798.501953	130.321167
9300.537234	4798.931667	1797.500000	115.269119
9300.537234	4798.931667	1796.498047	109.734200
9300.537234	4798.931667	1795.496094	-36.532784
9300.537234	4798.931667	1794.493164	7.975975
9300.537234	4798.931667	1793.491211	81.048019
9300.537234	4798.931667	1792.488281	84.939369
9300.537234	4798.931667	1791.485352	157.907486
9300.537234	4798.931667	1790.482422	140.279388
9300.537234	4798.931667	1789.478516	186.942627
9300.537234	4798.931667	1788.475586	197.836411
9300.537234	4798.931667	1787.471680	142.017288
9300.537234	4798.931667	1786.467773	88.569069
9300.537234	4798.931667	1785.463867	30.349998
9300.537234	4798.931667	1784.459961	38.759369
9300.537234	4798.931667	1783.455078	242.246140
9300.537234	4798.931667	1782.450195	160.144241
9300.537234	4798.931667	1781.445313	13.822695
9300.537234	4798.931667	1780.440430	124.358536
9300.537234	4798.931667	1779.435547	94.540710
9300.537234	4798.931667	1778.429688	131.259476
9300.537234	4798.931667	1777.424805	-83.997467
9300.537234	4798.931667	1776.418945	266.347351
9300.537234	4798.931667	1775.413086	117.602684
9300.537234	4798.931667	1774.406250	25.887213
9300.537234	4798.931667	1773.400391	159.796326
9300.537234	4798.931667	1772.393555	75.167015
9300.537234	4798.931667	1771.386719	-113.920311
9300.537234	4798.931667	1770.379883	93.419029
9300.537234	4798.931667	1769.373047	49.096107
9300.537234	4798.931667	1768.365234	-56.936577
9300.537234	4798.931667	1767.358398	-108.396736
9300.537234	4798.931667	1766.350586	172.174393
9300.537234	4798.931667	1765.342773	68.451141
9300.537234	4798.931667	1764.334961	-63.714966
9300.537234	4798.931667	1763.326172	171.546417
9300.537234	4798.931667	1762.318359	335.590179
9300.537234	4798.931667	1761.309570	172.540771
9300.537234	4798.931667	1760.300781	-30.754389
9300.537234	4798.931667	1759.291016	-94.260040
9300.537234	4798.931667	1758.282227	57.731491
9300.537234	4798.931667	1757.272461	-128.955322
9300.537234	4798.931667	1756.262695	-5.493477
9300.537234	4798.931667	1755.252930	226.762527
9300.537234	4798.931667	1754.243164	127.604698
9300.537234	4798.931667	1753.233398	-33.061691
9300.537234	4798.931667	1752.222656	-151.127319
9300.537234	4798.931667	1751.211914	-169.849945
9300.537234	4798.931667	1750.201172	102.242104
9300.537234	4798.931667	1749.190430	220.529739
9300.537234	4798.931667	1748.179688	-204.904022
9300.537234	4798.931667	1747.167969	-129.212646
9300.537234	4798.931667	1746.156250	76.368706
9300.537234	4798.931667	1745.144531	232.230713
9300.537234	4798.931667	1744.132813	0.653683
9300.537234	4798.931667	1743.121094	-122.244141
9300.537234	4798.931667	1742.108398	-51.532398
9300.537234	4798.931667	1741.095703	189.074432
9300.537234	4798.931667	1740.083008	162.870392
9300.537234	4798.931667	1739.070313	91.809647
9300.537234	4798.931667	1738.057617	-45.312798
9300.537234	4798.931667	1737.043945	58.167679
9300.537234	4798.931667	1736.030273	-232.253250
9300.537234	4798.931667	1735.016602	187.103195
9300.537234	4798.931667	1734.002930	-91.510887
9300.537234	4798.931667	1732.989258	-21.229198
9300.537234	4798.931667	1731.974609	34.850063
9300.537234	4798.931667	1730.959961	31.975664
9300.537234	4798.931667	1729.945313	76.179955
9300.537234	4798.931667	1728.930664	28.486506
9300.537234	4798.931667	1727.916016	-35.704163
9300.537234	4798.931667	1726.900391	182.597519
9300.537234	4798.931667	1725.885742	106.570038
9300.537234	4798.931667	1724.870117	159.965805
9300.537234	4798.931667	1723.853516	102.720451
9300.537234	4798.931667	1722.837891	-203.884842
9300.537234	4798.931667	1721.822266	-25.901545
9300.537234	4798.931667	1720.805664	67.323845
9300.537234	4798.931667	1719.789063	-126.347237
9300.537234	4798.931667	1718.772461	11.460384
9300.537234	4798.931667	1717.754883	38.722408
9300.537234	4798.931667	1716.738281	-39.788403
9300.537234	4798.931667	1715.720703	-64.272224
9300.537234	4798.931667	1714.703125	-32.405537
9300.537234	4798.931667	1713.685547	25.250330
9300.537234	4798.931667	1712.667969	17.112576
9300.537234	4798.931667	1711.649414	-61.479950
9300.537234	4798.931667	1710.630859	-81.397942
9300.537234	4798.931667	1709.612305	-12.167560
9300.537234	4798.931667	1708.593750	-48.568840
9300.537234	4798.931667	1707.575195	116.742188
9300.537234	4798.931667	1706.555664	-112.039276
9300.537234	4798.931667	1705.536133	-66.425385
9300.537234	4798.931667	1704.516602	-65.398323
9300.537234	4798.931667	1703.497070	94.981621
9300.537234	4798.931667	1702.477539	227.152191
9300.537234	4798.931667	1701.457031	-34.379021
9300.537234	4798.931667	1700.437500	-197.446762
9300.537234	4798.931667	1699.416992	180.532257
9300.537234	4798.931667	1698.395508	-106.683968
9300.537234	4798.931667	1697.375000	65.056305
9300.537234	4798.931667	1696.354492	-41.840927
9300.537234	4798.931667	1695.333008	-120.644531
9300.537234	4798.931667	1694.311523	-147.968903
9300.537234	4798.931667	1693.290039	42.252666
9300.537234	4798.931667	1692.267578	-109.111061
9300.537234	4798.931667	1691.246094	57.594849
9300.537234	4798.931667	1690.223633	107.304893
9300.537234	4798.931667	1689.201172	-39.383266
9300.537234	4798.931667	1688.178711	-48.149014
9300.537234	4798.931667	1687.155273	129.991577
9300.537234	4798.931667	1686.132813	251.975906
9300.537234	4798.931667	1685.109375	210.381821
9300.537234	4798.931667	1684.085938	7.643046
9300.537234	4798.931667	1683.062500	101.488434
9300.537234	4798.931667	1682.039063	258.304047
9300.537234	4798.931667	1681.014648	218.978058
9300.537234	4798.931667	1679.990234	158.644424
9300.537234	4798.931667	1678.965820	235.963669
9300.537234	4798.931667	1677.941406	145.282822
9300.537234	4798.931667	1676.916992	364.795624
9300.537234	4798.931667	1675.891602	283.404724
9300.537234	4798.931667	1674.866211	248.651535
9300.537234	4798.931667	1673.840820	155.620361
9300.537234	4798.931667	1672.815430	288.653381
9300.537234	4798.931667	1671.790039	211.921875
9300.537234	4798.931667	1670.763672	72.300171
9300.537234	4798.931667	1669.737305	428.795532
9300.537234	4798.931667	1668.710938	382.293091
9300.537234	4798.931667	1667.684570	522.040344
9300.537234	4798.931667	1666.658203	356.791504
9300.537234	4798.931667	1665.630859	275.364319
9300.537234	4798.931667	1664.603516	359.152802
9300.537234	4798.931667	1663.576172	475.461060
9300.537234	4798.931667	1662.548828	419.594177
9300.537234	4798.931667	1661.520508	454.419617
9300.537234	4798.931667	1660.493164	547.348267
9300.537234	4798.931667	1659.464844	642.544189
9300.537234	4798.931667	1658.436523	565.707275
9300.537234	4798.931667	1657.408203	500.504883
9300.537234	4798.931667	1656.378906	834.895203
9300.537234	4798.931667	1655.350586	878.808899
9300.537234	4798.931667	1654.321289	699.746765
9300.537234	4798.931667	1653.291992	843.478149
9300.537234	4798.931667	1652.261719	780.532471
9300.537234	4798.931667	1651.232422	1137.695801
9300.537234	4798.931667	1650.202148	1297.463135
9300.537234	4798.931667	1649.171875	1014.030640
9300.537234	4798.931667	1648.141602	1050.802002
9300.537234	4798.931667	1647.111328	1198.867432
9300.537234	4798.931667	1646.080078	1182.234985
9300.537234	4798.931667	1645.049805	1341.791382
9300.537234	4798.931667	1644.018555	1380.747437
9300.537234	4798.931667	1642.987305	1514.691895
9300.537234	4798.931667	1641.955078	1444.685425
9300.537234	4798.931667	1640.923828	1444.197754
9300.537234	4798.931667	1639.891602	1399.693481
9300.537234	4798.931667	1638.859375	1739.581909
9300.537234	4798.931667	1637.827148	1590.849487
9300.537234	4798.931667	1636.794922	1601.877808
9300.537234	4798.931667	1635.761719	1555.037964
9300.537234	4798.931667	1634.729492	1357.825317
9300.537234	4798.931667	1633.696289	1401.260986
9300.537234	4798.931667	1632.662109	1414.605469
9300.537234	4798.931667	1631.628906	1222.144897
9300.537234	4798.931667	1630.594727	1272.504150
9300.537234	4798.931667	1629.561523	1117.125610
9300.537234	4798.931667	1628.527344	1206.773071
9300.537234	4798.931667	1627.493164	1032.974487
9300.537234	4798.931667	1626.458008	1180.351196
9300.537234	4798.931667	1625.423828	1184.472656
9300.537234	4798.931667	1624.388672	1456.463745
9300.537234	4798.931667	1623.353516	996.456177
9300.537234	4798.931667	1622.318359	1046.778442
9300.537234	4798.931667	1621.282227	1221.704224
9300.537234	4798.931667	1620.247070	1188.900757
9300.537234	4798.931667	1619.210938	925.402893
9300.537234	4798.931667	1618.174805	1171.764282
9300.537234	4798.931667	1617.137695	1127.457886
9300.537234	4798.931667	1616.101563	1392.138916
9300.537234	4798.931667	1615.064453	1529.930420
9300.537234	4798.931667	1614.027344	1432.585083
9300.537234	4798.931667	1612.990234	1349.111328
9300.537234	4798.931667	1611.953125	1620.474487
9300.537234	4798.931667	1610.916016	1481.729614
9300.537234	4798.931667	1609.877930	1506.550903
9300.537234	4798.931667	1608.839844	1588.935303
9300.537234	4798.931667	1607.801758	1500.941772
9300.537234	4798.931667	1606.763672	1429.104004
9300.537234	4798.931667	1605.724609	1580.512329
9300.537234	4798.931667	1604.685547	1563.919189
9300.537234	4798.931667	1603.646484	1505.938599
9300.537234	4798.931667	1602.607422	1588.281860
9300.537234	4798.931667	1601.568359	1622.318604
9300.537234	4798.931667	1600.528320	1504.617676
9300.537234	4798.931667	1599.489258	1697.277344
9300.537234	4798.931667	1598.449219	1611.807861
9300.537234	4798.931667	1597.408203	1705.592529
9300.537234	4798.931667	1596.368164	1739.635742
9300.537234	4798.931667	1595.327148	1583.047607
9300.537234	4798.931667	1594.287109	1711.277466
9300.537234	4798.931667	1593.246094	1660.394531
9300.537234	4798.931667	1592.204102	1510.844604
9300.537234	4798.931667	1591.163086	1758.393555
9300.537234	4798.931667	1590.121094	1542.376221
9300.537234	4798.931667	1589.079102	1776.087891
9300.537234	4798.931667	1588.037109	1665.692993
9300.537234	4798.931667	1586.995117	1335.223511
9300.537234	4798.931667	1585.953125	1603.287231
9300.537234	4798.931667	1584.910156	1534.304932
9300.537234	4798.931667	1583.867188	1598.292358
9300.537234	4798.931667	1582.824219	1428.562622
9300.537234	4798.931667	1581.781250	1753.749023
9300.537234	4798.931667	1580.737305	1499.348389
9300.537234	4798.931667	1579.693359	1980.150146
9300.537234	4798.931667	1578.649414	1689.219238
9300.537234	4798.931667	1577.605469	1668.536499
9300.537234	4798.931667	1576.561523	1945.409180
9300.537234	4798.931667	1575.516602	1945.320679
9300.537234	4798.931667	1574.472656	1778.260742
9300.537234	4798.931667	1573.427734	1956.666260
9300.537234	4798.931667	1572.381836	1746.260620
9300.537234	4798.931667	1571.336914	1741.746338
9300.537234	4798.931667	1570.291016	1760.113281
9300.537234	4798.931667	1569.246094	1744.226074
9300.537234	4798.931667	1568.200195	1780.922241
9300.537234	4798.931667	1567.153320	1561.755127
9300.537234	4798.931667	1566.107422	1550.563599
9300.537234	4798.931667	1565.060547	1459.474854
9300.537234	4798.931667	1564.013672	1245.156372
9300.537234	4798.931667	1562.966797	1377.936768
9300.537234	4798.931667	1561.919922	1389.734619
9300.537234	4798.931667	1560.872070	1524.775757
9300.537234	4798.931667	1559.825195	1550.291504
9300.537234	4798.931667	1558.777344	1596.356201
9300.537234	4798.931667	1557.729492	1316.315186
9300.537234	4798.931667	1556.680664	1437.712891
9300.537234	4798.931667	1555.632813	1260.465820
9300.537234	4798.931667	1554.583984	1304.404663
9300.537234	4798.931667	1553.535156	1384.819702
9300.537234	4798.931667	1552.486328	1178.172485
9300.537234	4798.931667	1551.436523	1370.265381
9300.537234	4798.931667	1550.387695	1127.334717
9300.537234	4798.931667	1549.337891	1096.293579
9300.537234	4798.931667	1548.288086	1174.574707
9300.537234	4798.931667	1547.238281	1316.592773
9300.537234	4798.931667	1546.187500	1228.751831
9300.537234	4798.931667	1545.136719	1168.287354
9300.537234	4798.931667	1544.086914	1142.010742
9300.537234	4798.931667	1543.035156	1270.426880
9300.537234	4798.931667	1541.984375	1071.406860
9300.537234	4798.931667	1540.933594	1186.231812
9300.537234	4798.931667	1539.881836	989.657654
9300.537234	4798.931667	1538.830078	747.753601
9300.537234	4798.931667	1537.778320	1017.195862
9300.537234	4798.931667	1536.725586	929.929932
9300.537234	4798.931667	1535.673828	876.814087
9300.537234	4798.931667	1534.621094	928.211670
9300.537234	4798.931667	1533.568359	586.879089
9300.537234	4798.931667	1532.515625	819.984802
9300.537234	4798.931667	1531.461914	841.992004
9300.537234	4798.931667	1530.409180	677.987122
9300.537234	4798.931667	1529.355469	629.783081
9300.537234	4798.931667	1528.301758	803.907532
9300.537234	4798.931667	1527.247070	719.505737
9300.537234	4798.931667	1526.193359	617.050232
9300.537234	4798.931667	1525.138672	435.345581
9300.537234	4798.931667	1524.083984	251.495499
9300.537234	4798.931667	1523.029297	337.392914
9300.537234	4798.931667	1521.974609	393.855560
9300.537234	4798.931667	1520.918945	316.714355
9300.537234	4798.931667	1519.863281	303.058167
9300.537234	4798.931667	1518.807617	212.481064
9300.537234	4798.931667	1517.751953	312.126953
9300.537234	4798.931667	1516.696289	42.902390
9300.537234	4798.931667	1515.639648	29.509682
9300.537234	4798.931667	1514.583008	77.253174
9300.537234	4798.931667	1513.526367	158.955475
9300.537234	4798.931667	1512.469727	251.984085
9300.537234	4798.931667	1511.412109	207.114685
9300.537234	4798.931667	1510.355469	239.171936
9300.537234	4798.931667	1509.297852	119.850464
9300.537234	4798.931667	1508.240234	124.902565
9300.537234	4798.931667	1507.181641	14.792602
9300.537234	4798.931667	1506.124023	94.506866
9300.537234	4798.931667	1505.065430	232.952347
9300.537234	4798.931667	1504.006836	276.575439
9300.537234	4798.931667	1502.948242	8.733814
9300.537234	4798.931667	1501.888672	-1.671363
9300.537234	4798.931667	1500.830078	-120.319389
9300.537234	4798.931667	1499.770508	-67.416069
9300.537234	4798.931667	1498.710938	-154.317047
9300.537234	4798.931667	1497.650391	-162.202057
9300.537234	4798.931667	1496.590820	77.977676
9300.537234	4798.931667	1495.530273	-94.386551
9300.537234	4798.931667	1494.469727	-48.017799
9300.537234	4798.931667	1493.409180	-44.420723
9300.537234	4798.931667	1492.348633	26.817032
9300.537234	4798.931667	1491.287109	143.129333
9300.537234	4798.931667	1490.225586	-15.274542
9300.537234	4798.931667	1489.164063	65.095886
9300.537234	4798.931667	1488.102539	-77.354866
9300.537234	4798.931667	1487.041016	111.141960
9300.537234	4798.931667	1485.978516	-80.644539
9300.537234	4798.931667	1484.916016	-256.537628
9300.537234	4798.931667	1483.853516	-40.956978
9300.537234	4798.931667	1482.791016	134.124908
9300.537234	4798.931667	1481.727539	-10.050981
9300.537234	4798.931667	1480.664063	185.294403
9300.537234	4798.931667	1479.600586	-80.050667
9300.537234	4798.931667	1478.537109	171.493088
9300.537234	4798.931667	1477.473633	198.407272
9300.537234	4798.931667	1476.409180	-50.922325
9300.537234	4798.931667	1475.344727	236.603333
9300.537234	4798.931667	1474.280273	-133.567352
9300.537234	4798.931667	1473.215820	84.353851
9300.537234	4798.931667	1472.151367	109.319244
9300.537234	4798.931667	1471.085938	120.886734
9300.537234	4798.931667	1470.020508	383.567169
9300.537234	4798.931667	1468.955078	-48.464512
9300.537234	4798.931667	1467.888672	335.066559
9300.537234	4798.931667	1466.823242	156.771194
9300.537234	4798.931667	1465.756836	643.081909
9300.537234	4798.931667	1464.690430	533.684998
9300.537234	4798.931667	1463.624023	382.471222
9300.537234	4798.931667	1462.556641	524.340637
9300.537234	4798.931667	1461.490234	254.640854
9300.537234	4798.931667	1460.422852	559.507019
9300.537234	4798.931667	1459.355469	447.114410
9300.537234	4798.931667	1458.287109	548.379944
9300.537234	4798.931667	1457.219727	495.061798
9300.537234	4798.931667	1456.151367	333.429413
9300.537234	4798.931667	1455.083008	375.223175
9300.537234	4798.931667	1454.014648	447.242035
9300.537234	4798.931667	1452.945313	554.228333
9300.537234	4798.931667	1451.876953	403.705292
9300.537234	4798.931667	1450.807617	306.806183
9300.537234	4798.931667	1449.738281	352.556244
9300.537234	4798.931667	1448.668945	346.455505
9300.537234	4798.931667	1447.598633	320.127533
9300.537234	4798.931667	1446.528320	220.171570
9300.537234	4798.931667	1445.458008	322.171631
9300.537234	4798.931667	1444.387695	482.686279
9300.537234	4798.931667	1443.317383	335.580780
9300.537234	4798.931667	1442.246094	314.599091
9300.537234	4798.931667	1441.174805	424.608704
9300.537234	4798.931667	1440.103516	229.298035
9300.537234	4798.931667	1439.032227	512.939514
9300.537234	4798.931667	1437.960938	286.398438
9300.537234	4798.931667	1436.888672	307.679749
9300.537234	4798.931667	1435.816406	357.385895
9300.537234	4798.931667	1434.744141	452.403564
9300.537234	4798.931667	1433.670898	229.843430
9300.537234	4798.931667	1432.598633	71.481178
9300.537234	4798.931667	1431.525391	220.042068
9300.537234	4798.931667	1430.452148	213.187851
9300.537234	4798.931667	1429.378906	-128.504440
9300.537234	4798.931667	1428.304688	103.813446
9300.537234	4798.931667	1427.231445	101.290588
9300.537234	4798.931667	1426.157227	5.525894
9300.537234	4798.931667	1425.083008	181.437576
9300.537234	4798.931667	1424.007813	127.651443
9300.537234	4798.931667	1422.933594	142.036743
9300.537234	4798.931667	1421.858398	188.533707
9300.537234	4798.931667	1420.783203	0.530952
9300.537234	4798.931667	1419.708008	171.522522
9300.537234	4798.931667	1418.631836	240.372757
9300.537234	4798.931667	1417.555664	185.735718
9300.537234	4798.931667	1416.479492	281.904266
9300.537234	4798.931667	1415.403320	226.556946
9300.537234	4798.931667	1414.327148	-182.834702
9300.537234	4798.931667	1413.250000	-5.489051
9300.537234	4798.931667	1412.173828	88.373032
9300.537234	4798.931667	1411.096680	145.146027
9300.537234	4798.931667	1410.018555	-11.069470
9300.537234	4798.931667	1408.941406	-58.170456
9300.537234	4798.931667	1407.863281	-109.668365
9300.537234	4798.931667	1406.785156	41.554092
9300.537234	4798.931667	1405.707031	29.318991
9300.537234	4798.931667	1404.628906	182.010910
9300.537234	4798.931667	1403.549805	-90.092957
9300.537234	4798.931667	1402.470703	-75.792542
9300.537234	4798.931667	1401.391602	153.177551
9300.537234	4798.931667	1400.312500	-63.731716
9300.537234	4798.931667	1399.233398	73.167923
9300.537234	4798.931667	1398.153320	-17.275757
9300.537234	4798.931667	1397.073242	115.302994
9300.537234	4798.931667	1395.993164	94.607063
9300.537234	4798.931667	1394.913086	116.844223
9300.537234	4798.931667	1393.832031	152.747223
9300.537234	4798.931667	1392.750977	57.100517
9300.537234	4798.931667	1391.669922	4.783719
9300.537234	4798.931667	1390.588867	62.344429
9300.537234	4798.931667	1389.506836	438.841797
9300.537234	4798.931667	1388.425781	361.820831
9300.537234	4798.931667	1387.343750	381.736084
9300.537234	4798.931667	1386.261719	395.432159
9300.537234	4798.931667	1385.178711	489.550446
9300.537234	4798.931667	1384.096680	506.528107
9300.537234	4798.931667	1383.013672	708.556396
9300.537234	4798.931667	1381.930664	402.020691
9300.537234	4798.931667	1380.846680	411.713959
9300.537234	4798.931667	1379.763672	402.716431
9300.537234	4798.931667	1378.679688	340.923950
9300.537234	4798.931667	1377.595703	311.813416
9300.537234	4798.931667	1376.511719	220.785919
9300.537234	4798.931667	1375.427734	400.886993
9300.537234	4798.931667	1374.342773	335.269257
9300.537234	4798.931667	1373.257813	123.969025
9300.537234	4798.931667	1372.172852	93.580643
9300.537234	4798.931667	1371.087891	134.667267
9300.537234	4798.931667	1370.001953	433.951996
9300.537234	4798.931667	1368.916992	375.403656
9300.537234	4798.931667	1367.831055	355.083099
9300.537234	4798.931667	1366.744141	197.662964
9300.537234	4798.931667	1365.658203	290.421295
9300.537234	4798.931667	1364.571289	289.848969
9300.537234	4798.931667	1363.484375	169.341110
9300.537234	4798.931667	1362.397461	257.185455
9300.537234	4798.931667	1361.310547	409.134552
9300.537234	4798.931667	1360.222656	361.992950
9300.537234	4798.931667	1359.135742	341.801788
9300.537234	4798.931667	1358.047852	580.484131
9300.537234	4798.931667	1356.958984	416.427338
9300.537234	4798.931667	1355.871094	560.962341
9300.537234	4798.931667	1354.782227	666.480225
9300.537234	4798.931667	1353.693359	541.343384
9300.537234	4798.931667	1352.604492	673.036865
9300.537234	4798.931667	1351.515625	519.994751
9300.537234	4798.931667	1350.425781	693.340393
9300.537234	4798.931667	1349.335938	430.245575
9300.537234	4798.931667	1348.246094	399.133759
9300.537234	4798.931667	1347.156250	387.825775
9300.537234	4798.931667	1346.066406	558.809448
9300.537234	4798.931667	1344.975586	111.843124
9300.537234	4798.931667	1343.884766	228.787796
9300.537234	4798.931667	1342.793945	235.912582
9300.537234	4798.931667	1341.702148	410.878204
9300.537234	4798.931667	1340.611328	539.877563
9300.537234	4798.931667	1339.519531	210.832123
9300.537234	4798.931667	1338.427734	410.527588
9300.537234	4798.931667	1337.334961	276.521301
9300.537234	4798.931667	1336.243164	320.047821
9300.537234	4798.931667	1335.150391	383.267242
9300.537234	4798.931667	1334.057617	340.715027
9300.537234	4798.931667	1332.964844	516.095825
9300.537234	4798.931667	1331.871094	525.762024
9300.537234	4798.931667	1330.778320	433.435150
9300.537234	4798.931667	1329.684570	542.464172
9300.537234	4798.931667	1328.590820	612.364685
9300.537234	4798.931667	1327.496094	483.021698
9300.537234	4798.931667	1326.402344	386.851532
9300.537234	4798.931667	1325.307617	240.895844
9300.537234	4798.931667	1324.212891	416.457367
9300.537234	4798.931667	1323.117188	321.964935
9300.537234	4798.931667	1322.022461	425.288818
9300.537234	4798.931667	1320.926758	252.689713
9300.537234	4798.931667	1319.831055	112.918365
9300.537234	4798.931667	1318.735352	216.799454
9300.537234	4798.931667	1317.638672	380.821625
9300.537234	4798.931667	1316.542969	384.256134
9300.537234	4798.931667	1315.446289	267.749725
9300.537234	4798.931667	1314.349609	379.688751
9300.537234	4798.931667	1313.251953	239.078491
9300.537234	4798.931667	1312.155273	325.611877
9300.537234	4798.931667	1311.057617	420.426117
9300.537234	4798.931667	1309.959961	241.414215
9300.537234	4798.931667	1308.862305	287.835449
9300.537234	4798.931667	1307.763672	298.717773
9300.537234	4798.931667	1306.665039	139.087875
9300.537234	4798.931667	1305.566406	158.874954
9300.537234	4798.931667	1304.467773	244.466156
9300.537234	4798.931667	1303.369141	1.172499
9300.537234	4798.931667	1302.269531	219.723221
9300.537234	4798.931667	1301.169922	208.988663
9300.537234	4798.931667	1300.070313	136.123550
9300.537234	4798.931667	1298.970703	234.802170
9300.537234	4798.931667	1297.870117	213.213837
9300.537234	4798.931667	1296.769531	175.579330
9300.537234	4798.931667	1295.668945	32.535828
9300.537234	4798.931667	1294.568359	82.605255
9300.537234	4798.931667	1293.466797	49.046337
9300.537234	4798.931667	1292.366211	-75.156067
9300.537234	4798.931667	1291.264648	-93.481010
9300.537234	4798.931667	1290.162109	-52.730717
9300.537234	4798.931667	1289.060547	-25.210520
9300.537234	4798.931667	1287.958008	-16.063396
9300.537234	4798.931667	1286.855469	266.591400
9300.537234	4798.931667	1285.752930	78.372475
9300.537234	4798.931667	1284.650391	266.258759
9300.537234	4798.931667	1283.546875	277.491608
9300.537234	4798.931667	1282.444336	223.984192
9300.537234	4798.931667	1281.339844	386.136475
9300.537234	4798.931667	1280.236328	398.651886
9300.537234	4798.931667	1279.132813	296.810852
9300.537234	4798.931667	1278.028320	319.458313
9300.537234	4798.931667	1276.923828	409.886932
9300.537234	4798.931667	1275.819336	241.223160
9300.537234	4798.931667	1274.713867	180.065857
9300.537234	4798.931667	1273.608398	57.223263
9300.537234	4798.931667	1272.503906	88.066116
9300.537234	4798.931667	1271.397461	93.803352
9300.537234	4798.931667	1270.291992	253.615555
9300.537234	4798.931667	1269.185547	-72.294952
9300.537234	4798.931667	1268.080078	36.155521
9300.537234	4798.931667	1266.972656	-33.406956
9300.537234	4798.931667	1265.866211	-80.464996
9300.537234	4798.931667	1264.759766	-190.591537
9300.537234	4798.931667	1263.652344	-51.387745
9300.537234	4798.931667	1262.544922	50.405670
9300.537234	4798.931667	1261.436523	-30.318316
9300.537234	4798.931667	1260.329102	-40.823799
9300.537234	4798.931667	1259.220703	-221.309662
9300.537234	4798.931667	1258.112305	-138.681641
9300.537234	4798.931667	1257.003906	-164.262558
9300.537234	4798.931667	1255.895508	-229.993378
9300.537234	4798.931667	1254.786133	-340.997681
9300.537234	4798.931667	1253.676758	-264.610931
9300.537234	4798.931667	1252.567383	-268.849274
9300.537234	4798.931667	1251.458008	-109.139053
9300.537234	4798.931667	1250.347656	-228.680954
9300.537234	4798.931667	1249.237305	-150.150314
9300.537234	4798.931667	1248.126953	-154.812317
9300.537234	4798.931667	1247.016602	-231.902832
9300.537234	4798.931667	1245.905273	-151.911606
9300.537234	4798.931667	1244.793945	-67.930984
9300.537234	4798.931667	1243.682617	82.304146
9300.537234	4798.931667	1242.571289	57.877251
9300.537234	4798.931667	1241.459961	0.890358
9300.537234	4798.931667	1240.347656	115.619339
9300.537234	4798.931667	1239.235352	37.393749
9300.537234	4798.931667	1238.123047	81.248230
9300.537234	4798.931667	1237.009766	131.641266
9300.537234	4798.931667	1235.897461	167.224686
9300.537234	4798.931667	1234.784180	183.546829
9300.537234	4798.931667	1233.670898	89.779060
9300.537234	4798.931667	1232.556641	-28.319355
9300.537234	4798.931667	1231.443359	12.940533
9300.537234	4798.931667	1230.329102	-93.048210
9300.537234	4798.931667	1229.214844	-21.151310
9300.537234	4798.931667	1228.099609	25.504753
9300.537234	4798.931667	1226.985352	-45.879322
9300.537234	4798.931667	1225.870117	78.586586
9300.537234	4798.931667	1224.754883	170.129547
9300.537234	4798.931667	1223.639648	206.421921
9300.537234	4798.931667	1222.523438	294.308899
9300.537234	4798.931667	1221.408203	347.448303
9300.537234	4798.931667	1220.291992	422.780945
9300.537234	4798.931667	1219.174805	405.728241
9300.537234	4798.931667	1218.058594	315.730286
9300.537234	4798.931667	1216.941406	437.117493
9300.537234	4798.931667	1215.824219	478.282074
9300.537234	4798.931667	1214.707031	424.427673
9300.537234	4798.931667	1213.589844	409.151489
9300.537234	4798.931667	1212.471680	480.766418
9300.537234	4798.931667	1211.353516	438.126617
9300.537234	4798.931667	1210.235352	383.847870
9300.537234	4798.931667	1209.117188	257.983429
9300.537234	4798.931667	1207.998047	203.977020
9300.537234	4798.931667	1206.878906	282.052948
9300.537234	4798.931667	1205.759766	304.745026
9300.537234	4798.931667	1204.640625	309.424835
9300.537234	4798.931667	1203.520508	251.494095
9300.537234	4798.931667	1202.401367	111.163773
9300.537234	4798.931667	1201.281250	87.364609
9300.537234	4798.931667	1200.160156	-45.714397
9300.537234	4798.931667	1199.040039	225.695435
9300.537234	4798.931667	1197.918945	232.817749
9300.537234	4798.931667	1196.797852	132.737366
9300.537234	4798.931667	1195.676758	6.076946
9300.537234	4798.931667	1194.555664	144.424957
9300.537234	4798.931667	1193.433594	105.130264
9300.537234	4798.931667	1192.311523	-24.369699
9300.537234	4798.931667	1191.189453	42.477421
9300.537234	4798.931667	1190.066406	-48.388737
9300.537234	4798.931667	1188.944336	35.045937
9300.537234	4798.931667	1187.821289	-134.570358
9300.537234	4798.931667	1186.698242	-138.253220
9300.537234	4798.931667	1185.574219	-138.971237
9300.537234	4798.931667	1184.451172	-118.914268
9300.537234	4798.931667	1183.327148	39.025719
9300.537234	4798.931667	1182.203125	-214.972427
9300.537234	4798.931667	1181.078125	-102.267036
9300.537234	4798.931667	1179.954102	-121.259674
9300.537234	4798.931667	1178.829102	-232.311218
9300.537234	4798.931667	1177.704102	-122.621635
9300.537234	4798.931667	1176.579102	-33.571129
9300.537234	4798.931667	1175.453125	39.530712
9300.537234	4798.931667	1174.327148	57.520130
9300.537234	4798.931667	1173.201172	-20.534828
9300.537234	4798.931667	1172.075195	-26.888378
9300.537234	4798.931667	1170.949219	-140.350403
9300.537234	4798.931667	1169.822266	-76.624130
9300.537234	4798.931667	1168.695313	-73.862442
9300.537234	4798.931667	1167.568359	-1.326379
9300.537234	4798.931667	1166.440430	111.770020
9300.537234	4798.931667	1165.313477	25.123497
9300.537234	4798.931667	1164.185547	40.493729
9300.537234	4798.931667	1163.057617	222.814896
9300.537234	4798.931667	1161.928711	65.323082
9300.537234	4798.931667	1160.800781	-60.827740
9300.537234	4798.931667	1159.671875	158.040878
9300.537234	4798.931667	1158.541992	2.503806
9300.537234	4798.931667	1157.413086	183.619476
9300.537234	4798.931667	1156.283203	99.455872
9300.537234	4798.931667	1155.154297	72.373283
9300.537234	4798.931667	1154.023438	57.122028
9300.537234	4798.931667	1152.893555	-94.833824
9300.537234	4798.931667	1151.763672	125.609848
9300.537234	4798.931667	1150.632813	290.515076
9300.537234	4798.931667	1149.501953	117.805641
9300.537234	4798.931667	1148.370117	240.900970
9300.537234	4798.931667	1147.239258	142.418640
9300.537234	4798.931667	1146.107422	173.846054
9300.537234	4798.931667	1144.975586	216.530014
9300.537234	4798.931667	1143.843750	-8.542359
9300.537234	4798.931667	1142.710938	-91.988899
9300.537234	4798.931667	1141.578125	212.680832
9300.537234	4798.931667	1140.445313	45.161983
9300.537234	4798.931667	1139.312500	60.843037
9300.537234	4798.931667	1138.178711	-25.226931
9300.537234	4798.931667	1137.045898	126.654190
9300.537234	4798.931667	1135.912109	82.992889
9300.537234	4798.931667	1134.777344	137.091660
9300.537234	4798.931667	1133.643555	52.591286
9300.537234	4798.931667	1132.508789	-12.788045
9300.537234	4798.931667	1131.374023	223.250076
9300.537234	4798.931667	1130.239258	140.449677
9300.537234	4798.931667	1129.104492	189.127991
9300.537234	4798.931667	1127.968750	179.726440
9300.537234	4798.931667	1126.833008	126.630455
9300.537234	4798.931667	1125.697266	49.776436
9300.537234	4798.931667	1124.560547	-3.721411
9300.537234	4798.931667	1123.424805	26.913033
9300.537234	4798.931667	1122.288086	176.664124
9300.537234	4798.931667	1121.151367	70.958466
9300.537234	4798.931667	1120.013672	54.024414
9300.537234	4798.931667	1118.876953	9.174492
9300.537234	4798.931667	1117.739258	166.118408
9300.537234	4798.931667	1116.601563	120.891319
9300.537234	4798.931667	1115.462891	58.949982
9300.537234	4798.931667	1114.324219	190.510284
9300.537234	4798.931667	1113.186523	215.709137
9300.537234	4798.931667	1112.046875	106.614082
9300.537234	4798.931667	1110.908203	243.589111
9300.537234	4798.931667	1109.769531	117.637817
9300.537234	4798.931667	1108.629883	35.884792
9300.537234	4798.931667	1107.490234	163.748276
9300.537234	4798.931667	1106.349609	325.414307
9300.537234	4798.931667	1105.209961	11.175732
9300.537234	4798.931667	1104.069336	4.339198
9300.537234	4798.931667	1102.928711	-0.398574
9300.537234	4798.931667	1101.787109	43.211834
9300.537234	4798.931667	1100.646484	131.409790
9300.537234	4798.931667	1099.504883	186.200974
9300.537234	4798.931667	1098.363281	339.567383
9300.537234	4798.931667	1097.221680	4.302975
9300.537234	4798.931667	1096.079102	192.766403
9300.537234	4798.931667	1094.936523	275.897766
9300.537234	4798.931667	1093.793945	231.731323
9300.537234	4798.931667	1092.651367	156.685989
9300.537234	4798.931667	1091.507813	208.615448
9300.537234	4798.931667	1090.364258	140.678726
9300.537234	4798.931667	1089.220703	380.414917
9300.537234	4798.931667	1088.077148	210.288895
9300.537234	4798.931667	1086.933594	329.164948
9300.537234	4798.931667	1085.789063	99.240395
9300.537234	4798.931667	1084.644531	-40.247467
9300.537234	4798.931667	1083.499023	60.190582
9300.537234	4798.931667	1082.354492	93.177818
9300.537234	4798.931667	1081.208984	166.938690
9300.537234	4798.931667	1080.063477	-49.226849
9300.537234	4798.931667	1078.917969	123.922501
9300.537234	4798.931667	1077.771484	316.322113
9300.537234	4798.931667	1076.625977	193.317230
9300.537234	4798.931667	1075.479492	-48.676533
9300.537234	4798.931667	1074.332031	65.171837
9300.537234	4798.931667	1073.185547	244.416824
9300.537234	4798.931667	1072.038086	332.175934
9300.537234	4798.931667	1070.890625	108.368599
9300.537234	4798.931667	1069.743164	136.615005
9300.537234	4798.931667	1068.594727	156.226303
9300.537234	4798.931667	1067.447266	145.082474
9300.537234	4798.931667	1066.298828	276.383759
9300.537234	4798.931667	1065.149414	84.652641
9300.537234	4798.931667	1064.000977	211.515411
9300.537234	4798.931667	1062.851563	370.025665
9300.537234	4798.931667	1061.702148	184.865753
9300.537234	4798.931667	1060.552734	229.393234
9300.537234	4798.931667	1059.402344	278.751068
9300.537234	4798.931667	1058.252930	142.276733
9300.537234	4798.931667	1057.102539	88.752113
9300.537234	4798.931667	1055.951172	95.954582
9300.537234	4798.931667	1054.800781	128.076355
9300.537234	4798.931667	1053.649414	-141.260101
9300.537234	4798.931667	1052.498047	-74.266678
9300.537234	4798.931667	1051.346680	160.248184
9300.537234	4798.931667	1050.194336	130.792450
9300.537234	4798.931667	1049.042969	90.146523
9300.537234	4798.931667	1047.890625	160.230453
9300.537234	4798.931667	1046.738281	183.892090
9300.537234	4798.931667	1045.584961	3.790632
9300.537234	4798.931667	1044.431641	21.940977
9300.537234	4798.931667	1043.278320	-94.019981
9300.537234	4798.931667	1042.125000	-27.447548
9300.537234	4798.931667	1040.971680	-33.221416
9300.537234	4798.931667	1039.817383	288.638794
9300.537234	4798.931667	1038.663086	-24.429012
9300.537234	4798.931667	1037.508789	-67.814316
9300.537234	4798.931667	1036.353516	55.392891
9300.537234	4798.931667	1035.198242	158.206757
9300.537234	4798.931667	1034.042969	218.290543
9300.537234	4798.931667	1032.887695	437.134705
9300.537234	4798.931667	1031.732422	307.374176
9300.537234	4798.931667	1030.576172	455.536072
9300.537234	4798.931667	1029.419922	335.762543
9300.537234	4798.931667	1028.263672	536.368286
9300.537234	4798.931667	1027.106445	482.256256
9300.537234	4798.931667	1025.949219	99.553131
9300.537234	4798.931667	1024.792969	93.303673
9300.537234	4798.931667	1023.634766	154.092224
9300.537234	4798.931667	1022.477539	62.900276
9300.537234	4798.931667	1021.319336	-45.886520
9300.537234	4798.931667	1020.161133	-25.671621
9300.537234	4798.931667	1019.002930	10.022719
9300.537234	4798.931667	1017.843750	-56.633137
9300.537234	4798.931667	1016.684570	-76.596291
9300.537234	4798.931667	1015.525391	-37.773743
9300.537234	4798.931667	1014.366211	-87.200447
9300.537234	4798.931667	1013.207031	116.019325
9300.537234	4798.931667	1012.046875	-7.937348
9300.537234	4798.931667	1010.886719	-77.649506
9300.537234	4798.931667	1009.726563	241.937759
9300.537234	4798.931667	1008.565430	-36.766129
9300.537234	4798.931667	1007.404297	25.109093
9300.537234	4798.931667	1006.243164	98.035316
9300.537234	4798.931667	1005.082031	114.090881
9300.537234	4798.931667	1003.920898	123.306290
9300.537234	4798.931667	1002.758789	86.218781
9300.537234	4798.931667	1001.596680	284.601074
9300.537234	4798.931667	1000.433594	238.165161
9300.537234	4798.931667	999.271484	345.393921
9300.537234	4798.931667	998.108398	182.328339
9300.537234	4798.931667	996.945313	324.258759
9300.537234	4798.931667	995.782227	-230.923950
9300.537234	4798.931667	994.618164	-2.229588
9300.537234	4798.931667	993.454102	93.634247
9300.537234	4798.931667	992.290039	43.230274
9300.537234	4798.931667	991.125977	332.297974
9300.537234	4798.931667	989.960938	277.687805
9300.537234	4798.931667	988.796875	175.425995
9300.537234	4798.931667	987.630859	270.229553
9300.537234	4798.931667	986.465820	341.367218
9300.537234	4798.931667	985.300781	247.689484
9300.537234	4798.931667	984.134766	198.081879
9300.537234	4798.931667	982.968750	-4.008718
9300.537234	4798.931667	981.801758	57.033657
9300.537234	4798.931667	980.635742	-16.898321
9300.537234	4798.931667	979.468750	206.237610
9300.537234	4798.931667	978.301758	87.526093
9300.537234	4798.931667	977.133789	49.664059
9300.537234	4798.931667	975.966797	163.608780
9300.537234	4798.931667	974.798828	77.096718
9300.537234	4798.931667	973.630859	-33.966156
9300.537234	4798.931667	972.461914	24.143393
9300.537234	4798.931667	971.293945	-60.568394
9300.537234	4798.931667	970.125000	0.672863
9300.537234	4798.931667	968.956055	-17.814678
9300.537234	4798.931667	967.786133	36.036865
9300.537234	4798.931667	966.617188	49.053196
9300.537234	4798.931667	965.447266	50.776123
9300.537234	4798.931667	964.276367	31.608116
9300.537234	4798.931667	963.106445	49.364235
9300.537234	4798.931667	961.935547	-9.963629
9300.537234	4798.931667	960.764648	108.314857
9300.537234	4798.931667	959.593750	-9.734705
9300.537234	4798.931667	958.422852	-20.195169
9300.537234	4798.931667	957.250977	-84.450966
9300.537234	4798.931667	956.079102	-281.013855
9300.537234	4798.931667	954.907227	-125.474533
9300.537234	4798.931667	953.734375	-17.073902
9300.537234	4798.931667	952.562500	-15.982986
9300.537234	4798.931667	951.389648	-123.383057
9300.537234	4798.931667	950.215820	-205.733002
9300.537234	4798.931667	949.042969	-44.380501
9300.537234	4798.931667	947.869141	-103.221779
9300.537234	4798.931667	946.695313	-87.094673
9300.537234	4798.931667	945.521484	15.662085
9300.537234	4798.931667	944.346680	-177.405487
9300.537234	4798.931667	943.172852	-248.396912
9300.537234	4798.931667	941.998047	-97.984909
9300.537234	4798.931667	940.822266	98.974121
9300.537234	4798.931667	939.647461	-242.002060
9300.537234	4798.931667	938.471680	-68.363640
9300.537234	4798.931667	937.295898	-36.119278
9300.537234	4798.931667	936.119141	-74.137138
9300.537234	4798.931667	934.943359	-105.171829
9300.537234	4798.931667	933.766602	-108.146324
9300.537234	4798.931667	932.589844	-61.577049
9300.537234	4798.931667	931.413086	50.775326
9300.537234	4798.931667	930.235352	104.252510
9300.537234	4798.931667	929.057617	-136.064240
9300.537234	4798.931667	927.879883	23.112247
9300.537234	4798.931667	926.702148	-59.731636
9300.537234	4798.931667	925.523438	-121.441765
9300.537234	4798.931667	924.344727	56.441086
9300.537234	4798.931667	923.166016	-164.959015
9300.537234	4798.931667	921.987305	-88.126404
9300.537234	4798.931667	920.807617	9.791221
9300.537234	4798.931667	919.627930	11.806825
9300.537234	4798.931667	919.497070	58.593861
9300.537234	4798.931667	918.331055	104.765617
9300.537234	4798.931667	917.165039	-109.497421
9300.537234	4798.931667	915.999023	-44.578068
9300.537234	4798.931667	914.833008	-155.576889
9300.537234	4798.931667	913.666016	-308.745239
9300.537234	4798.931667	912.499023	72.574463
9300.537234	4798.931667	911.332031	242.801132
9300.537234	4798.931667	910.165039	12.274624
9300.537234	4798.931667	908.997070	44.199570
9300.537234	4798.931667	907.830078	52.672462
9300.537234	4798.931667	906.661133	-95.762108
9300.537234	4798.931667	905.493164	-10.036483
9300.537234	4798.931667	904.325195	-39.056408
9300.537234	4798.931667	903.156250	-173.389786
9300.537234	4798.931667	901.987305	15.201080
9300.537234	4798.931667	900.818359	114.805992
9300.537234	4798.931667	899.648438	146.529831
9300.537234	4798.931667	898.478516	42.600555
9300.537234	4798.931667	897.308594	8.832557
9300.537234	4798.931667	896.138672	180.751144
9300.537234	4798.931667	894.968750	-175.556854
9300.537234	4798.931667	893.797852	-34.077457
9300.537234	4798.931667	892.626953	93.310883
9300.537234	4798.931667	891.456055	-12.916347
9300.537234	4798.931667	890.284180	56.008675
9300.537234	4798.931667	889.113281	92.202324
9300.537234	4798.931667	887.941406	123.697372
9300.537234	4798.931667	886.768555	68.820816
9300.537234	4798.931667	885.596680	2.281866
9300.537234	4798.931667	884.423828	-40.920006
9300.537234	4798.931667	883.250977	44.144451
9300.537234	4798.931667	882.078125	87.185051
9300.537234	4798.931667	880.905273	162.826630
9300.537234	4798.931667	879.731445	70.609306
9300.537234	4798.931667	878.557617	209.102966
9300.537234	4798.931667	877.383789	77.270348
9300.537234	4798.931667	876.209961	185.386658
9300.537234	4798.931667	875.035156	-72.179977
9300.537234	4798.931667	873.860352	-66.560776
9300.537234	4798.931667	872.685547	90.344650
9300.537234	4798.931667	871.510742	-120.556664
9300.537234	4798.931667	870.334961	-12.607613
9300.537234	4798.931667	869.159180	-258.337830
9300.537234	4798.931667	867.983398	-101.601997
9300.537234	4798.931667	866.807617	-114.709923
9300.537234	4798.931667	865.630859	-23.207724
9300.537234	4798.931667	864.454102	-15.447232
9300.537234	4798.931667	863.277344	-3.064432
9300.537234	4798.931667	862.100586	160.323242
9300.537234	4798.931667	860.922852	126.160812
9300.537234	4798.931667	859.745117	173.280060
9300.537234	4798.931667	858.567383	180.881897
9300.537234	4798.931667	857.389648	-25.134527
9300.537234	4798.931667	856.210938	226.181564
9300.537234	4798.931667	855.032227	52.683498
9300.537234	4798.931667	853.853516	115.895409
9300.537234	4798.931667	852.674805	109.464462
9300.537234	4798.931667	851.495117	-384.033661
9300.537234	4798.931667	850.315430	31.610857
9300.537234	4798.931667	849.135742	34.400658
9300.537234	4798.931667	847.956055	-6.875517
9300.537234	4798.931667	846.775391	127.958488
9300.537234	4798.931667	845.595703	-124.208405
9300.537234	4798.931667	844.415039	33.705875
9300.537234	4798.931667	843.233398	140.577881
9300.537234	4798.931667	842.052734	-164.771698
9300.537234	4798.931667	840.871094	23.066200
9300.537234	4798.931667	839.689453	7.123824
9300.537234	4798.931667	838.506836	-117.599625
9300.537234	4798.931667	837.325195	-73.412224
9300.537234	4798.931667	836.142578	116.451347
9300.537234	4798.931667	834.959961	-75.371117
9300.537234	4798.931667	833.777344	225.337769
9300.537234	4798.931667	832.593750	1.149349
9300.537234	4798.931667	831.410156	-105.108116
9300.537234	4798.931667	830.226563	1.231000
9300.537234	4798.931667	829.042969	-28.809265
9300.537234	4798.931667	827.858398	-49.628407
9300.537234	4798.931667	826.673828	42.681019
9300.537234	4798.931667	825.489258	17.172331
9300.537234	4798.931667	824.304688	-45.292572
9300.537234	4798.931667	823.120117	39.936302
9300.537234	4798.931667	821.934570	88.179024
9300.537234	4798.931667	820.749023	-15.888288
9300.537234	4798.931667	819.562500	119.919617
9300.537234	4798.931667	818.376953	128.809082
9300.537234	4798.931667	817.190430	156.102158
9300.537234	4798.931667	816.003906	104.978966
9300.537234	4798.931667	814.817383	-135.129272
9300.537234	4798.931667	813.629883	-73.348045
9300.537234	4798.931667	812.442383	290.134705
9300.537234	4798.931667	811.254883	252.693527
9300.537234	4798.931667	810.067383	35.626812
9300.537234	4798.931667	808.878906	110.980843
9300.537234	4798.931667	807.690430	18.242561
9300.537234	4798.931667	806.501953	-30.775003
9300.537234	4798.931667	805.313477	-194.847687
9300.537234	4798.931667	804.124023	-80.567055
9300.537234	4798.931667	802.934570	134.812759
9300.537234	4798.931667	801.745117	60.353779
9300.537234	4798.931667	800.555664	15.767484
9300.537234	4798.931667	799.365234	24.017826
9300.537234	4798.931667	798.175781	250.516281
9300.537234	4798.931667	796.985352	189.704880
9300.537234	4798.931667	795.793945	121.983437
9300.537234	4798.931667	794.603516	132.324173
9300.537234	4798.931667	793.412109	108.174774
9300.537234	4798.931667	792.220703	109.239388
9300.537234	4798.931667	791.028320	75.831329
9300.537234	4798.931667	789.836914	297.081329
9300.537234	4798.931667	788.644531	233.730682
9300.537234	4798.931667	787.452148	402.008118
9300.537234	4798.931667	786.258789	88.618401
9300.537234	4798.931667	785.066406	48.131027
9300.537234	4798.931667	783.873047	200.148346
9300.537234	4798.931667	782.679688	-81.070511
9300.537234	4798.931667	781.485352	66.226913
9300.537234	4798.931667	780.291992	-13.367085
9300.537234	4798.931667	779.097656	195.589340
9300.537234	4798.931667	777.903320	166.270554
9300.537234	4798.931667	776.708008	88.836060
9300.537234	4798.931667	775.512695	-135.103180
9300.537234	4798.931667	774.318359	162.737808
9300.537234	4798.931667	773.122070	231.612656
9300.537234	4798.931667	771.926758	89.966011
9300.537234	4798.931667	770.730469	245.619064
9300.537234	4798.931667	769.534180	190.801132
9300.537234	4798.931667	768.337891	307.395599
9300.537234	4798.931667	767.141602	243.332626
9300.537234	4798.931667	765.944336	288.917908
9300.537234	4798.931667	764.747070	473.782288
9300.537234	4798.931667	763.549805	507.764221
9300.537234	4798.931667	762.351563	539.387939
9300.537234	4798.931667	761.154297	525.278503
9300.537234	4798.931667	759.956055	743.942688
9300.537234	4798.931667	758.757813	636.107361
9300.537234	4798.931667	757.558594	375.382629
9300.537234	4798.931667	756.359375	545.851868
9300.537234	4798.931667	755.160156	305.659119
9300.537234	4798.931667	753.960938	519.273743
9300.537234	4798.931667	752.761719	397.609467
9300.537234	4798.931667	751.561523	508.420593
9300.537234	4798.931667	750.361328	507.459686
9300.537234	4798.931667	749.160156	399.351166
9300.537234	4798.931667	747.959961	370.950562
9300.537234	4798.931667	746.758789	171.690552
9300.537234	4798.931667	745.557617	325.371796
9300.537234	4798.931667	744.356445	567.705872
9300.537234	4798.931667	743.154297	407.022980
9300.537234	4798.931667	741.952148	109.810493
9300.537234	4798.931667	740.750000	206.236053
9300.537234	4798.931667	739.547852	300.278809
9300.537234	4798.931667	738.344727	401.034424
9300.537234	4798.931667	737.142578	274.324280
9300.537234	4798.931667	735.939453	443.101685
9300.537234	4798.931667	734.735352	532.195251
9300.537234	4798.931667	733.532227	507.577148
9300.537234	4798.931667	732.328125	732.784302
9300.537234	4798.931667	731.124023	585.346680
9300.537234	4798.931667	729.918945	474.230713
9300.537234	4798.931667	728.714844	367.634521
9300.537234	4798.931667	727.509766	347.262726
9300.537234	4798.931667	726.303711	308.670532
9300.537234	4798.931667	725.098633	199.693237
9300.537234	4798.931667	723.892578	-2.316476
9300.537234	4798.931667	722.686523	299.161011
9300.537234	4798.931667	721.480469	260.326721
9300.537234	4798.931667	720.274414	87.687294
9300.537234	4798.931667	719.067383	37.434334
9300.537234	4798.931667	717.860352	204.666840
9300.537234	4798.931667	716.653320	-58.693459
9300.537234	4798.931667	715.445313	194.412109
9300.537234	4798.931667	714.238281	155.212494
9300.537234	4798.931667	713.030273	32.180576
9300.537234	4798.931667	711.821289	74.368828
9300.537234	4798.931667	710.613281	120.995842
9300.537234	4798.931667	709.404297	4.614266
9300.537234	4798.931667	708.195313	141.574631
9300.537234	4798.931667	706.986328	81.633743
9300.537234	4798.931667	705.776367	-12.278997
9300.537234	4798.931667	704.566406	-237.350937
9300.537234	4798.931667	703.356445	159.182587
9300.537234	4798.931667	702.146484	-54.678410
9300.537234	4798.931667	700.935547	9.373250
9300.537234	4798.931667	699.724609	73.324326
9300.537234	4798.931667	698.513672	-97.700104
9300.537234	4798.931667	697.302734	135.444580
9300.537234	4798.931667	696.090820	241.995041
9300.537234	4798.931667	694.878906	131.756729
9300.537234	4798.931667	693.666992	46.312763
9300.537234	4798.931667	692.455078	17.232643
9300.537234	4798.931667	691.242188	154.998978
9300.537234	4798.931667	690.029297	123.501480
9300.537234	4798.931667	688.816406	69.399506
9300.537234	4798.931667	687.602539	267.704865
9300.537234	4798.931667	686.389648	-20.931583
9300.537234	4798.931667	685.175781	303.343597
9300.537234	4798.931667	683.960938	453.945526
9300.537234	4798.931667	682.747070	12.077201
9300.537234	4798.931667	681.532227	288.632813
9300.537234	4798.931667	680.317383	116.992882
9300.537234	4798.931667	679.102539	102.910667
9300.537234	4798.931667	677.886719	376.802948
9300.537234	4798.931667	676.670898	202.784836
9300.537234	4798.931667	675.455078	76.007111
9300.537234	4798.931667	674.239258	320.285645
9300.537234	4798.931667	673.022461	20.260683
9300.537234	4798.931667	671.805664	28.265421
9300.537234	4798.931667	670.588867	213.752472
9300.537234	4798.931667	669.372070	86.754570
9300.537234	4798.931667	668.154297	346.145233
9300.537234	4798.931667	666.936523	304.383942
9300.537234	4798.931667	665.718750	85.170441
9300.537234	4798.931667	664.500977	-6.044496
9300.537234	4798.931667	663.282227	-47.909901
9300.537234	4798.931667	662.063477	-22.497307
9300.537234	4798.931667	660.844727	-66.714279
9300.537234	4798.931667	659.625000	133.530304
9300.537234	4798.931667	658.405273	48.794987
9300.537234	4798.931667	657.185547	112.024818
9300.537234	4798.931667	655.965820	-60.225773
9300.537234	4798.931667	654.745117	-77.817924
9300.537234	4798.931667	653.525391	9.863441
9300.537234	4798.931667	652.303711	229.620087
9300.537234	4798.931667	651.083008	225.237762
9300.537234	4798.931667	649.861328	-97.210754
9300.537234	4798.931667	648.640625	122.260162
9300.537234	4798.931667	647.417969	243.073898
9300.537234	4798.931667	646.196289	377.216034
9300.537234	4798.931667	644.973633	32.400700
9300.537234	4798.931667	643.750977	67.982132
9300.537234	4798.931667	642.528320	213.090210
9300.537234	4798.931667	641.305664	143.414352
9300.537234	4798.931667	640.082031	-67.137268
9300.537234	4798.931667	638.858398	39.747860
9300.537234	4798.931667	637.634766	-25.535683
9300.537234	4798.931667	636.410156	271.100891
9300.537234	4798.931667	635.185547	328.551300
9300.537234	4798.931667	633.960938	187.167252
9300.537234	4798.931667	632.736328	65.893188
9300.537234	4798.931667	631.510742	-137.979019
9300.537234	4798.931667	630.285156	187.149658
9300.537234	4798.931667	629.059570	18.956167
9300.537234	4798.931667	627.833984	201.051071
9300.537234	4798.931667	626.607422	162.205704
9300.537234	4798.931667	625.380859	132.258530
9300.537234	4798.931667	624.154297	10.876813
9300.537234	4798.931667	622.927734	248.387024
9300.537234	4798.931667	621.700195	282.954010
9300.537234	4798.931667	620.472656	103.575600
9300.537234	4798.931667	619.245117	-57.938271
9300.537234	4798.931667	618.016602	18.884836
9300.537234	4798.931667	616.788086	68.924736
9300.537234	4798.931667	615.559570	72.165222
9300.537234	4798.931667	614.331055	-138.293671
9300.537234	4798.931667	613.101563	-39.383823
9300.537234	4798.931667	611.872070	-118.523102
9300.537234	4798.931667	610.642578	-168.734497
9300.537234	4798.931667	609.413086	63.481491
9300.537234	4798.931667	608.182617	-35.710293
9300.537234	4798.931667	606.952148	2.941318
9300.537234	4798.931667	605.721680	-107.342453
9300.537234	4798.931667	604.491211	-88.720261
9300.537234	4798.931667	603.259766	-127.886604
9300.537234	4798.931667	602.028320	-167.049210
9300.537234	4798.931667	600.796875	-59.648926
9300.537234	4798.931667	599.564453	-105.496437
9300.537234	4798.931667	598.332031	-13.716397
9300.537234	4798.931667	597.099609	-79.539658
9300.537234	4798.931667	595.867188	125.336143
9300.537234	4798.931667	594.633789	-104.647675
9300.537234	4798.931667	593.400391	219.891083
9300.537234	4798.931667	592.166992	-38.839890
9300.537234	4798.931667	590.933594	50.572147
9300.537234	4798.931667	589.699219	-86.117981
9300.537234	4798.931667	588.464844	-32.185265
9300.537234	4798.931667	587.230469	-204.233536
9300.537234	4798.931667	585.995117	-123.711044
9300.537234	4798.931667	584.760742	-184.927292
9300.537234	4798.931667	583.525391	-190.764771
9300.537234	4798.931667	582.289063	-103.628059
9300.537234	4798.931667	581.053711	-209.035706
9300.537234	4798.931667	579.817383	-95.350578
9300.537234	4798.931667	578.581055	-134.325287
9300.537234	4798.931667	577.343750	-25.095486
9300.537234	4798.931667	576.107422	-52.970879
9300.537234	4798.931667	574.870117	-21.131588
9300.537234	4798.931667	573.631836	88.067635
9300.537234	4798.931667	572.394531	108.866722
9300.537234	4798.931667	571.156250	-142.053970
9300.537234	4798.931667	569.917969	-32.813446
9300.537234	4798.931667	568.679688	-36.208931
9300.537234	4798.931667	567.440430	187.826233
9300.537234	4798.931667	566.202148	-47.315998
9300.537234	4798.931667	564.961914	-43.995365
9300.537234	4798.931667	563.722656	-157.568756
9300.537234	4798.931667	562.482422	-158.559586
9300.537234	4798.931667	561.243164	-5.121175
9300.537234	4798.931667	560.001953	95.361725
9300.537234	4798.931667	558.761719	-75.300323
9300.537234	4798.931667	557.520508	-62.915661
9300.537234	4798.931667	556.279297	57.484058
9300.537234	4798.931667	555.038086	63.321129
9300.537234	4798.931667	553.795898	-102.604172
9300.537234	4798.931667	552.554688	79.537498
9300.537234	4798.931667	551.311523	-37.786354
9300.537234	4798.931667	550.069336	142.162491
9300.537234	4798.931667	548.826172	168.032120
9300.537234	4798.931667	547.583984	46.538128
9300.537234	4798.931667	546.339844	-26.464853
9300.537234	4798.931667	545.096680	188.739197
9300.537234	4798.931667	543.852539	-68.845917
9300.537234	4798.931667	542.608398	45.265850
9300.537234	4798.931667	541.364258	31.912401
9300.537234	4798.931667	540.119141	227.378510
9300.537234	4798.931667	538.875000	-38.531410
9300.537234	4798.931667	537.628906	-23.122124
9300.537234	4798.931667	536.383789	29.684250
9300.537234	4798.931667	535.137695	3.488595
9300.537234	4798.931667	533.892578	84.937424
9300.537234	4798.931667	532.645508	225.661972
9300.537234	4798.931667	531.399414	215.005798
9300.537234	4798.931667	530.152344	48.667652
9300.537234	4798.931667	528.905273	123.723167
9300.537234	4798.931667	527.658203	247.055496
9300.537234	4798.931667	526.410156	41.562641
9300.537234	4798.931667	525.163086	162.809753
9300.537234	4798.931667	523.914063	200.795975
9300.537234	4798.931667	522.666016	120.535965
9300.537234	4798.931667	521.416992	66.661385
9300.537234	4798.931667	520.167969	137.705887
9300.537234	4798.931667	518.918945	134.349869
9300.537234	4798.931667	517.669922	279.916290
9300.537234	4798.931667	516.419922	112.530434
9300.537234	4798.931667	515.169922	105.011482
9300.537234	4798.931667	513.919922	161.005295
9300.537234	4798.931667	512.668945	72.690735
9300.537234	4798.931667	511.417969	58.826927
9300.537234	4798.931667	510.166992	145.598450
9300.537234	4798.931667	508.916016	322.011047
9300.537234	4798.931667	507.664063	98.516823
9300.537234	4798.931667	506.412109	191.967926
9300.537234	4798.931667	505.160156	453.629486
9300.537234	4798.931667	503.907227	289.394775
9300.537234	4798.931667	502.655273	430.959717
9300.537234	4798.931667	501.402344	299.660095
9300.537234	4798.931667	500.148438	345.240112
9300.537234	4798.931667	498.895508	589.412598
9300.537234	4798.931667	497.641602	628.471069
9300.537234	4798.931667	496.387695	728.628479
9300.537234	4798.931667	495.132813	979.239319
9300.537234	4798.931667	493.878906	793.781921
9300.537234	4798.931667	492.624023	928.836731
9300.537234	4798.931667	491.368164	730.465149
9300.537234	4798.931667	490.113281	747.900696
9300.537234	4798.931667	488.857422	1087.722534
9300.537234	4798.931667	487.601563	1055.040405
9300.537234	4798.931667	486.344727	1070.289795
9300.537234	4798.931667	485.088867	1102.968872
9300.537234	4798.931667	483.832031	933.250854
9300.537234	4798.931667	482.575195	939.857056
9300.537234	4798.931667	481.317383	1057.404663
9300.537234	4798.931667	480.059570	1296.695557
9300.537234	4798.931667	478.801758	1131.438477
9300.537234	4798.931667	477.543945	1246.680908
9300.537234	4798.931667	476.285156	1170.588867
9300.537234	4798.931667	475.027344	1350.926392
9300.537234	4798.931667	473.767578	1163.992554
9300.537234	4798.931667	472.508789	1172.596069
9300.537234	4798.931667	471.249023	1096.458374
9300.537234	4798.931667	469.989258	1174.456543
9300.537234	4798.931667	468.729492	1126.469360
9300.537234	4798.931667	467.469727	1369.245117
9300.537234	4798.931667	466.208984	1503.357910
9300.537234	4798.931667	464.948242	1416.068604
9300.537234	4798.931667	463.686523	1760.317505
9300.537234	4798.931667	462.425781	1425.644043
9300.537234	4798.931667	461.164063	1528.911377
9300.537234	4798.931667	459.901367	1593.004272
9300.537234	4798.931667	458.639648	1362.252930
9300.537234	4798.931667	457.376953	1664.407471
9300.537234	4798.931667	456.114258	1539.593140
9300.537234	4798.931667	454.851563	1600.912720
9300.537234	4798.931667	453.587891	1586.260376
9300.537234	4798.931667	452.324219	1406.930664
9300.537234	4798.931667	451.060547	1627.849365
9300.537234	4798.931667	449.796875	1774.910767
9300.537234	4798.931667	448.532227	1534.485474
9300.537234	4798.931667	447.267578	1518.857178
9300.537234	4798.931667	446.002930	1717.059692
9300.537234	4798.931667	444.737305	1757.108154
9300.537234	4798.931667	443.471680	1732.035645
9300.537234	4798.931667	442.206055	1650.511353
9300.537234	4798.931667	440.940430	1946.788086
9300.537234	4798.931667	439.673828	1631.370728
9300.537234	4798.931667	438.407227	2045.646606
9300.537234	4798.931667	437.140625	1807.394775
9300.537234	4798.931667	435.873047	1536.500366
9300.537234	4798.931667	434.605469	1655.946167
9300.537234	4798.931667	433.337891	2012.275146
9300.537234	4798.931667	432.070313	1807.193604
9300.537234	4798.931667	430.801758	2011.513672
9300.537234	4798.931667	429.533203	2016.927856
9300.537234	4798.931667	428.264648	1901.149048
9300.537234	4798.931667	426.996094	2056.483154
9300.537234	4798.931667	425.726563	1888.011841
9300.537234	4798.931667	424.457031	1923.733765
9300.537234	4798.931667	423.186523	1905.023438
9300.537234	4798.931667	421.916992	1892.213623
9300.537234	4798.931667	420.646484	2005.809937
9300.537234	4798.931667	419.375977	2034.784790
9300.537234	4798.931667	418.104492	1994.215698
9300.537234	4798.931667	416.833008	1940.074707
9300.537234	4798.931667	415.561523	1848.684082
9300.537234	4798.931667	414.290039	1911.441162
9300.537234	4798.931667	413.017578	1885.241089
9300.537234	4798.931667	411.746094	1927.067749
9300.537234	4798.931667	410.472656	1815.437500
9300.537234	4798.931667	409.200195	2055.407959
9300.537234	4798.931667	407.926758	2270.750244
9300.537234	4798.931667	406.653320	2010.438110
9300.537234	4798.931667	405.379883	1927.521973
9300.537234	4798.931667	404.105469	1886.588379
9300.537234	4798.931667	402.831055	1964.860107
9300.537234	4798.931667	401.556641	1900.428833
9300.537234	4798.931667	400.282227	2242.580566
9300.537234	4798.931667	399.006836	2186.632080
9300.537234	4798.931667	397.731445	2333.287842
9300.537234	4798.931667	396.456055	2219.265625
9300.537234	4798.931667	395.179688	2033.307983
9300.537234	4798.931667	393.903320	2017.614014
9300.537234	4798.931667	392.626953	1839.924072
9300.537234	4798.931667	391.350586	1888.037842
9300.537234	4798.931667	390.073242	2142.459717
9300.537234	4798.931667	388.795898	2089.141602
9300.537234	4798.931667	387.518555	1899.507080
9300.537234	4798.931667	386.240234	1913.870972
9300.537234	4798.931667	384.961914	1712.677246
9300.537234	4798.931667	383.683594	1907.882202
9300.537234	4798.931667	382.405273	1808.313965
9300.537234	4798.931667	381.125977	1807.546021
9300.537234	4798.931667	379.846680	2025.229858
9300.537234	4798.931667	378.567383	1757.930908
9300.537234	4798.931667	377.287109	1726.053101
9300.537234	4798.931667	376.006836	1675.176514
9300.537234	4798.931667	374.726563	1831.691284
9300.537234	4798.931667	373.446289	1791.763916
9300.537234	4798.931667	372.165039	1734.773926
9300.537234	4798.931667	370.883789	1543.312622
9300.537234	4798.931667	369.602539	1622.915771
9300.537234	4798.931667	368.320313	1499.587280
9300.537234	4798.931667	367.039063	1717.508667
9300.537234	4798.931667	365.755859	1574.510742
9300.537234	4798.931667	364.473633	1416.380737
9300.537234	4798.931667	363.190430	1496.649658
9300.537234	4798.931667	361.907227	1557.239868
9300.537234	4798.931667	360.624023	1451.059204
9300.537234	4798.931667	359.340820	1648.994873
9300.537234	4798.931667	358.056641	1501.036499
9300.537234	4798.931667	356.772461	1665.450562
9300.537234	4798.931667	355.487305	1588.309326
9300.537234	4798.931667	354.202148	1427.282837
9300.537234	4798.931667	352.916992	1286.635742
9300.537234	4798.931667	351.631836	1259.896973
9300.537234	4798.931667	350.346680	1274.582275
9300.537234	4798.931667	349.060547	1177.363647
9300.537234	4798.931667	347.774414	1329.797974
9300.537234	4798.931667	346.487305	1119.285156
9300.537234	4798.931667	345.200195	1181.565552
9300.537234	4798.931667	343.913086	1180.629150
9300.537234	4798.931667	342.625977	812.620789
9300.537234	4798.931667	341.338867	1124.843994
9300.537234	4798.931667	340.050781	1103.707397
9300.537234	4798.931667	338.762695	974.481812
9300.537234	4798.931667	337.473633	934.435486
9300.537234	4798.931667	336.184570	841.331848
9300.537234	4798.931667	334.895508	676.010315
9300.537234	4798.931667	333.606445	578.416016
9300.537234	4798.931667	332.317383	374.496033
9300.537234	4798.931667	331.027344	560.242493
9300.537234	4798.931667	329.736328	501.439728
9300.537234	4798.931667	328.446289	615.923462
9300.537234	4798.931667	327.155273	655.280090
9300.537234	4798.931667	325.864258	632.286560
9300.537234	4798.931667	324.573242	322.358795
9300.537234	4798.931667	323.281250	223.037872
9300.537234	4798.931667	321.989258	126.736763
9300.537234	4798.931667	320.697266	41.794685
9300.537234	4798.931667	319.405273	-8.644614
9300.537234	4798.931667	318.112305	-65.096832
9300.537234	4798.931667	316.819336	-169.834656
9300.537234	4798.931667	315.526367	-16.314781
9300.537234	4798.931667	314.232422	-154.747330
9300.537234	4798.931667	312.938477	26.001724
9300.537234	4798.931667	311.644531	-131.685577
9300.537234	4798.931667	310.349609	-61.658413
9300.537234	4798.931667	309.054688	-47.098064
9300.537234	4798.931667	307.759766	-9.967701
9300.537234	4798.931667	306.464844	22.118685
9300.537234	4798.931667	305.168945	-88.431976
9300.537234	4798.931667	303.873047	86.988655
9300.537234	4798.931667	302.577148	-141.995056
9300.537234	4798.931667	301.281250	157.219208
9300.537234	4798.931667	299.984375	496.639740
