#X		#Y		#Wave		#Intensity
9204.132979	4803.828333	1999.946289	25.342377
9204.132979	4803.828333	1998.981445	-73.588470
9204.132979	4803.828333	1998.017578	16.885803
9204.132979	4803.828333	1997.052734	-113.381889
9204.132979	4803.828333	1996.088867	21.350723
9204.132979	4803.828333	1995.124023	128.635956
9204.132979	4803.828333	1994.159180	92.084618
9204.132979	4803.828333	1993.193359	171.791992
9204.132979	4803.828333	1992.228516	110.207764
9204.132979	4803.828333	1991.262695	58.415985
9204.132979	4803.828333	1990.296875	51.060459
9204.132979	4803.828333	1989.331055	28.734903
9204.132979	4803.828333	1988.365234	3.820561
9204.132979	4803.828333	1987.398438	-48.411270
9204.132979	4803.828333	1986.432617	17.966290
9204.132979	4803.828333	1985.465820	232.564606
9204.132979	4803.828333	1984.499023	-2.956060
9204.132979	4803.828333	1983.532227	75.409676
9204.132979	4803.828333	1982.565430	-95.950043
9204.132979	4803.828333	1981.597656	-30.150736
9204.132979	4803.828333	1980.629883	57.761478
9204.132979	4803.828333	1979.662109	83.801979
9204.132979	4803.828333	1978.694336	85.049065
9204.132979	4803.828333	1977.726563	-61.926365
9204.132979	4803.828333	1976.758789	-216.336670
9204.132979	4803.828333	1975.790039	-77.076591
9204.132979	4803.828333	1974.821289	34.910446
9204.132979	4803.828333	1973.852539	-129.534378
9204.132979	4803.828333	1972.883789	4.472502
9204.132979	4803.828333	1971.915039	150.690598
9204.132979	4803.828333	1970.945313	-8.963499
9204.132979	4803.828333	1969.975586	188.840820
9204.132979	4803.828333	1969.005859	162.211014
9204.132979	4803.828333	1968.036133	83.779396
9204.132979	4803.828333	1967.066406	108.802742
9204.132979	4803.828333	1966.096680	121.444008
9204.132979	4803.828333	1965.125977	13.340301
9204.132979	4803.828333	1964.155273	117.002922
9204.132979	4803.828333	1963.184570	151.639587
9204.132979	4803.828333	1962.213867	28.673803
9204.132979	4803.828333	1961.242188	6.614825
9204.132979	4803.828333	1960.271484	-25.320822
9204.132979	4803.828333	1959.299805	166.594147
9204.132979	4803.828333	1958.328125	48.467209
9204.132979	4803.828333	1957.356445	168.900314
9204.132979	4803.828333	1956.384766	104.838623
9204.132979	4803.828333	1955.412109	129.267929
9204.132979	4803.828333	1954.439453	55.338177
9204.132979	4803.828333	1953.467773	37.928833
9204.132979	4803.828333	1952.495117	204.773209
9204.132979	4803.828333	1951.521484	192.196518
9204.132979	4803.828333	1950.548828	15.039997
9204.132979	4803.828333	1949.575195	61.388721
9204.132979	4803.828333	1948.601563	90.510681
9204.132979	4803.828333	1947.627930	-0.682083
9204.132979	4803.828333	1946.654297	40.669701
9204.132979	4803.828333	1945.680664	81.987755
9204.132979	4803.828333	1944.706055	42.309406
9204.132979	4803.828333	1943.732422	29.612608
9204.132979	4803.828333	1942.757813	19.356377
9204.132979	4803.828333	1941.783203	48.322235
9204.132979	4803.828333	1940.807617	30.682547
9204.132979	4803.828333	1939.833008	-92.357712
9204.132979	4803.828333	1938.857422	-48.721134
9204.132979	4803.828333	1937.881836	78.195007
9204.132979	4803.828333	1936.906250	-115.859299
9204.132979	4803.828333	1935.930664	55.092003
9204.132979	4803.828333	1934.955078	-53.191891
9204.132979	4803.828333	1933.978516	-36.577976
9204.132979	4803.828333	1933.001953	-93.411911
9204.132979	4803.828333	1932.025391	-49.884766
9204.132979	4803.828333	1931.048828	79.267403
9204.132979	4803.828333	1930.072266	147.204529
9204.132979	4803.828333	1929.094727	-19.711063
9204.132979	4803.828333	1928.118164	-32.490002
9204.132979	4803.828333	1927.140625	-130.847870
9204.132979	4803.828333	1926.163086	-229.170059
9204.132979	4803.828333	1925.184570	78.289421
9204.132979	4803.828333	1924.207031	-200.874695
9204.132979	4803.828333	1923.228516	99.136543
9204.132979	4803.828333	1922.250000	-109.082390
9204.132979	4803.828333	1921.271484	-107.172600
9204.132979	4803.828333	1920.292969	70.561180
9204.132979	4803.828333	1919.314453	50.468998
9204.132979	4803.828333	1918.334961	-89.225777
9204.132979	4803.828333	1917.355469	37.161522
9204.132979	4803.828333	1916.375977	-51.227642
9204.132979	4803.828333	1915.396484	89.752579
9204.132979	4803.828333	1914.416992	45.302692
9204.132979	4803.828333	1913.436523	-72.290550
9204.132979	4803.828333	1912.457031	78.384079
9204.132979	4803.828333	1911.476563	48.603382
9204.132979	4803.828333	1910.496094	-98.156685
9204.132979	4803.828333	1909.515625	113.378502
9204.132979	4803.828333	1908.534180	17.838886
9204.132979	4803.828333	1907.552734	-11.884615
9204.132979	4803.828333	1906.572266	7.122798
9204.132979	4803.828333	1905.590820	-5.528131
9204.132979	4803.828333	1904.608398	-8.430538
9204.132979	4803.828333	1903.626953	81.178055
9204.132979	4803.828333	1902.644531	88.009949
9204.132979	4803.828333	1901.663086	-124.151443
9204.132979	4803.828333	1900.680664	-83.209076
9204.132979	4803.828333	1899.698242	96.372795
9204.132979	4803.828333	1898.714844	27.832890
9204.132979	4803.828333	1897.732422	17.683493
9204.132979	4803.828333	1896.749023	51.302914
9204.132979	4803.828333	1895.765625	116.514381
9204.132979	4803.828333	1894.782227	-12.703155
9204.132979	4803.828333	1893.798828	-64.114914
9204.132979	4803.828333	1892.814453	66.690147
9204.132979	4803.828333	1891.831055	12.867680
9204.132979	4803.828333	1890.846680	133.909775
9204.132979	4803.828333	1889.862305	138.375366
9204.132979	4803.828333	1888.877930	14.192554
9204.132979	4803.828333	1887.892578	-20.141733
9204.132979	4803.828333	1886.908203	-25.337204
9204.132979	4803.828333	1885.922852	56.812103
9204.132979	4803.828333	1884.937500	-30.856155
9204.132979	4803.828333	1883.952148	92.502052
9204.132979	4803.828333	1882.965820	4.869496
9204.132979	4803.828333	1881.980469	50.609089
9204.132979	4803.828333	1880.994141	86.640182
9204.132979	4803.828333	1880.007813	66.925835
9204.132979	4803.828333	1879.021484	-3.657250
9204.132979	4803.828333	1878.035156	51.756378
9204.132979	4803.828333	1877.047852	-76.918404
9204.132979	4803.828333	1876.061523	34.190472
9204.132979	4803.828333	1875.074219	58.100998
9204.132979	4803.828333	1874.086914	159.465118
9204.132979	4803.828333	1873.098633	52.659595
9204.132979	4803.828333	1872.111328	-56.522175
9204.132979	4803.828333	1871.123047	15.781064
9204.132979	4803.828333	1870.135742	75.966682
9204.132979	4803.828333	1869.147461	-4.134350
9204.132979	4803.828333	1868.158203	10.091901
9204.132979	4803.828333	1867.169922	65.411423
9204.132979	4803.828333	1866.180664	94.122475
9204.132979	4803.828333	1865.192383	64.827446
9204.132979	4803.828333	1864.203125	28.293352
9204.132979	4803.828333	1863.213867	-15.474462
9204.132979	4803.828333	1862.223633	-160.665192
9204.132979	4803.828333	1861.234375	-165.748718
9204.132979	4803.828333	1860.244141	-93.576729
9204.132979	4803.828333	1859.253906	-43.159016
9204.132979	4803.828333	1858.263672	-69.989609
9204.132979	4803.828333	1857.273438	-137.832581
9204.132979	4803.828333	1856.282227	139.324982
9204.132979	4803.828333	1855.291992	122.112793
9204.132979	4803.828333	1854.300781	10.851511
9204.132979	4803.828333	1853.309570	90.103104
9204.132979	4803.828333	1852.317383	-64.513092
9204.132979	4803.828333	1851.326172	140.041840
9204.132979	4803.828333	1850.333984	96.310661
9204.132979	4803.828333	1849.342773	-22.096886
9204.132979	4803.828333	1848.350586	-183.826523
9204.132979	4803.828333	1847.357422	-22.782488
9204.132979	4803.828333	1846.365234	-119.452194
9204.132979	4803.828333	1845.372070	106.505409
9204.132979	4803.828333	1844.379883	94.076576
9204.132979	4803.828333	1843.386719	120.147247
9204.132979	4803.828333	1842.393555	69.203758
9204.132979	4803.828333	1841.399414	-39.467651
9204.132979	4803.828333	1840.406250	70.766296
9204.132979	4803.828333	1839.412109	-35.480488
9204.132979	4803.828333	1838.417969	12.176791
9204.132979	4803.828333	1837.423828	189.611740
9204.132979	4803.828333	1836.429688	35.300987
9204.132979	4803.828333	1835.434570	20.404741
9204.132979	4803.828333	1834.440430	-56.962143
9204.132979	4803.828333	1833.445313	-2.202484
9204.132979	4803.828333	1832.450195	-17.122335
9204.132979	4803.828333	1831.454102	66.393539
9204.132979	4803.828333	1830.458984	41.835102
9204.132979	4803.828333	1829.462891	48.472286
9204.132979	4803.828333	1828.466797	-50.497974
9204.132979	4803.828333	1827.470703	-60.671787
9204.132979	4803.828333	1826.474609	121.051521
9204.132979	4803.828333	1825.478516	31.669102
9204.132979	4803.828333	1824.481445	66.995819
9204.132979	4803.828333	1823.484375	68.726738
9204.132979	4803.828333	1822.487305	63.248173
9204.132979	4803.828333	1821.490234	-93.232254
9204.132979	4803.828333	1820.493164	-41.207111
9204.132979	4803.828333	1819.495117	-27.553511
9204.132979	4803.828333	1818.498047	91.468903
9204.132979	4803.828333	1817.500000	-81.740883
9204.132979	4803.828333	1816.500977	85.090141
9204.132979	4803.828333	1815.502930	10.056456
9204.132979	4803.828333	1814.504883	2.046556
9204.132979	4803.828333	1813.505859	51.448380
9204.132979	4803.828333	1812.506836	21.856628
9204.132979	4803.828333	1811.507813	97.505325
9204.132979	4803.828333	1810.508789	-104.326103
9204.132979	4803.828333	1809.508789	-88.508087
9204.132979	4803.828333	1808.508789	-32.077171
9204.132979	4803.828333	1807.508789	115.139648
9204.132979	4803.828333	1806.508789	128.447205
9204.132979	4803.828333	1805.508789	117.831497
9204.132979	4803.828333	1804.508789	-2.695101
9204.132979	4803.828333	1803.507813	34.436329
9204.132979	4803.828333	1802.506836	78.692810
9204.132979	4803.828333	1801.505859	113.356750
9204.132979	4803.828333	1800.504883	42.948830
9204.132979	4803.828333	1799.502930	96.645805
9204.132979	4803.828333	1798.501953	147.911621
9204.132979	4803.828333	1797.500000	-32.289104
9204.132979	4803.828333	1796.498047	-2.541908
9204.132979	4803.828333	1795.496094	-18.144918
9204.132979	4803.828333	1794.493164	-19.465921
9204.132979	4803.828333	1793.491211	67.394356
9204.132979	4803.828333	1792.488281	-22.188057
9204.132979	4803.828333	1791.485352	9.770781
9204.132979	4803.828333	1790.482422	213.235947
9204.132979	4803.828333	1789.478516	14.009495
9204.132979	4803.828333	1788.475586	0.604252
9204.132979	4803.828333	1787.471680	3.840832
9204.132979	4803.828333	1786.467773	140.370834
9204.132979	4803.828333	1785.463867	53.066574
9204.132979	4803.828333	1784.459961	39.542110
9204.132979	4803.828333	1783.455078	144.961639
9204.132979	4803.828333	1782.450195	83.781105
9204.132979	4803.828333	1781.445313	165.305466
9204.132979	4803.828333	1780.440430	-5.310203
9204.132979	4803.828333	1779.435547	126.068207
9204.132979	4803.828333	1778.429688	-51.672081
9204.132979	4803.828333	1777.424805	89.108452
9204.132979	4803.828333	1776.418945	27.816767
9204.132979	4803.828333	1775.413086	16.408543
9204.132979	4803.828333	1774.406250	31.099051
9204.132979	4803.828333	1773.400391	-70.617447
9204.132979	4803.828333	1772.393555	-17.989964
9204.132979	4803.828333	1771.386719	67.821609
9204.132979	4803.828333	1770.379883	-3.088631
9204.132979	4803.828333	1769.373047	84.994041
9204.132979	4803.828333	1768.365234	9.292569
9204.132979	4803.828333	1767.358398	-4.732570
9204.132979	4803.828333	1766.350586	-51.993797
9204.132979	4803.828333	1765.342773	12.181243
9204.132979	4803.828333	1764.334961	-146.563507
9204.132979	4803.828333	1763.326172	76.352699
9204.132979	4803.828333	1762.318359	5.276897
9204.132979	4803.828333	1761.309570	-75.287590
9204.132979	4803.828333	1760.300781	126.064201
9204.132979	4803.828333	1759.291016	21.749809
9204.132979	4803.828333	1758.282227	-106.237434
9204.132979	4803.828333	1757.272461	59.382904
9204.132979	4803.828333	1756.262695	61.564278
9204.132979	4803.828333	1755.252930	42.409191
9204.132979	4803.828333	1754.243164	-111.656105
9204.132979	4803.828333	1753.233398	51.335152
9204.132979	4803.828333	1752.222656	72.298386
9204.132979	4803.828333	1751.211914	57.743385
9204.132979	4803.828333	1750.201172	-108.172615
9204.132979	4803.828333	1749.190430	-37.648834
9204.132979	4803.828333	1748.179688	143.905075
9204.132979	4803.828333	1747.167969	-64.578033
9204.132979	4803.828333	1746.156250	-27.289814
9204.132979	4803.828333	1745.144531	-42.021263
9204.132979	4803.828333	1744.132813	-210.302612
9204.132979	4803.828333	1743.121094	-19.620140
9204.132979	4803.828333	1742.108398	52.902729
9204.132979	4803.828333	1741.095703	113.560852
9204.132979	4803.828333	1740.083008	-28.803923
9204.132979	4803.828333	1739.070313	130.880753
9204.132979	4803.828333	1738.057617	52.195030
9204.132979	4803.828333	1737.043945	-111.412369
9204.132979	4803.828333	1736.030273	-114.630295
9204.132979	4803.828333	1735.016602	-94.303368
9204.132979	4803.828333	1734.002930	-0.940777
9204.132979	4803.828333	1732.989258	-103.270920
9204.132979	4803.828333	1731.974609	114.877945
9204.132979	4803.828333	1730.959961	-112.376205
9204.132979	4803.828333	1729.945313	-33.355022
9204.132979	4803.828333	1728.930664	123.321022
9204.132979	4803.828333	1727.916016	-9.719505
9204.132979	4803.828333	1726.900391	-8.557434
9204.132979	4803.828333	1725.885742	96.140182
9204.132979	4803.828333	1724.870117	40.735966
9204.132979	4803.828333	1723.853516	15.901858
9204.132979	4803.828333	1722.837891	-30.122746
9204.132979	4803.828333	1721.822266	-85.570549
9204.132979	4803.828333	1720.805664	-54.028862
9204.132979	4803.828333	1719.789063	15.085541
9204.132979	4803.828333	1718.772461	23.024803
9204.132979	4803.828333	1717.754883	-171.188583
9204.132979	4803.828333	1716.738281	83.438072
9204.132979	4803.828333	1715.720703	-117.824379
9204.132979	4803.828333	1714.703125	33.279324
9204.132979	4803.828333	1713.685547	134.977921
9204.132979	4803.828333	1712.667969	72.253075
9204.132979	4803.828333	1711.649414	11.863971
9204.132979	4803.828333	1710.630859	50.041100
9204.132979	4803.828333	1709.612305	179.688995
9204.132979	4803.828333	1708.593750	-5.121758
9204.132979	4803.828333	1707.575195	-93.719543
9204.132979	4803.828333	1706.555664	-60.367748
9204.132979	4803.828333	1705.536133	-41.127216
9204.132979	4803.828333	1704.516602	71.848999
9204.132979	4803.828333	1703.497070	44.121239
9204.132979	4803.828333	1702.477539	-58.613934
9204.132979	4803.828333	1701.457031	77.638771
9204.132979	4803.828333	1700.437500	-78.998085
9204.132979	4803.828333	1699.416992	216.409134
9204.132979	4803.828333	1698.395508	57.397755
9204.132979	4803.828333	1697.375000	-31.339663
9204.132979	4803.828333	1696.354492	34.415771
9204.132979	4803.828333	1695.333008	191.384323
9204.132979	4803.828333	1694.311523	39.410778
9204.132979	4803.828333	1693.290039	-40.010418
9204.132979	4803.828333	1692.267578	37.274551
9204.132979	4803.828333	1691.246094	126.201698
9204.132979	4803.828333	1690.223633	-79.525688
9204.132979	4803.828333	1689.201172	-21.054897
9204.132979	4803.828333	1688.178711	91.122711
9204.132979	4803.828333	1687.155273	65.363998
9204.132979	4803.828333	1686.132813	128.372299
9204.132979	4803.828333	1685.109375	81.546516
9204.132979	4803.828333	1684.085938	6.691140
9204.132979	4803.828333	1683.062500	83.607811
9204.132979	4803.828333	1682.039063	172.144562
9204.132979	4803.828333	1681.014648	188.266037
9204.132979	4803.828333	1679.990234	125.020035
9204.132979	4803.828333	1678.965820	10.448906
9204.132979	4803.828333	1677.941406	-1.464534
9204.132979	4803.828333	1676.916992	68.232254
9204.132979	4803.828333	1675.891602	-23.013229
9204.132979	4803.828333	1674.866211	146.859100
9204.132979	4803.828333	1673.840820	81.232956
9204.132979	4803.828333	1672.815430	76.202484
9204.132979	4803.828333	1671.790039	-22.042467
9204.132979	4803.828333	1670.763672	56.766853
9204.132979	4803.828333	1669.737305	26.063181
9204.132979	4803.828333	1668.710938	25.624762
9204.132979	4803.828333	1667.684570	99.669304
9204.132979	4803.828333	1666.658203	6.075648
9204.132979	4803.828333	1665.630859	107.983086
9204.132979	4803.828333	1664.603516	149.338104
9204.132979	4803.828333	1663.576172	132.503952
9204.132979	4803.828333	1662.548828	124.963951
9204.132979	4803.828333	1661.520508	61.596134
9204.132979	4803.828333	1660.493164	272.591553
9204.132979	4803.828333	1659.464844	137.130630
9204.132979	4803.828333	1658.436523	220.172150
9204.132979	4803.828333	1657.408203	240.430435
9204.132979	4803.828333	1656.378906	12.081806
9204.132979	4803.828333	1655.350586	167.065475
9204.132979	4803.828333	1654.321289	173.345963
9204.132979	4803.828333	1653.291992	195.865036
9204.132979	4803.828333	1652.261719	137.110504
9204.132979	4803.828333	1651.232422	171.211121
9204.132979	4803.828333	1650.202148	196.000961
9204.132979	4803.828333	1649.171875	281.092743
9204.132979	4803.828333	1648.141602	257.121704
9204.132979	4803.828333	1647.111328	300.405701
9204.132979	4803.828333	1646.080078	288.010651
9204.132979	4803.828333	1645.049805	331.257263
9204.132979	4803.828333	1644.018555	274.807190
9204.132979	4803.828333	1642.987305	431.569153
9204.132979	4803.828333	1641.955078	298.646118
9204.132979	4803.828333	1640.923828	341.823700
9204.132979	4803.828333	1639.891602	227.486191
9204.132979	4803.828333	1638.859375	296.116516
9204.132979	4803.828333	1637.827148	274.427032
9204.132979	4803.828333	1636.794922	338.384064
9204.132979	4803.828333	1635.761719	397.677551
9204.132979	4803.828333	1634.729492	362.088257
9204.132979	4803.828333	1633.696289	351.950623
9204.132979	4803.828333	1632.662109	406.567932
9204.132979	4803.828333	1631.628906	421.858612
9204.132979	4803.828333	1630.594727	571.229370
9204.132979	4803.828333	1629.561523	392.314545
9204.132979	4803.828333	1628.527344	433.012054
9204.132979	4803.828333	1627.493164	503.733551
9204.132979	4803.828333	1626.458008	301.823273
9204.132979	4803.828333	1625.423828	571.180115
9204.132979	4803.828333	1624.388672	364.719666
9204.132979	4803.828333	1623.353516	391.532257
9204.132979	4803.828333	1622.318359	508.364471
9204.132979	4803.828333	1621.282227	470.517639
9204.132979	4803.828333	1620.247070	668.056580
9204.132979	4803.828333	1619.210938	413.342285
9204.132979	4803.828333	1618.174805	578.527527
9204.132979	4803.828333	1617.137695	443.853119
9204.132979	4803.828333	1616.101563	754.236389
9204.132979	4803.828333	1615.064453	665.696594
9204.132979	4803.828333	1614.027344	648.646240
9204.132979	4803.828333	1612.990234	544.045776
9204.132979	4803.828333	1611.953125	586.941589
9204.132979	4803.828333	1610.916016	772.641785
9204.132979	4803.828333	1609.877930	631.249573
9204.132979	4803.828333	1608.839844	959.638306
9204.132979	4803.828333	1607.801758	806.774414
9204.132979	4803.828333	1606.763672	723.028442
9204.132979	4803.828333	1605.724609	701.452820
9204.132979	4803.828333	1604.685547	762.723633
9204.132979	4803.828333	1603.646484	695.166626
9204.132979	4803.828333	1602.607422	770.238342
9204.132979	4803.828333	1601.568359	711.928467
9204.132979	4803.828333	1600.528320	644.454590
9204.132979	4803.828333	1599.489258	809.173157
9204.132979	4803.828333	1598.449219	943.962097
9204.132979	4803.828333	1597.408203	812.187195
9204.132979	4803.828333	1596.368164	636.838623
9204.132979	4803.828333	1595.327148	523.579529
9204.132979	4803.828333	1594.287109	662.974182
9204.132979	4803.828333	1593.246094	607.182007
9204.132979	4803.828333	1592.204102	686.851074
9204.132979	4803.828333	1591.163086	706.843201
9204.132979	4803.828333	1590.121094	623.590515
9204.132979	4803.828333	1589.079102	572.506042
9204.132979	4803.828333	1588.037109	670.541565
9204.132979	4803.828333	1586.995117	775.437683
9204.132979	4803.828333	1585.953125	630.413635
9204.132979	4803.828333	1584.910156	540.474365
9204.132979	4803.828333	1583.867188	576.639343
9204.132979	4803.828333	1582.824219	555.528198
9204.132979	4803.828333	1581.781250	710.844543
9204.132979	4803.828333	1580.737305	726.402893
9204.132979	4803.828333	1579.693359	604.579102
9204.132979	4803.828333	1578.649414	688.884399
9204.132979	4803.828333	1577.605469	505.358276
9204.132979	4803.828333	1576.561523	633.182861
9204.132979	4803.828333	1575.516602	539.023376
9204.132979	4803.828333	1574.472656	582.196106
9204.132979	4803.828333	1573.427734	668.830139
9204.132979	4803.828333	1572.381836	668.552917
9204.132979	4803.828333	1571.336914	670.593628
9204.132979	4803.828333	1570.291016	519.498352
9204.132979	4803.828333	1569.246094	565.048035
9204.132979	4803.828333	1568.200195	484.924622
9204.132979	4803.828333	1567.153320	537.363953
9204.132979	4803.828333	1566.107422	500.734680
9204.132979	4803.828333	1565.060547	614.868286
9204.132979	4803.828333	1564.013672	473.264191
9204.132979	4803.828333	1562.966797	434.471680
9204.132979	4803.828333	1561.919922	425.396423
9204.132979	4803.828333	1560.872070	528.165039
9204.132979	4803.828333	1559.825195	450.694489
9204.132979	4803.828333	1558.777344	576.291321
9204.132979	4803.828333	1557.729492	503.462616
9204.132979	4803.828333	1556.680664	346.328217
9204.132979	4803.828333	1555.632813	456.013824
9204.132979	4803.828333	1554.583984	549.730530
9204.132979	4803.828333	1553.535156	602.428589
9204.132979	4803.828333	1552.486328	632.356384
9204.132979	4803.828333	1551.436523	591.689758
9204.132979	4803.828333	1550.387695	603.459167
9204.132979	4803.828333	1549.337891	747.321411
9204.132979	4803.828333	1548.288086	617.979492
9204.132979	4803.828333	1547.238281	641.222839
9204.132979	4803.828333	1546.187500	671.317200
9204.132979	4803.828333	1545.136719	505.771973
9204.132979	4803.828333	1544.086914	617.850464
9204.132979	4803.828333	1543.035156	543.424561
9204.132979	4803.828333	1541.984375	585.037170
9204.132979	4803.828333	1540.933594	576.657104
9204.132979	4803.828333	1539.881836	606.955688
9204.132979	4803.828333	1538.830078	691.822998
9204.132979	4803.828333	1537.778320	558.580627
9204.132979	4803.828333	1536.725586	554.908691
9204.132979	4803.828333	1535.673828	487.691193
9204.132979	4803.828333	1534.621094	599.921875
9204.132979	4803.828333	1533.568359	464.693634
9204.132979	4803.828333	1532.515625	511.145599
9204.132979	4803.828333	1531.461914	437.341736
9204.132979	4803.828333	1530.409180	524.705750
9204.132979	4803.828333	1529.355469	444.209137
9204.132979	4803.828333	1528.301758	409.147949
9204.132979	4803.828333	1527.247070	426.295319
9204.132979	4803.828333	1526.193359	350.531586
9204.132979	4803.828333	1525.138672	311.105011
9204.132979	4803.828333	1524.083984	108.572098
9204.132979	4803.828333	1523.029297	-12.268051
9204.132979	4803.828333	1521.974609	84.454964
9204.132979	4803.828333	1520.918945	101.913033
9204.132979	4803.828333	1519.863281	416.049133
9204.132979	4803.828333	1518.807617	297.688782
9204.132979	4803.828333	1517.751953	211.110504
9204.132979	4803.828333	1516.696289	22.774538
9204.132979	4803.828333	1515.639648	87.973099
9204.132979	4803.828333	1514.583008	166.766129
9204.132979	4803.828333	1513.526367	254.623596
9204.132979	4803.828333	1512.469727	7.822097
9204.132979	4803.828333	1511.412109	-10.489529
9204.132979	4803.828333	1510.355469	88.797081
9204.132979	4803.828333	1509.297852	212.950089
9204.132979	4803.828333	1508.240234	4.956868
9204.132979	4803.828333	1507.181641	68.179298
9204.132979	4803.828333	1506.124023	135.946060
9204.132979	4803.828333	1505.065430	183.410446
9204.132979	4803.828333	1504.006836	68.350616
9204.132979	4803.828333	1502.948242	-112.074036
9204.132979	4803.828333	1501.888672	-80.237732
9204.132979	4803.828333	1500.830078	41.893757
9204.132979	4803.828333	1499.770508	141.466354
9204.132979	4803.828333	1498.710938	8.737476
9204.132979	4803.828333	1497.650391	94.847717
9204.132979	4803.828333	1496.590820	-163.971832
9204.132979	4803.828333	1495.530273	-68.740875
9204.132979	4803.828333	1494.469727	-36.598713
9204.132979	4803.828333	1493.409180	139.789780
9204.132979	4803.828333	1492.348633	133.685486
9204.132979	4803.828333	1491.287109	15.017375
9204.132979	4803.828333	1490.225586	54.082462
9204.132979	4803.828333	1489.164063	-95.936501
9204.132979	4803.828333	1488.102539	-180.562805
9204.132979	4803.828333	1487.041016	-60.303181
9204.132979	4803.828333	1485.978516	-77.295807
9204.132979	4803.828333	1484.916016	-127.953903
9204.132979	4803.828333	1483.853516	-14.382832
9204.132979	4803.828333	1482.791016	0.271040
9204.132979	4803.828333	1481.727539	-27.748468
9204.132979	4803.828333	1480.664063	-6.236629
9204.132979	4803.828333	1479.600586	-117.269524
9204.132979	4803.828333	1478.537109	7.660761
9204.132979	4803.828333	1477.473633	-76.224022
9204.132979	4803.828333	1476.409180	-45.527466
9204.132979	4803.828333	1475.344727	50.314247
9204.132979	4803.828333	1474.280273	150.586349
9204.132979	4803.828333	1473.215820	-99.083176
9204.132979	4803.828333	1472.151367	-72.686447
9204.132979	4803.828333	1471.085938	56.949543
9204.132979	4803.828333	1470.020508	24.966452
9204.132979	4803.828333	1468.955078	60.444401
9204.132979	4803.828333	1467.888672	40.095604
9204.132979	4803.828333	1466.823242	-5.105749
9204.132979	4803.828333	1465.756836	55.103626
9204.132979	4803.828333	1464.690430	16.719604
9204.132979	4803.828333	1463.624023	19.239271
9204.132979	4803.828333	1462.556641	48.262772
9204.132979	4803.828333	1461.490234	3.887775
9204.132979	4803.828333	1460.422852	59.562634
9204.132979	4803.828333	1459.355469	50.185276
9204.132979	4803.828333	1458.287109	-51.976974
9204.132979	4803.828333	1457.219727	66.586205
9204.132979	4803.828333	1456.151367	-76.493828
9204.132979	4803.828333	1455.083008	145.109344
9204.132979	4803.828333	1454.014648	-43.632607
9204.132979	4803.828333	1452.945313	27.967781
9204.132979	4803.828333	1451.876953	-33.750607
9204.132979	4803.828333	1450.807617	31.364603
9204.132979	4803.828333	1449.738281	-72.963005
9204.132979	4803.828333	1448.668945	105.898361
9204.132979	4803.828333	1447.598633	151.653030
9204.132979	4803.828333	1446.528320	15.212877
9204.132979	4803.828333	1445.458008	-54.574486
9204.132979	4803.828333	1444.387695	15.664899
9204.132979	4803.828333	1443.317383	187.496399
9204.132979	4803.828333	1442.246094	-2.106896
9204.132979	4803.828333	1441.174805	82.146530
9204.132979	4803.828333	1440.103516	177.850327
9204.132979	4803.828333	1439.032227	131.296417
9204.132979	4803.828333	1437.960938	130.199554
9204.132979	4803.828333	1436.888672	-2.148575
9204.132979	4803.828333	1435.816406	114.014931
9204.132979	4803.828333	1434.744141	10.996612
9204.132979	4803.828333	1433.670898	132.959396
9204.132979	4803.828333	1432.598633	209.888657
9204.132979	4803.828333	1431.525391	147.212967
9204.132979	4803.828333	1430.452148	-57.301167
9204.132979	4803.828333	1429.378906	-30.955624
9204.132979	4803.828333	1428.304688	3.986006
9204.132979	4803.828333	1427.231445	93.641365
9204.132979	4803.828333	1426.157227	87.196358
9204.132979	4803.828333	1425.083008	115.065651
9204.132979	4803.828333	1424.007813	-24.582520
9204.132979	4803.828333	1422.933594	-126.274483
9204.132979	4803.828333	1421.858398	-7.773171
9204.132979	4803.828333	1420.783203	-27.314528
9204.132979	4803.828333	1419.708008	126.512421
9204.132979	4803.828333	1418.631836	-144.055511
9204.132979	4803.828333	1417.555664	-33.615730
9204.132979	4803.828333	1416.479492	-220.700653
9204.132979	4803.828333	1415.403320	-69.051674
9204.132979	4803.828333	1414.327148	-41.204140
9204.132979	4803.828333	1413.250000	-128.388763
9204.132979	4803.828333	1412.173828	-92.419044
9204.132979	4803.828333	1411.096680	100.508446
9204.132979	4803.828333	1410.018555	-93.802635
9204.132979	4803.828333	1408.941406	6.554608
9204.132979	4803.828333	1407.863281	-51.685440
9204.132979	4803.828333	1406.785156	110.034531
9204.132979	4803.828333	1405.707031	29.312941
9204.132979	4803.828333	1404.628906	-78.038918
9204.132979	4803.828333	1403.549805	-39.839252
9204.132979	4803.828333	1402.470703	41.388958
9204.132979	4803.828333	1401.391602	112.499001
9204.132979	4803.828333	1400.312500	120.350014
9204.132979	4803.828333	1399.233398	94.064796
9204.132979	4803.828333	1398.153320	83.070457
9204.132979	4803.828333	1397.073242	111.214874
9204.132979	4803.828333	1395.993164	77.928467
9204.132979	4803.828333	1394.913086	-24.765604
9204.132979	4803.828333	1393.832031	50.693745
9204.132979	4803.828333	1392.750977	-30.608517
9204.132979	4803.828333	1391.669922	213.361526
9204.132979	4803.828333	1390.588867	160.799896
9204.132979	4803.828333	1389.506836	67.716064
9204.132979	4803.828333	1388.425781	-52.241741
9204.132979	4803.828333	1387.343750	114.588326
9204.132979	4803.828333	1386.261719	-63.517647
9204.132979	4803.828333	1385.178711	-5.361538
9204.132979	4803.828333	1384.096680	286.891052
9204.132979	4803.828333	1383.013672	111.050705
9204.132979	4803.828333	1381.930664	76.656059
9204.132979	4803.828333	1380.846680	15.914152
9204.132979	4803.828333	1379.763672	265.228363
9204.132979	4803.828333	1378.679688	330.649872
9204.132979	4803.828333	1377.595703	225.930954
9204.132979	4803.828333	1376.511719	305.058624
9204.132979	4803.828333	1375.427734	83.294243
9204.132979	4803.828333	1374.342773	217.496490
9204.132979	4803.828333	1373.257813	313.861816
9204.132979	4803.828333	1372.172852	134.365448
9204.132979	4803.828333	1371.087891	186.466080
9204.132979	4803.828333	1370.001953	97.904327
9204.132979	4803.828333	1368.916992	335.360077
9204.132979	4803.828333	1367.831055	158.675293
9204.132979	4803.828333	1366.744141	153.856598
9204.132979	4803.828333	1365.658203	312.916656
9204.132979	4803.828333	1364.571289	207.065811
9204.132979	4803.828333	1363.484375	272.160309
9204.132979	4803.828333	1362.397461	98.736885
9204.132979	4803.828333	1361.310547	4.170198
9204.132979	4803.828333	1360.222656	79.684601
9204.132979	4803.828333	1359.135742	106.469009
9204.132979	4803.828333	1358.047852	137.493042
9204.132979	4803.828333	1356.958984	151.296478
9204.132979	4803.828333	1355.871094	178.632462
9204.132979	4803.828333	1354.782227	187.810654
9204.132979	4803.828333	1353.693359	126.613686
9204.132979	4803.828333	1352.604492	154.388824
9204.132979	4803.828333	1351.515625	165.935501
9204.132979	4803.828333	1350.425781	61.061382
9204.132979	4803.828333	1349.335938	87.992294
9204.132979	4803.828333	1348.246094	57.298161
9204.132979	4803.828333	1347.156250	70.880943
9204.132979	4803.828333	1346.066406	170.032257
9204.132979	4803.828333	1344.975586	232.743484
9204.132979	4803.828333	1343.884766	7.669996
9204.132979	4803.828333	1342.793945	44.004738
9204.132979	4803.828333	1341.702148	61.444283
9204.132979	4803.828333	1340.611328	130.381454
9204.132979	4803.828333	1339.519531	89.787926
9204.132979	4803.828333	1338.427734	189.705597
9204.132979	4803.828333	1337.334961	122.467873
9204.132979	4803.828333	1336.243164	76.616737
9204.132979	4803.828333	1335.150391	46.837967
9204.132979	4803.828333	1334.057617	31.286612
9204.132979	4803.828333	1332.964844	27.753281
9204.132979	4803.828333	1331.871094	87.728737
9204.132979	4803.828333	1330.778320	139.349396
9204.132979	4803.828333	1329.684570	-3.360794
9204.132979	4803.828333	1328.590820	25.590960
9204.132979	4803.828333	1327.496094	70.119347
9204.132979	4803.828333	1326.402344	99.469933
9204.132979	4803.828333	1325.307617	93.178604
9204.132979	4803.828333	1324.212891	165.492920
9204.132979	4803.828333	1323.117188	122.287613
9204.132979	4803.828333	1322.022461	56.244591
9204.132979	4803.828333	1320.926758	216.628418
9204.132979	4803.828333	1319.831055	89.836967
9204.132979	4803.828333	1318.735352	3.536789
9204.132979	4803.828333	1317.638672	91.648651
9204.132979	4803.828333	1316.542969	37.811214
9204.132979	4803.828333	1315.446289	16.562752
9204.132979	4803.828333	1314.349609	77.119339
9204.132979	4803.828333	1313.251953	40.597130
9204.132979	4803.828333	1312.155273	-9.689598
9204.132979	4803.828333	1311.057617	-88.441673
9204.132979	4803.828333	1309.959961	-17.170647
9204.132979	4803.828333	1308.862305	14.333014
9204.132979	4803.828333	1307.763672	151.754898
9204.132979	4803.828333	1306.665039	52.029701
9204.132979	4803.828333	1305.566406	-135.490005
9204.132979	4803.828333	1304.467773	-26.426216
9204.132979	4803.828333	1303.369141	-40.925373
9204.132979	4803.828333	1302.269531	26.597141
9204.132979	4803.828333	1301.169922	-97.511986
9204.132979	4803.828333	1300.070313	68.688217
9204.132979	4803.828333	1298.970703	7.572318
9204.132979	4803.828333	1297.870117	39.640522
9204.132979	4803.828333	1296.769531	133.952347
9204.132979	4803.828333	1295.668945	224.622574
9204.132979	4803.828333	1294.568359	94.495499
9204.132979	4803.828333	1293.466797	-46.756718
9204.132979	4803.828333	1292.366211	-18.415693
9204.132979	4803.828333	1291.264648	117.878441
9204.132979	4803.828333	1290.162109	-5.241891
9204.132979	4803.828333	1289.060547	167.943085
9204.132979	4803.828333	1287.958008	46.967152
9204.132979	4803.828333	1286.855469	41.117706
9204.132979	4803.828333	1285.752930	9.266878
9204.132979	4803.828333	1284.650391	73.698898
9204.132979	4803.828333	1283.546875	9.858495
9204.132979	4803.828333	1282.444336	-2.744667
9204.132979	4803.828333	1281.339844	48.594585
9204.132979	4803.828333	1280.236328	235.527634
9204.132979	4803.828333	1279.132813	137.324921
9204.132979	4803.828333	1278.028320	82.965866
9204.132979	4803.828333	1276.923828	60.285133
9204.132979	4803.828333	1275.819336	-122.226967
9204.132979	4803.828333	1274.713867	162.032059
9204.132979	4803.828333	1273.608398	55.580467
9204.132979	4803.828333	1272.503906	93.778732
9204.132979	4803.828333	1271.397461	35.460690
9204.132979	4803.828333	1270.291992	34.374668
9204.132979	4803.828333	1269.185547	60.373638
9204.132979	4803.828333	1268.080078	35.493423
9204.132979	4803.828333	1266.972656	187.455643
9204.132979	4803.828333	1265.866211	2.913316
9204.132979	4803.828333	1264.759766	-33.121796
9204.132979	4803.828333	1263.652344	54.556408
9204.132979	4803.828333	1262.544922	106.001251
9204.132979	4803.828333	1261.436523	-84.192467
9204.132979	4803.828333	1260.329102	-52.029049
9204.132979	4803.828333	1259.220703	-29.753546
9204.132979	4803.828333	1258.112305	47.495945
9204.132979	4803.828333	1257.003906	-79.943581
9204.132979	4803.828333	1255.895508	-134.839615
9204.132979	4803.828333	1254.786133	-82.763367
9204.132979	4803.828333	1253.676758	-18.389069
9204.132979	4803.828333	1252.567383	-92.203445
9204.132979	4803.828333	1251.458008	-227.634140
9204.132979	4803.828333	1250.347656	-79.368073
9204.132979	4803.828333	1249.237305	-75.068245
9204.132979	4803.828333	1248.126953	-151.876663
9204.132979	4803.828333	1247.016602	-151.775131
9204.132979	4803.828333	1245.905273	8.137288
9204.132979	4803.828333	1244.793945	-111.149055
9204.132979	4803.828333	1243.682617	149.510956
9204.132979	4803.828333	1242.571289	186.400146
9204.132979	4803.828333	1241.459961	132.491257
9204.132979	4803.828333	1240.347656	202.499237
9204.132979	4803.828333	1239.235352	217.943741
9204.132979	4803.828333	1238.123047	84.093422
9204.132979	4803.828333	1237.009766	123.021614
9204.132979	4803.828333	1235.897461	84.102509
9204.132979	4803.828333	1234.784180	82.193573
9204.132979	4803.828333	1233.670898	-34.638626
9204.132979	4803.828333	1232.556641	27.943384
9204.132979	4803.828333	1231.443359	-22.694469
9204.132979	4803.828333	1230.329102	-37.067776
9204.132979	4803.828333	1229.214844	-11.475196
9204.132979	4803.828333	1228.099609	147.943207
9204.132979	4803.828333	1226.985352	43.840015
9204.132979	4803.828333	1225.870117	-11.538662
9204.132979	4803.828333	1224.754883	11.234617
9204.132979	4803.828333	1223.639648	89.700035
9204.132979	4803.828333	1222.523438	155.188187
9204.132979	4803.828333	1221.408203	157.627167
9204.132979	4803.828333	1220.291992	107.632614
9204.132979	4803.828333	1219.174805	148.312576
9204.132979	4803.828333	1218.058594	203.174774
9204.132979	4803.828333	1216.941406	187.647797
9204.132979	4803.828333	1215.824219	138.067398
9204.132979	4803.828333	1214.707031	256.056793
9204.132979	4803.828333	1213.589844	232.994507
9204.132979	4803.828333	1212.471680	96.094940
9204.132979	4803.828333	1211.353516	85.074219
9204.132979	4803.828333	1210.235352	93.721092
9204.132979	4803.828333	1209.117188	160.453201
9204.132979	4803.828333	1207.998047	49.295425
9204.132979	4803.828333	1206.878906	55.141685
9204.132979	4803.828333	1205.759766	68.271461
9204.132979	4803.828333	1204.640625	9.331920
9204.132979	4803.828333	1203.520508	23.275600
9204.132979	4803.828333	1202.401367	-84.387962
9204.132979	4803.828333	1201.281250	30.373075
9204.132979	4803.828333	1200.160156	-79.280975
9204.132979	4803.828333	1199.040039	-107.743317
9204.132979	4803.828333	1197.918945	-90.135506
9204.132979	4803.828333	1196.797852	-85.152809
9204.132979	4803.828333	1195.676758	-59.015232
9204.132979	4803.828333	1194.555664	100.995697
9204.132979	4803.828333	1193.433594	-14.075774
9204.132979	4803.828333	1192.311523	-79.450241
9204.132979	4803.828333	1191.189453	-14.423380
9204.132979	4803.828333	1190.066406	-23.582821
9204.132979	4803.828333	1188.944336	-51.362499
9204.132979	4803.828333	1187.821289	-60.803146
9204.132979	4803.828333	1186.698242	-52.850361
9204.132979	4803.828333	1185.574219	-23.343777
9204.132979	4803.828333	1184.451172	-99.373932
9204.132979	4803.828333	1183.327148	-75.656960
9204.132979	4803.828333	1182.203125	-73.703812
9204.132979	4803.828333	1181.078125	-81.797546
9204.132979	4803.828333	1179.954102	20.120390
9204.132979	4803.828333	1178.829102	-71.428482
9204.132979	4803.828333	1177.704102	-108.232368
9204.132979	4803.828333	1176.579102	-191.510254
9204.132979	4803.828333	1175.453125	-112.849937
9204.132979	4803.828333	1174.327148	-88.137711
9204.132979	4803.828333	1173.201172	-72.147713
9204.132979	4803.828333	1172.075195	-143.227814
9204.132979	4803.828333	1170.949219	7.092968
9204.132979	4803.828333	1169.822266	74.073929
9204.132979	4803.828333	1168.695313	-34.047588
9204.132979	4803.828333	1167.568359	-68.934372
9204.132979	4803.828333	1166.440430	-32.207565
9204.132979	4803.828333	1165.313477	-126.040512
9204.132979	4803.828333	1164.185547	-72.819359
9204.132979	4803.828333	1163.057617	-151.598633
9204.132979	4803.828333	1161.928711	-31.269064
9204.132979	4803.828333	1160.800781	-7.976488
9204.132979	4803.828333	1159.671875	29.532454
9204.132979	4803.828333	1158.541992	-45.878696
9204.132979	4803.828333	1157.413086	-18.471357
9204.132979	4803.828333	1156.283203	-65.775490
9204.132979	4803.828333	1155.154297	62.109692
9204.132979	4803.828333	1154.023438	-0.018790
9204.132979	4803.828333	1152.893555	104.136955
9204.132979	4803.828333	1151.763672	-31.013117
9204.132979	4803.828333	1150.632813	-79.904846
9204.132979	4803.828333	1149.501953	21.326969
9204.132979	4803.828333	1148.370117	93.053589
9204.132979	4803.828333	1147.239258	34.358250
9204.132979	4803.828333	1146.107422	63.636417
9204.132979	4803.828333	1144.975586	10.292949
9204.132979	4803.828333	1143.843750	129.605560
9204.132979	4803.828333	1142.710938	49.628017
9204.132979	4803.828333	1141.578125	112.457649
9204.132979	4803.828333	1140.445313	-48.930069
9204.132979	4803.828333	1139.312500	-13.273522
9204.132979	4803.828333	1138.178711	-145.722137
9204.132979	4803.828333	1137.045898	12.004555
9204.132979	4803.828333	1135.912109	62.855831
9204.132979	4803.828333	1134.777344	35.178215
9204.132979	4803.828333	1133.643555	-131.171509
9204.132979	4803.828333	1132.508789	27.577578
9204.132979	4803.828333	1131.374023	97.802834
9204.132979	4803.828333	1130.239258	100.396759
9204.132979	4803.828333	1129.104492	83.779686
9204.132979	4803.828333	1127.968750	47.294693
9204.132979	4803.828333	1126.833008	34.087299
9204.132979	4803.828333	1125.697266	105.604706
9204.132979	4803.828333	1124.560547	87.949203
9204.132979	4803.828333	1123.424805	36.529789
9204.132979	4803.828333	1122.288086	83.838684
9204.132979	4803.828333	1121.151367	-12.864196
9204.132979	4803.828333	1120.013672	107.887123
9204.132979	4803.828333	1118.876953	40.321659
9204.132979	4803.828333	1117.739258	106.817703
9204.132979	4803.828333	1116.601563	11.504400
9204.132979	4803.828333	1115.462891	-4.252440
9204.132979	4803.828333	1114.324219	-46.044796
9204.132979	4803.828333	1113.186523	41.707325
9204.132979	4803.828333	1112.046875	30.198915
9204.132979	4803.828333	1110.908203	86.253510
9204.132979	4803.828333	1109.769531	130.129944
9204.132979	4803.828333	1108.629883	31.662642
9204.132979	4803.828333	1107.490234	5.259800
9204.132979	4803.828333	1106.349609	9.997499
9204.132979	4803.828333	1105.209961	1.272376
9204.132979	4803.828333	1104.069336	119.854744
9204.132979	4803.828333	1102.928711	-12.850995
9204.132979	4803.828333	1101.787109	-22.377247
9204.132979	4803.828333	1100.646484	-72.128922
9204.132979	4803.828333	1099.504883	37.298389
9204.132979	4803.828333	1098.363281	-47.159554
9204.132979	4803.828333	1097.221680	189.881546
9204.132979	4803.828333	1096.079102	21.608919
9204.132979	4803.828333	1094.936523	148.694733
9204.132979	4803.828333	1093.793945	112.748383
9204.132979	4803.828333	1092.651367	135.216202
9204.132979	4803.828333	1091.507813	165.085648
9204.132979	4803.828333	1090.364258	154.885406
9204.132979	4803.828333	1089.220703	-58.833668
9204.132979	4803.828333	1088.077148	47.852783
9204.132979	4803.828333	1086.933594	49.434071
9204.132979	4803.828333	1085.789063	201.458069
9204.132979	4803.828333	1084.644531	9.515660
9204.132979	4803.828333	1083.499023	120.060913
9204.132979	4803.828333	1082.354492	-57.546097
9204.132979	4803.828333	1081.208984	9.586116
9204.132979	4803.828333	1080.063477	121.368347
9204.132979	4803.828333	1078.917969	90.995995
9204.132979	4803.828333	1077.771484	96.098808
9204.132979	4803.828333	1076.625977	-9.366205
9204.132979	4803.828333	1075.479492	130.656769
9204.132979	4803.828333	1074.332031	99.011017
9204.132979	4803.828333	1073.185547	112.395859
9204.132979	4803.828333	1072.038086	1.189260
9204.132979	4803.828333	1070.890625	134.182114
9204.132979	4803.828333	1069.743164	45.630356
9204.132979	4803.828333	1068.594727	139.159698
9204.132979	4803.828333	1067.447266	67.893562
9204.132979	4803.828333	1066.298828	83.884460
9204.132979	4803.828333	1065.149414	176.026001
9204.132979	4803.828333	1064.000977	43.668293
9204.132979	4803.828333	1062.851563	54.568348
9204.132979	4803.828333	1061.702148	79.838539
9204.132979	4803.828333	1060.552734	36.296871
9204.132979	4803.828333	1059.402344	157.143082
9204.132979	4803.828333	1058.252930	69.401360
9204.132979	4803.828333	1057.102539	104.480843
9204.132979	4803.828333	1055.951172	144.358643
9204.132979	4803.828333	1054.800781	43.808571
9204.132979	4803.828333	1053.649414	200.279205
9204.132979	4803.828333	1052.498047	59.429039
9204.132979	4803.828333	1051.346680	-46.955193
9204.132979	4803.828333	1050.194336	-32.078663
9204.132979	4803.828333	1049.042969	-25.992516
9204.132979	4803.828333	1047.890625	11.823874
9204.132979	4803.828333	1046.738281	41.095024
9204.132979	4803.828333	1045.584961	-18.130913
9204.132979	4803.828333	1044.431641	66.261742
9204.132979	4803.828333	1043.278320	11.397656
9204.132979	4803.828333	1042.125000	-27.869015
9204.132979	4803.828333	1040.971680	-60.043484
9204.132979	4803.828333	1039.817383	32.395458
9204.132979	4803.828333	1038.663086	17.075808
9204.132979	4803.828333	1037.508789	120.563644
9204.132979	4803.828333	1036.353516	134.362061
9204.132979	4803.828333	1035.198242	48.977528
9204.132979	4803.828333	1034.042969	70.373108
9204.132979	4803.828333	1032.887695	238.199860
9204.132979	4803.828333	1031.732422	-13.570874
9204.132979	4803.828333	1030.576172	18.123003
9204.132979	4803.828333	1029.419922	149.750473
9204.132979	4803.828333	1028.263672	248.295120
9204.132979	4803.828333	1027.106445	54.693962
9204.132979	4803.828333	1025.949219	15.967813
9204.132979	4803.828333	1024.792969	101.047218
9204.132979	4803.828333	1023.634766	59.380512
9204.132979	4803.828333	1022.477539	6.598341
9204.132979	4803.828333	1021.319336	12.876713
9204.132979	4803.828333	1020.161133	20.396202
9204.132979	4803.828333	1019.002930	39.622330
9204.132979	4803.828333	1017.843750	31.770308
9204.132979	4803.828333	1016.684570	-7.164286
9204.132979	4803.828333	1015.525391	33.322155
9204.132979	4803.828333	1014.366211	-35.943523
9204.132979	4803.828333	1013.207031	-24.534855
9204.132979	4803.828333	1012.046875	73.741325
9204.132979	4803.828333	1010.886719	-21.637392
9204.132979	4803.828333	1009.726563	-40.731354
9204.132979	4803.828333	1008.565430	-89.679474
9204.132979	4803.828333	1007.404297	27.315720
9204.132979	4803.828333	1006.243164	28.279327
9204.132979	4803.828333	1005.082031	-221.401245
9204.132979	4803.828333	1003.920898	-70.724342
9204.132979	4803.828333	1002.758789	10.946931
9204.132979	4803.828333	1001.596680	141.307098
9204.132979	4803.828333	1000.433594	66.258179
9204.132979	4803.828333	999.271484	47.584133
9204.132979	4803.828333	998.108398	-7.642688
9204.132979	4803.828333	996.945313	19.463715
9204.132979	4803.828333	995.782227	42.184792
9204.132979	4803.828333	994.618164	70.492287
9204.132979	4803.828333	993.454102	153.599899
9204.132979	4803.828333	992.290039	50.235832
9204.132979	4803.828333	991.125977	89.847076
9204.132979	4803.828333	989.960938	309.637268
9204.132979	4803.828333	988.796875	312.730988
9204.132979	4803.828333	987.630859	172.322159
9204.132979	4803.828333	986.465820	203.852997
9204.132979	4803.828333	985.300781	261.950928
9204.132979	4803.828333	984.134766	46.094463
9204.132979	4803.828333	982.968750	235.288879
9204.132979	4803.828333	981.801758	132.001862
9204.132979	4803.828333	980.635742	163.469040
9204.132979	4803.828333	979.468750	61.958099
9204.132979	4803.828333	978.301758	188.887009
9204.132979	4803.828333	977.133789	57.123791
9204.132979	4803.828333	975.966797	37.451027
9204.132979	4803.828333	974.798828	28.033789
9204.132979	4803.828333	973.630859	-45.013641
9204.132979	4803.828333	972.461914	80.362770
9204.132979	4803.828333	971.293945	8.941277
9204.132979	4803.828333	970.125000	-3.367041
9204.132979	4803.828333	968.956055	41.375389
9204.132979	4803.828333	967.786133	54.063370
9204.132979	4803.828333	966.617188	130.112442
9204.132979	4803.828333	965.447266	-99.731911
9204.132979	4803.828333	964.276367	19.864922
9204.132979	4803.828333	963.106445	-67.253220
9204.132979	4803.828333	961.935547	29.292843
9204.132979	4803.828333	960.764648	3.604818
9204.132979	4803.828333	959.593750	18.421171
9204.132979	4803.828333	958.422852	-98.028419
9204.132979	4803.828333	957.250977	133.049683
9204.132979	4803.828333	956.079102	-39.725712
9204.132979	4803.828333	954.907227	14.508879
9204.132979	4803.828333	953.734375	87.369804
9204.132979	4803.828333	952.562500	-46.669552
9204.132979	4803.828333	951.389648	-55.637409
9204.132979	4803.828333	950.215820	-96.434982
9204.132979	4803.828333	949.042969	-66.951637
9204.132979	4803.828333	947.869141	103.518730
9204.132979	4803.828333	946.695313	-95.366417
9204.132979	4803.828333	945.521484	-75.971184
9204.132979	4803.828333	944.346680	-80.440010
9204.132979	4803.828333	943.172852	24.240627
9204.132979	4803.828333	941.998047	206.865616
9204.132979	4803.828333	940.822266	-11.590285
9204.132979	4803.828333	939.647461	15.392348
9204.132979	4803.828333	938.471680	-62.098186
9204.132979	4803.828333	937.295898	101.045326
9204.132979	4803.828333	936.119141	42.997204
9204.132979	4803.828333	934.943359	247.240311
9204.132979	4803.828333	933.766602	96.708580
9204.132979	4803.828333	932.589844	79.935020
9204.132979	4803.828333	931.413086	70.428574
9204.132979	4803.828333	930.235352	77.873779
9204.132979	4803.828333	929.057617	163.107361
9204.132979	4803.828333	927.879883	250.712479
9204.132979	4803.828333	926.702148	173.073059
9204.132979	4803.828333	925.523438	-23.560488
9204.132979	4803.828333	924.344727	-84.111168
9204.132979	4803.828333	923.166016	141.876709
9204.132979	4803.828333	921.987305	98.286591
9204.132979	4803.828333	920.807617	40.146679
9204.132979	4803.828333	919.627930	41.650192
9204.132979	4803.828333	919.497070	-243.517319
9204.132979	4803.828333	918.331055	62.368118
9204.132979	4803.828333	917.165039	72.158592
9204.132979	4803.828333	915.999023	-129.074005
9204.132979	4803.828333	914.833008	-36.811020
9204.132979	4803.828333	913.666016	-24.596531
9204.132979	4803.828333	912.499023	-17.239767
9204.132979	4803.828333	911.332031	4.649022
9204.132979	4803.828333	910.165039	-121.277237
9204.132979	4803.828333	908.997070	-48.511871
9204.132979	4803.828333	907.830078	-14.534247
9204.132979	4803.828333	906.661133	2.476701
9204.132979	4803.828333	905.493164	-62.838978
9204.132979	4803.828333	904.325195	70.349586
9204.132979	4803.828333	903.156250	-4.641394
9204.132979	4803.828333	901.987305	-74.767136
9204.132979	4803.828333	900.818359	60.749779
9204.132979	4803.828333	899.648438	-113.365280
9204.132979	4803.828333	898.478516	-31.100237
9204.132979	4803.828333	897.308594	55.962452
9204.132979	4803.828333	896.138672	-105.972069
9204.132979	4803.828333	894.968750	169.555252
9204.132979	4803.828333	893.797852	-88.986610
9204.132979	4803.828333	892.626953	34.236214
9204.132979	4803.828333	891.456055	176.725708
9204.132979	4803.828333	890.284180	17.329287
9204.132979	4803.828333	889.113281	-4.402586
9204.132979	4803.828333	887.941406	-178.186325
9204.132979	4803.828333	886.768555	31.785238
9204.132979	4803.828333	885.596680	70.369720
9204.132979	4803.828333	884.423828	120.996178
9204.132979	4803.828333	883.250977	41.370056
9204.132979	4803.828333	882.078125	12.406905
9204.132979	4803.828333	880.905273	123.270813
9204.132979	4803.828333	879.731445	212.395050
9204.132979	4803.828333	878.557617	180.995773
9204.132979	4803.828333	877.383789	-26.263885
9204.132979	4803.828333	876.209961	125.451515
9204.132979	4803.828333	875.035156	48.324726
9204.132979	4803.828333	873.860352	26.602695
9204.132979	4803.828333	872.685547	-48.072491
9204.132979	4803.828333	871.510742	-14.417635
9204.132979	4803.828333	870.334961	151.562500
9204.132979	4803.828333	869.159180	-81.879303
9204.132979	4803.828333	867.983398	-16.979868
9204.132979	4803.828333	866.807617	11.817920
9204.132979	4803.828333	865.630859	-0.270034
9204.132979	4803.828333	864.454102	76.581818
9204.132979	4803.828333	863.277344	122.156647
9204.132979	4803.828333	862.100586	-5.290689
9204.132979	4803.828333	860.922852	-5.367554
9204.132979	4803.828333	859.745117	32.980602
9204.132979	4803.828333	858.567383	90.519363
9204.132979	4803.828333	857.389648	56.800438
9204.132979	4803.828333	856.210938	92.701797
9204.132979	4803.828333	855.032227	51.790188
9204.132979	4803.828333	853.853516	6.092903
9204.132979	4803.828333	852.674805	-73.173805
9204.132979	4803.828333	851.495117	5.880201
9204.132979	4803.828333	850.315430	-102.134865
9204.132979	4803.828333	849.135742	12.843918
9204.132979	4803.828333	847.956055	115.787666
9204.132979	4803.828333	846.775391	175.550354
9204.132979	4803.828333	845.595703	158.615204
9204.132979	4803.828333	844.415039	-71.505562
9204.132979	4803.828333	843.233398	50.513638
9204.132979	4803.828333	842.052734	-76.540756
9204.132979	4803.828333	840.871094	-19.215626
9204.132979	4803.828333	839.689453	14.146603
9204.132979	4803.828333	838.506836	-67.369186
9204.132979	4803.828333	837.325195	9.043003
9204.132979	4803.828333	836.142578	-62.880566
9204.132979	4803.828333	834.959961	51.753040
9204.132979	4803.828333	833.777344	-17.769672
9204.132979	4803.828333	832.593750	-92.049408
9204.132979	4803.828333	831.410156	-65.925644
9204.132979	4803.828333	830.226563	0.802649
9204.132979	4803.828333	829.042969	74.664650
9204.132979	4803.828333	827.858398	-90.358337
9204.132979	4803.828333	826.673828	14.524558
9204.132979	4803.828333	825.489258	11.920144
9204.132979	4803.828333	824.304688	-38.430515
9204.132979	4803.828333	823.120117	52.037868
9204.132979	4803.828333	821.934570	-0.698822
9204.132979	4803.828333	820.749023	113.567299
9204.132979	4803.828333	819.562500	25.050875
9204.132979	4803.828333	818.376953	27.175665
9204.132979	4803.828333	817.190430	-97.062500
9204.132979	4803.828333	816.003906	-149.749680
9204.132979	4803.828333	814.817383	-121.398232
9204.132979	4803.828333	813.629883	130.897339
9204.132979	4803.828333	812.442383	-52.842567
9204.132979	4803.828333	811.254883	13.553273
9204.132979	4803.828333	810.067383	-103.432419
9204.132979	4803.828333	808.878906	1.019897
9204.132979	4803.828333	807.690430	53.057095
9204.132979	4803.828333	806.501953	-32.955288
9204.132979	4803.828333	805.313477	76.148575
9204.132979	4803.828333	804.124023	-81.210266
9204.132979	4803.828333	802.934570	113.453468
9204.132979	4803.828333	801.745117	55.994553
9204.132979	4803.828333	800.555664	-39.486130
9204.132979	4803.828333	799.365234	-99.286331
9204.132979	4803.828333	798.175781	92.803070
9204.132979	4803.828333	796.985352	-126.193108
9204.132979	4803.828333	795.793945	-24.456249
9204.132979	4803.828333	794.603516	-13.012065
9204.132979	4803.828333	793.412109	26.906883
9204.132979	4803.828333	792.220703	104.777138
9204.132979	4803.828333	791.028320	4.611423
9204.132979	4803.828333	789.836914	44.466129
9204.132979	4803.828333	788.644531	1.263884
9204.132979	4803.828333	787.452148	5.501761
9204.132979	4803.828333	786.258789	-66.154732
9204.132979	4803.828333	785.066406	40.012970
9204.132979	4803.828333	783.873047	46.571945
9204.132979	4803.828333	782.679688	41.265385
9204.132979	4803.828333	781.485352	-61.193405
9204.132979	4803.828333	780.291992	-12.020825
9204.132979	4803.828333	779.097656	141.323715
9204.132979	4803.828333	777.903320	95.692352
9204.132979	4803.828333	776.708008	69.004379
9204.132979	4803.828333	775.512695	-76.030144
9204.132979	4803.828333	774.318359	29.813040
9204.132979	4803.828333	773.122070	81.182884
9204.132979	4803.828333	771.926758	146.706787
9204.132979	4803.828333	770.730469	124.687363
9204.132979	4803.828333	769.534180	121.575935
9204.132979	4803.828333	768.337891	14.437182
9204.132979	4803.828333	767.141602	181.480804
9204.132979	4803.828333	765.944336	312.994141
9204.132979	4803.828333	764.747070	354.663391
9204.132979	4803.828333	763.549805	360.868225
9204.132979	4803.828333	762.351563	367.052612
9204.132979	4803.828333	761.154297	373.215393
9204.132979	4803.828333	759.956055	358.113556
9204.132979	4803.828333	758.757813	394.917725
9204.132979	4803.828333	757.558594	410.452240
9204.132979	4803.828333	756.359375	423.601685
9204.132979	4803.828333	755.160156	321.159698
9204.132979	4803.828333	753.960938	388.516205
9204.132979	4803.828333	752.761719	168.207962
9204.132979	4803.828333	751.561523	358.091492
9204.132979	4803.828333	750.361328	352.283813
9204.132979	4803.828333	749.160156	285.200012
9204.132979	4803.828333	747.959961	423.054565
9204.132979	4803.828333	746.758789	450.142120
9204.132979	4803.828333	745.557617	397.141357
9204.132979	4803.828333	744.356445	424.177948
9204.132979	4803.828333	743.154297	255.833862
9204.132979	4803.828333	741.952148	381.672546
9204.132979	4803.828333	740.750000	295.701538
9204.132979	4803.828333	739.547852	205.038742
9204.132979	4803.828333	738.344727	264.892914
9204.132979	4803.828333	737.142578	258.865662
9204.132979	4803.828333	735.939453	231.660965
9204.132979	4803.828333	734.735352	101.036781
9204.132979	4803.828333	733.532227	-17.809988
9204.132979	4803.828333	732.328125	58.346996
9204.132979	4803.828333	731.124023	204.906342
9204.132979	4803.828333	729.918945	-21.981384
9204.132979	4803.828333	728.714844	150.305679
9204.132979	4803.828333	727.509766	66.649460
9204.132979	4803.828333	726.303711	154.310394
9204.132979	4803.828333	725.098633	248.946091
9204.132979	4803.828333	723.892578	148.819229
9204.132979	4803.828333	722.686523	-19.304716
9204.132979	4803.828333	721.480469	54.121346
9204.132979	4803.828333	720.274414	-50.674824
9204.132979	4803.828333	719.067383	8.606563
9204.132979	4803.828333	717.860352	42.058697
9204.132979	4803.828333	716.653320	-147.096512
9204.132979	4803.828333	715.445313	-22.336201
9204.132979	4803.828333	714.238281	-96.710808
9204.132979	4803.828333	713.030273	72.411087
9204.132979	4803.828333	711.821289	89.278671
9204.132979	4803.828333	710.613281	-62.394672
9204.132979	4803.828333	709.404297	57.384640
9204.132979	4803.828333	708.195313	13.328171
9204.132979	4803.828333	706.986328	189.110962
9204.132979	4803.828333	705.776367	-112.237930
9204.132979	4803.828333	704.566406	77.459908
9204.132979	4803.828333	703.356445	150.176910
9204.132979	4803.828333	702.146484	-10.858167
9204.132979	4803.828333	700.935547	-3.638340
9204.132979	4803.828333	699.724609	141.363083
9204.132979	4803.828333	698.513672	232.556030
9204.132979	4803.828333	697.302734	15.467125
9204.132979	4803.828333	696.090820	50.553455
9204.132979	4803.828333	694.878906	162.610870
9204.132979	4803.828333	693.666992	157.914536
9204.132979	4803.828333	692.455078	97.193756
9204.132979	4803.828333	691.242188	157.751694
9204.132979	4803.828333	690.029297	197.261261
9204.132979	4803.828333	688.816406	106.155373
9204.132979	4803.828333	687.602539	-3.596853
9204.132979	4803.828333	686.389648	198.950516
9204.132979	4803.828333	685.175781	259.244659
9204.132979	4803.828333	683.960938	123.795563
9204.132979	4803.828333	682.747070	172.362335
9204.132979	4803.828333	681.532227	88.143463
9204.132979	4803.828333	680.317383	218.104614
9204.132979	4803.828333	679.102539	105.906761
9204.132979	4803.828333	677.886719	170.575943
9204.132979	4803.828333	676.670898	230.527130
9204.132979	4803.828333	675.455078	132.240662
9204.132979	4803.828333	674.239258	194.424881
9204.132979	4803.828333	673.022461	240.267822
9204.132979	4803.828333	671.805664	230.262268
9204.132979	4803.828333	670.588867	190.009125
9204.132979	4803.828333	669.372070	214.795898
9204.132979	4803.828333	668.154297	325.489746
9204.132979	4803.828333	666.936523	173.636246
9204.132979	4803.828333	665.718750	316.724609
9204.132979	4803.828333	664.500977	208.970978
9204.132979	4803.828333	663.282227	328.699951
9204.132979	4803.828333	662.063477	295.172150
9204.132979	4803.828333	660.844727	298.742493
9204.132979	4803.828333	659.625000	313.868713
9204.132979	4803.828333	658.405273	217.625534
9204.132979	4803.828333	657.185547	174.714050
9204.132979	4803.828333	655.965820	382.153259
9204.132979	4803.828333	654.745117	91.142517
9204.132979	4803.828333	653.525391	238.182266
9204.132979	4803.828333	652.303711	51.498657
9204.132979	4803.828333	651.083008	80.271194
9204.132979	4803.828333	649.861328	67.304863
9204.132979	4803.828333	648.640625	91.350815
9204.132979	4803.828333	647.417969	115.342407
9204.132979	4803.828333	646.196289	95.312561
9204.132979	4803.828333	644.973633	121.525986
9204.132979	4803.828333	643.750977	138.433807
9204.132979	4803.828333	642.528320	150.668823
9204.132979	4803.828333	641.305664	158.232986
9204.132979	4803.828333	640.082031	119.513420
9204.132979	4803.828333	638.858398	277.239197
9204.132979	4803.828333	637.634766	90.530479
9204.132979	4803.828333	636.410156	70.209320
9204.132979	4803.828333	635.185547	45.235905
9204.132979	4803.828333	633.960938	13.304118
9204.132979	4803.828333	632.736328	221.477493
9204.132979	4803.828333	631.510742	129.418365
9204.132979	4803.828333	630.285156	53.513294
9204.132979	4803.828333	629.059570	35.287270
9204.132979	4803.828333	627.833984	169.291168
9204.132979	4803.828333	626.607422	35.639824
9204.132979	4803.828333	625.380859	-1.142308
9204.132979	4803.828333	624.154297	21.994675
9204.132979	4803.828333	622.927734	-10.239151
9204.132979	4803.828333	621.700195	81.944321
9204.132979	4803.828333	620.472656	167.136078
9204.132979	4803.828333	619.245117	79.483711
9204.132979	4803.828333	618.016602	100.071175
9204.132979	4803.828333	616.788086	-63.597851
9204.132979	4803.828333	615.559570	251.603271
9204.132979	4803.828333	614.331055	-8.775978
9204.132979	4803.828333	613.101563	-84.995018
9204.132979	4803.828333	611.872070	-18.580761
9204.132979	4803.828333	610.642578	-48.840633
9204.132979	4803.828333	609.413086	84.150368
9204.132979	4803.828333	608.182617	53.801682
9204.132979	4803.828333	606.952148	69.400993
9204.132979	4803.828333	605.721680	50.482716
9204.132979	4803.828333	604.491211	114.252136
9204.132979	4803.828333	603.259766	-132.172394
9204.132979	4803.828333	602.028320	-91.437134
9204.132979	4803.828333	600.796875	4.353684
9204.132979	4803.828333	599.564453	-3.246118
9204.132979	4803.828333	598.332031	51.092907
9204.132979	4803.828333	597.099609	-117.222237
9204.132979	4803.828333	595.867188	-23.952011
9204.132979	4803.828333	594.633789	-61.508495
9204.132979	4803.828333	593.400391	-94.497643
9204.132979	4803.828333	592.166992	-33.502666
9204.132979	4803.828333	590.933594	66.400581
9204.132979	4803.828333	589.699219	122.677864
9204.132979	4803.828333	588.464844	282.007538
9204.132979	4803.828333	587.230469	-10.068067
9204.132979	4803.828333	585.995117	-20.338615
9204.132979	4803.828333	584.760742	-163.449905
9204.132979	4803.828333	583.525391	-68.438118
9204.132979	4803.828333	582.289063	-12.415289
9204.132979	4803.828333	581.053711	41.265434
9204.132979	4803.828333	579.817383	-53.829235
9204.132979	4803.828333	578.581055	2.056944
9204.132979	4803.828333	577.343750	35.014084
9204.132979	4803.828333	576.107422	-53.255096
9204.132979	4803.828333	574.870117	20.784710
9204.132979	4803.828333	573.631836	-21.802214
9204.132979	4803.828333	572.394531	58.993164
9204.132979	4803.828333	571.156250	4.932591
9204.132979	4803.828333	569.917969	160.997604
9204.132979	4803.828333	568.679688	250.743790
9204.132979	4803.828333	567.440430	146.357819
9204.132979	4803.828333	566.202148	23.730782
9204.132979	4803.828333	564.961914	-55.519638
9204.132979	4803.828333	563.722656	40.923328
9204.132979	4803.828333	562.482422	155.543823
9204.132979	4803.828333	561.243164	197.111069
9204.132979	4803.828333	560.001953	10.612139
9204.132979	4803.828333	558.761719	81.772270
9204.132979	4803.828333	557.520508	41.193134
9204.132979	4803.828333	556.279297	-58.640038
9204.132979	4803.828333	555.038086	32.913837
9204.132979	4803.828333	553.795898	117.566643
9204.132979	4803.828333	552.554688	74.639130
9204.132979	4803.828333	551.311523	6.654172
9204.132979	4803.828333	550.069336	148.094711
9204.132979	4803.828333	548.826172	-61.019344
9204.132979	4803.828333	547.583984	-78.939362
9204.132979	4803.828333	546.339844	48.705494
9204.132979	4803.828333	545.096680	108.049713
9204.132979	4803.828333	543.852539	83.212219
9204.132979	4803.828333	542.608398	37.905010
9204.132979	4803.828333	541.364258	13.053346
9204.132979	4803.828333	540.119141	-66.347832
9204.132979	4803.828333	538.875000	20.116322
9204.132979	4803.828333	537.628906	-82.007378
9204.132979	4803.828333	536.383789	-52.389816
9204.132979	4803.828333	535.137695	-27.347319
9204.132979	4803.828333	533.892578	-25.027945
9204.132979	4803.828333	532.645508	15.846426
9204.132979	4803.828333	531.399414	-97.598091
9204.132979	4803.828333	530.152344	-20.462584
9204.132979	4803.828333	528.905273	33.944538
9204.132979	4803.828333	527.658203	22.556343
9204.132979	4803.828333	526.410156	17.955509
9204.132979	4803.828333	525.163086	-56.915573
9204.132979	4803.828333	523.914063	-70.593468
9204.132979	4803.828333	522.666016	-59.353748
9204.132979	4803.828333	521.416992	-9.630188
9204.132979	4803.828333	520.167969	-204.513382
9204.132979	4803.828333	518.918945	-21.223640
9204.132979	4803.828333	517.669922	-71.174133
9204.132979	4803.828333	516.419922	-3.437572
9204.132979	4803.828333	515.169922	-155.214905
9204.132979	4803.828333	513.919922	-42.267986
9204.132979	4803.828333	512.668945	-60.559689
9204.132979	4803.828333	511.417969	-130.859833
9204.132979	4803.828333	510.166992	-94.887802
9204.132979	4803.828333	508.916016	-106.404022
9204.132979	4803.828333	507.664063	-9.462747
9204.132979	4803.828333	506.412109	-140.753250
9204.132979	4803.828333	505.160156	64.556290
9204.132979	4803.828333	503.907227	-80.263733
9204.132979	4803.828333	502.655273	-123.425659
9204.132979	4803.828333	501.402344	-24.372414
9204.132979	4803.828333	500.148438	88.167702
9204.132979	4803.828333	498.895508	26.920795
9204.132979	4803.828333	497.641602	-50.102028
9204.132979	4803.828333	496.387695	93.925003
9204.132979	4803.828333	495.132813	37.196938
9204.132979	4803.828333	493.878906	-15.000099
9204.132979	4803.828333	492.624023	97.347824
9204.132979	4803.828333	491.368164	-22.462828
9204.132979	4803.828333	490.113281	33.503437
9204.132979	4803.828333	488.857422	-18.681429
9204.132979	4803.828333	487.601563	-97.873421
9204.132979	4803.828333	486.344727	54.858181
9204.132979	4803.828333	485.088867	52.205135
9204.132979	4803.828333	483.832031	-24.723616
9204.132979	4803.828333	482.575195	10.875019
9204.132979	4803.828333	481.317383	-14.290035
9204.132979	4803.828333	480.059570	-5.714569
9204.132979	4803.828333	478.801758	54.566586
9204.132979	4803.828333	477.543945	114.814949
9204.132979	4803.828333	476.285156	-74.455505
9204.132979	4803.828333	475.027344	125.099617
9204.132979	4803.828333	473.767578	158.303360
9204.132979	4803.828333	472.508789	-6.169408
9204.132979	4803.828333	471.249023	98.891937
9204.132979	4803.828333	469.989258	17.551920
9204.132979	4803.828333	468.729492	79.896027
9204.132979	4803.828333	467.469727	45.704067
9204.132979	4803.828333	466.208984	-15.412667
9204.132979	4803.828333	464.948242	91.727875
9204.132979	4803.828333	463.686523	79.940994
9204.132979	4803.828333	462.425781	34.518070
9204.132979	4803.828333	461.164063	217.757202
9204.132979	4803.828333	459.901367	320.213287
9204.132979	4803.828333	458.639648	-0.895135
9204.132979	4803.828333	457.376953	130.658554
9204.132979	4803.828333	456.114258	237.500946
9204.132979	4803.828333	454.851563	95.713165
9204.132979	4803.828333	453.587891	101.729172
9204.132979	4803.828333	452.324219	92.054359
9204.132979	4803.828333	451.060547	256.919586
9204.132979	4803.828333	449.796875	70.418877
9204.132979	4803.828333	448.532227	228.458145
9204.132979	4803.828333	447.267578	57.648529
9204.132979	4803.828333	446.002930	59.056099
9204.132979	4803.828333	444.737305	55.961494
9204.132979	4803.828333	443.471680	122.124168
9204.132979	4803.828333	442.206055	185.994263
9204.132979	4803.828333	440.940430	-7.106544
9204.132979	4803.828333	439.673828	-61.682159
9204.132979	4803.828333	438.407227	118.201492
9204.132979	4803.828333	437.140625	166.249649
9204.132979	4803.828333	435.873047	49.059700
9204.132979	4803.828333	434.605469	21.143682
9204.132979	4803.828333	433.337891	151.607498
9204.132979	4803.828333	432.070313	-101.699394
9204.132979	4803.828333	430.801758	62.090473
9204.132979	4803.828333	429.533203	196.775070
9204.132979	4803.828333	428.264648	148.556168
9204.132979	4803.828333	426.996094	153.793640
9204.132979	4803.828333	425.726563	47.556610
9204.132979	4803.828333	424.457031	242.050552
9204.132979	4803.828333	423.186523	46.624115
9204.132979	4803.828333	421.916992	80.580612
9204.132979	4803.828333	420.646484	223.537735
9204.132979	4803.828333	419.375977	250.620667
9204.132979	4803.828333	418.104492	268.711151
9204.132979	4803.828333	416.833008	126.528542
9204.132979	4803.828333	415.561523	22.140829
9204.132979	4803.828333	414.290039	86.730194
9204.132979	4803.828333	413.017578	333.516571
9204.132979	4803.828333	411.746094	124.413734
9204.132979	4803.828333	410.472656	-115.818245
9204.132979	4803.828333	409.200195	-56.075871
9204.132979	4803.828333	407.926758	139.041397
9204.132979	4803.828333	406.653320	-45.820713
9204.132979	4803.828333	405.379883	129.007446
9204.132979	4803.828333	404.105469	-44.904968
9204.132979	4803.828333	402.831055	11.970448
9204.132979	4803.828333	401.556641	68.696037
9204.132979	4803.828333	400.282227	105.301292
9204.132979	4803.828333	399.006836	-17.953119
9204.132979	4803.828333	397.731445	173.607010
9204.132979	4803.828333	396.456055	47.890659
9204.132979	4803.828333	395.179688	110.486847
9204.132979	4803.828333	393.903320	-79.742348
9204.132979	4803.828333	392.626953	82.243950
9204.132979	4803.828333	391.350586	162.030411
9204.132979	4803.828333	390.073242	22.345119
9204.132979	4803.828333	388.795898	188.106155
9204.132979	4803.828333	387.518555	227.426071
9204.132979	4803.828333	386.240234	215.624313
9204.132979	4803.828333	384.961914	77.499771
9204.132979	4803.828333	383.683594	96.305099
9204.132979	4803.828333	382.405273	-99.657875
9204.132979	4803.828333	381.125977	-10.498237
9204.132979	4803.828333	379.846680	38.600384
9204.132979	4803.828333	378.567383	32.183910
9204.132979	4803.828333	377.287109	321.647583
9204.132979	4803.828333	376.006836	7.562076
9204.132979	4803.828333	374.726563	79.921532
9204.132979	4803.828333	373.446289	52.602669
9204.132979	4803.828333	372.165039	130.995743
9204.132979	4803.828333	370.883789	-11.679122
9204.132979	4803.828333	369.602539	88.189064
9204.132979	4803.828333	368.320313	-194.029251
9204.132979	4803.828333	367.039063	6.703301
9204.132979	4803.828333	365.755859	-51.045479
9204.132979	4803.828333	364.473633	-95.857216
9204.132979	4803.828333	363.190430	-32.973518
9204.132979	4803.828333	361.907227	-10.140996
9204.132979	4803.828333	360.624023	122.504250
9204.132979	4803.828333	359.340820	38.809776
9204.132979	4803.828333	358.056641	-177.404190
9204.132979	4803.828333	356.772461	-63.582867
9204.132979	4803.828333	355.487305	87.201271
9204.132979	4803.828333	354.202148	34.986969
9204.132979	4803.828333	352.916992	-8.829125
9204.132979	4803.828333	351.631836	-4.659215
9204.132979	4803.828333	350.346680	-64.737526
9204.132979	4803.828333	349.060547	-52.691185
9204.132979	4803.828333	347.774414	22.639450
9204.132979	4803.828333	346.487305	115.017082
9204.132979	4803.828333	345.200195	-26.128481
9204.132979	4803.828333	343.913086	-134.769638
9204.132979	4803.828333	342.625977	-43.973766
9204.132979	4803.828333	341.338867	94.557648
9204.132979	4803.828333	340.050781	41.398354
9204.132979	4803.828333	338.762695	224.800446
9204.132979	4803.828333	337.473633	80.452370
9204.132979	4803.828333	336.184570	65.038078
9204.132979	4803.828333	334.895508	-82.638573
9204.132979	4803.828333	333.606445	-9.338479
9204.132979	4803.828333	332.317383	168.543350
9204.132979	4803.828333	331.027344	27.720728
9204.132979	4803.828333	329.736328	72.579659
9204.132979	4803.828333	328.446289	121.114853
9204.132979	4803.828333	327.155273	46.172977
9204.132979	4803.828333	325.864258	36.239971
9204.132979	4803.828333	324.573242	-2.926888
9204.132979	4803.828333	323.281250	189.232376
9204.132979	4803.828333	321.989258	-116.463684
9204.132979	4803.828333	320.697266	-15.730559
9204.132979	4803.828333	319.405273	46.913170
9204.132979	4803.828333	318.112305	176.464935
9204.132979	4803.828333	316.819336	206.641632
9204.132979	4803.828333	315.526367	-98.694633
9204.132979	4803.828333	314.232422	-221.195129
9204.132979	4803.828333	312.938477	-75.722275
9204.132979	4803.828333	311.644531	145.204956
9204.132979	4803.828333	310.349609	240.465073
9204.132979	4803.828333	309.054688	146.795151
9204.132979	4803.828333	307.759766	191.899567
9204.132979	4803.828333	306.464844	87.435440
9204.132979	4803.828333	305.168945	145.620148
9204.132979	4803.828333	303.873047	289.964569
9204.132979	4803.828333	302.577148	365.455505
9204.132979	4803.828333	301.281250	352.476807
9204.132979	4803.828333	299.984375	235.755264
