#X		#Y		#Wave		#Intensity
10270.692553	5523.941667	1999.946289	-4.804729
10270.692553	5523.941667	1998.981445	21.353340
10270.692553	5523.941667	1998.017578	57.953217
10270.692553	5523.941667	1997.052734	104.524689
10270.692553	5523.941667	1996.088867	9.925863
10270.692553	5523.941667	1995.124023	-32.547459
10270.692553	5523.941667	1994.159180	-273.076172
10270.692553	5523.941667	1993.193359	38.757843
10270.692553	5523.941667	1992.228516	80.677551
10270.692553	5523.941667	1991.262695	120.167961
10270.692553	5523.941667	1990.296875	8.734591
10270.692553	5523.941667	1989.331055	-77.855934
10270.692553	5523.941667	1988.365234	73.144493
10270.692553	5523.941667	1987.398438	-8.367839
10270.692553	5523.941667	1986.432617	-10.659703
10270.692553	5523.941667	1985.465820	172.545883
10270.692553	5523.941667	1984.499023	98.629318
10270.692553	5523.941667	1983.532227	27.258835
10270.692553	5523.941667	1982.565430	37.511887
10270.692553	5523.941667	1981.597656	-70.791862
10270.692553	5523.941667	1980.629883	-230.889252
10270.692553	5523.941667	1979.662109	24.048267
10270.692553	5523.941667	1978.694336	2.359986
10270.692553	5523.941667	1977.726563	-58.784664
10270.692553	5523.941667	1976.758789	70.201736
10270.692553	5523.941667	1975.790039	-101.921234
10270.692553	5523.941667	1974.821289	78.914215
10270.692553	5523.941667	1973.852539	13.005569
10270.692553	5523.941667	1972.883789	102.551712
10270.692553	5523.941667	1971.915039	-108.780670
10270.692553	5523.941667	1970.945313	-48.774666
10270.692553	5523.941667	1969.975586	-107.095894
10270.692553	5523.941667	1969.005859	78.648003
10270.692553	5523.941667	1968.036133	-53.553894
10270.692553	5523.941667	1967.066406	151.871490
10270.692553	5523.941667	1966.096680	76.412285
10270.692553	5523.941667	1965.125977	190.652924
10270.692553	5523.941667	1964.155273	46.307686
10270.692553	5523.941667	1963.184570	-4.405734
10270.692553	5523.941667	1962.213867	-30.463919
10270.692553	5523.941667	1961.242188	-150.018600
10270.692553	5523.941667	1960.271484	-11.139345
10270.692553	5523.941667	1959.299805	98.182961
10270.692553	5523.941667	1958.328125	25.456547
10270.692553	5523.941667	1957.356445	14.254746
10270.692553	5523.941667	1956.384766	81.754425
10270.692553	5523.941667	1955.412109	-25.304327
10270.692553	5523.941667	1954.439453	22.538904
10270.692553	5523.941667	1953.467773	-45.126595
10270.692553	5523.941667	1952.495117	-4.645871
10270.692553	5523.941667	1951.521484	161.115112
10270.692553	5523.941667	1950.548828	19.807442
10270.692553	5523.941667	1949.575195	143.773697
10270.692553	5523.941667	1948.601563	81.105179
10270.692553	5523.941667	1947.627930	-25.718313
10270.692553	5523.941667	1946.654297	-39.233593
10270.692553	5523.941667	1945.680664	-101.813393
10270.692553	5523.941667	1944.706055	95.692848
10270.692553	5523.941667	1943.732422	-35.562782
10270.692553	5523.941667	1942.757813	191.295700
10270.692553	5523.941667	1941.783203	126.283508
10270.692553	5523.941667	1940.807617	-105.406731
10270.692553	5523.941667	1939.833008	-126.215675
10270.692553	5523.941667	1938.857422	149.513031
10270.692553	5523.941667	1937.881836	20.860065
10270.692553	5523.941667	1936.906250	191.121796
10270.692553	5523.941667	1935.930664	6.175642
10270.692553	5523.941667	1934.955078	51.485962
10270.692553	5523.941667	1933.978516	33.122429
10270.692553	5523.941667	1933.001953	-7.266830
10270.692553	5523.941667	1932.025391	-28.064098
10270.692553	5523.941667	1931.048828	105.304405
10270.692553	5523.941667	1930.072266	38.005234
10270.692553	5523.941667	1929.094727	-51.286423
10270.692553	5523.941667	1928.118164	-98.973938
10270.692553	5523.941667	1927.140625	48.966351
10270.692553	5523.941667	1926.163086	3.714890
10270.692553	5523.941667	1925.184570	9.805294
10270.692553	5523.941667	1924.207031	-111.189178
10270.692553	5523.941667	1923.228516	-29.347404
10270.692553	5523.941667	1922.250000	81.773827
10270.692553	5523.941667	1921.271484	-105.129547
10270.692553	5523.941667	1920.292969	-20.911360
10270.692553	5523.941667	1919.314453	31.528650
10270.692553	5523.941667	1918.334961	76.620598
10270.692553	5523.941667	1917.355469	31.384901
10270.692553	5523.941667	1916.375977	176.489243
10270.692553	5523.941667	1915.396484	-68.819611
10270.692553	5523.941667	1914.416992	15.252989
10270.692553	5523.941667	1913.436523	-115.327698
10270.692553	5523.941667	1912.457031	173.522598
10270.692553	5523.941667	1911.476563	-15.566089
10270.692553	5523.941667	1910.496094	61.084965
10270.692553	5523.941667	1909.515625	37.782150
10270.692553	5523.941667	1908.534180	60.771000
10270.692553	5523.941667	1907.552734	203.109192
10270.692553	5523.941667	1906.572266	53.110310
10270.692553	5523.941667	1905.590820	-14.047835
10270.692553	5523.941667	1904.608398	-88.495384
10270.692553	5523.941667	1903.626953	46.416611
10270.692553	5523.941667	1902.644531	76.615891
10270.692553	5523.941667	1901.663086	38.657719
10270.692553	5523.941667	1900.680664	85.852608
10270.692553	5523.941667	1899.698242	-8.061933
10270.692553	5523.941667	1898.714844	-131.137329
10270.692553	5523.941667	1897.732422	35.170067
10270.692553	5523.941667	1896.749023	-68.443558
10270.692553	5523.941667	1895.765625	-116.127365
10270.692553	5523.941667	1894.782227	81.637016
10270.692553	5523.941667	1893.798828	82.509575
10270.692553	5523.941667	1892.814453	22.638052
10270.692553	5523.941667	1891.831055	38.067238
10270.692553	5523.941667	1890.846680	-177.213852
10270.692553	5523.941667	1889.862305	-200.626724
10270.692553	5523.941667	1888.877930	-29.852217
10270.692553	5523.941667	1887.892578	-113.985802
10270.692553	5523.941667	1886.908203	-62.218868
10270.692553	5523.941667	1885.922852	-126.935562
10270.692553	5523.941667	1884.937500	-164.962601
10270.692553	5523.941667	1883.952148	158.357071
10270.692553	5523.941667	1882.965820	13.575416
10270.692553	5523.941667	1881.980469	137.922073
10270.692553	5523.941667	1880.994141	63.457096
10270.692553	5523.941667	1880.007813	18.084324
10270.692553	5523.941667	1879.021484	-187.197372
10270.692553	5523.941667	1878.035156	4.858942
10270.692553	5523.941667	1877.047852	-18.727116
10270.692553	5523.941667	1876.061523	1.265517
10270.692553	5523.941667	1875.074219	122.919182
10270.692553	5523.941667	1874.086914	53.283310
10270.692553	5523.941667	1873.098633	160.327667
10270.692553	5523.941667	1872.111328	-250.500977
10270.692553	5523.941667	1871.123047	120.223343
10270.692553	5523.941667	1870.135742	33.640839
10270.692553	5523.941667	1869.147461	-43.254234
10270.692553	5523.941667	1868.158203	87.800636
10270.692553	5523.941667	1867.169922	-18.119673
10270.692553	5523.941667	1866.180664	88.676262
10270.692553	5523.941667	1865.192383	-29.322546
10270.692553	5523.941667	1864.203125	149.881897
10270.692553	5523.941667	1863.213867	106.763054
10270.692553	5523.941667	1862.223633	-76.437057
10270.692553	5523.941667	1861.234375	114.693581
10270.692553	5523.941667	1860.244141	1.536603
10270.692553	5523.941667	1859.253906	-99.527237
10270.692553	5523.941667	1858.263672	-9.917008
10270.692553	5523.941667	1857.273438	69.988243
10270.692553	5523.941667	1856.282227	-69.687714
10270.692553	5523.941667	1855.291992	-13.960404
10270.692553	5523.941667	1854.300781	53.785011
10270.692553	5523.941667	1853.309570	114.252625
10270.692553	5523.941667	1852.317383	177.086639
10270.692553	5523.941667	1851.326172	-25.242001
10270.692553	5523.941667	1850.333984	56.833546
10270.692553	5523.941667	1849.342773	-37.019405
10270.692553	5523.941667	1848.350586	25.715115
10270.692553	5523.941667	1847.357422	88.406059
10270.692553	5523.941667	1846.365234	-39.172695
10270.692553	5523.941667	1845.372070	-72.833420
10270.692553	5523.941667	1844.379883	61.987881
10270.692553	5523.941667	1843.386719	6.619485
10270.692553	5523.941667	1842.393555	30.652411
10270.692553	5523.941667	1841.399414	-15.110182
10270.692553	5523.941667	1840.406250	191.669296
10270.692553	5523.941667	1839.412109	-58.553104
10270.692553	5523.941667	1838.417969	1.451400
10270.692553	5523.941667	1837.423828	162.371155
10270.692553	5523.941667	1836.429688	3.558559
10270.692553	5523.941667	1835.434570	92.284416
10270.692553	5523.941667	1834.440430	65.636574
10270.692553	5523.941667	1833.445313	-30.684074
10270.692553	5523.941667	1832.450195	115.567993
10270.692553	5523.941667	1831.454102	76.854904
10270.692553	5523.941667	1830.458984	100.551765
10270.692553	5523.941667	1829.462891	88.211861
10270.692553	5523.941667	1828.466797	150.245819
10270.692553	5523.941667	1827.470703	87.467957
10270.692553	5523.941667	1826.474609	-128.836716
10270.692553	5523.941667	1825.478516	50.653942
10270.692553	5523.941667	1824.481445	138.930191
10270.692553	5523.941667	1823.484375	-170.838425
10270.692553	5523.941667	1822.487305	-178.485046
10270.692553	5523.941667	1821.490234	103.834908
10270.692553	5523.941667	1820.493164	31.393747
10270.692553	5523.941667	1819.495117	97.904297
10270.692553	5523.941667	1818.498047	229.037125
10270.692553	5523.941667	1817.500000	173.301025
10270.692553	5523.941667	1816.500977	-16.523973
10270.692553	5523.941667	1815.502930	90.539505
10270.692553	5523.941667	1814.504883	125.734512
10270.692553	5523.941667	1813.505859	0.558863
10270.692553	5523.941667	1812.506836	38.097404
10270.692553	5523.941667	1811.507813	-108.595329
10270.692553	5523.941667	1810.508789	196.758835
10270.692553	5523.941667	1809.508789	11.778729
10270.692553	5523.941667	1808.508789	-8.198769
10270.692553	5523.941667	1807.508789	177.368195
10270.692553	5523.941667	1806.508789	33.042927
10270.692553	5523.941667	1805.508789	53.610458
10270.692553	5523.941667	1804.508789	43.087238
10270.692553	5523.941667	1803.507813	75.532364
10270.692553	5523.941667	1802.506836	93.608070
10270.692553	5523.941667	1801.505859	106.874748
10270.692553	5523.941667	1800.504883	249.011948
10270.692553	5523.941667	1799.502930	133.306213
10270.692553	5523.941667	1798.501953	-180.438080
10270.692553	5523.941667	1797.500000	23.615932
10270.692553	5523.941667	1796.498047	179.857208
10270.692553	5523.941667	1795.496094	21.209433
10270.692553	5523.941667	1794.493164	3.271501
10270.692553	5523.941667	1793.491211	-143.421448
10270.692553	5523.941667	1792.488281	-15.985956
10270.692553	5523.941667	1791.485352	142.349884
10270.692553	5523.941667	1790.482422	50.423832
10270.692553	5523.941667	1789.478516	13.289713
10270.692553	5523.941667	1788.475586	209.548370
10270.692553	5523.941667	1787.471680	241.394531
10270.692553	5523.941667	1786.467773	23.213520
10270.692553	5523.941667	1785.463867	-228.238953
10270.692553	5523.941667	1784.459961	-32.208145
10270.692553	5523.941667	1783.455078	-21.879633
10270.692553	5523.941667	1782.450195	-73.441216
10270.692553	5523.941667	1781.445313	65.270050
10270.692553	5523.941667	1780.440430	-5.375851
10270.692553	5523.941667	1779.435547	80.898285
10270.692553	5523.941667	1778.429688	-80.121574
10270.692553	5523.941667	1777.424805	-58.101543
10270.692553	5523.941667	1776.418945	111.205223
10270.692553	5523.941667	1775.413086	64.214630
10270.692553	5523.941667	1774.406250	17.207657
10270.692553	5523.941667	1773.400391	-172.307739
10270.692553	5523.941667	1772.393555	-64.975571
10270.692553	5523.941667	1771.386719	-7.572193
10270.692553	5523.941667	1770.379883	40.282162
10270.692553	5523.941667	1769.373047	40.622524
10270.692553	5523.941667	1768.365234	-11.271298
10270.692553	5523.941667	1767.358398	157.440094
10270.692553	5523.941667	1766.350586	-48.688465
10270.692553	5523.941667	1765.342773	53.499493
10270.692553	5523.941667	1764.334961	-15.087941
10270.692553	5523.941667	1763.326172	-31.537321
10270.692553	5523.941667	1762.318359	51.527206
10270.692553	5523.941667	1761.309570	316.976563
10270.692553	5523.941667	1760.300781	-154.489624
10270.692553	5523.941667	1759.291016	46.873020
10270.692553	5523.941667	1758.282227	94.196465
10270.692553	5523.941667	1757.272461	-140.293152
10270.692553	5523.941667	1756.262695	15.869569
10270.692553	5523.941667	1755.252930	-0.839913
10270.692553	5523.941667	1754.243164	-10.478329
10270.692553	5523.941667	1753.233398	-41.442257
10270.692553	5523.941667	1752.222656	-77.163315
10270.692553	5523.941667	1751.211914	-91.621269
10270.692553	5523.941667	1750.201172	-122.660934
10270.692553	5523.941667	1749.190430	51.952942
10270.692553	5523.941667	1748.179688	94.099190
10270.692553	5523.941667	1747.167969	-95.403961
10270.692553	5523.941667	1746.156250	112.072289
10270.692553	5523.941667	1745.144531	-91.607872
10270.692553	5523.941667	1744.132813	-73.232613
10270.692553	5523.941667	1743.121094	-61.985603
10270.692553	5523.941667	1742.108398	86.154366
10270.692553	5523.941667	1741.095703	-18.374155
10270.692553	5523.941667	1740.083008	18.704153
10270.692553	5523.941667	1739.070313	-52.809990
10270.692553	5523.941667	1738.057617	109.223000
10270.692553	5523.941667	1737.043945	-49.630898
10270.692553	5523.941667	1736.030273	145.277008
10270.692553	5523.941667	1735.016602	-284.744751
10270.692553	5523.941667	1734.002930	-9.790961
10270.692553	5523.941667	1732.989258	163.674484
10270.692553	5523.941667	1731.974609	18.910753
10270.692553	5523.941667	1730.959961	-5.678398
10270.692553	5523.941667	1729.945313	-77.406487
10270.692553	5523.941667	1728.930664	81.655159
10270.692553	5523.941667	1727.916016	61.664719
10270.692553	5523.941667	1726.900391	22.806011
10270.692553	5523.941667	1725.885742	-211.432297
10270.692553	5523.941667	1724.870117	-14.968663
10270.692553	5523.941667	1723.853516	-18.613779
10270.692553	5523.941667	1722.837891	-55.225430
10270.692553	5523.941667	1721.822266	37.496365
10270.692553	5523.941667	1720.805664	106.625877
10270.692553	5523.941667	1719.789063	-104.085083
10270.692553	5523.941667	1718.772461	-30.329866
10270.692553	5523.941667	1717.754883	76.256699
10270.692553	5523.941667	1716.738281	4.191288
10270.692553	5523.941667	1715.720703	-42.046738
10270.692553	5523.941667	1714.703125	219.388382
10270.692553	5523.941667	1713.685547	13.361894
10270.692553	5523.941667	1712.667969	-260.713104
10270.692553	5523.941667	1711.649414	-4.200113
10270.692553	5523.941667	1710.630859	-10.687809
10270.692553	5523.941667	1709.612305	100.115829
10270.692553	5523.941667	1708.593750	-49.579201
10270.692553	5523.941667	1707.575195	-142.958420
10270.692553	5523.941667	1706.555664	42.734627
10270.692553	5523.941667	1705.536133	141.561859
10270.692553	5523.941667	1704.516602	83.244980
10270.692553	5523.941667	1703.497070	-141.501099
10270.692553	5523.941667	1702.477539	-99.051315
10270.692553	5523.941667	1701.457031	60.487316
10270.692553	5523.941667	1700.437500	-147.841980
10270.692553	5523.941667	1699.416992	-194.532547
10270.692553	5523.941667	1698.395508	-18.794407
10270.692553	5523.941667	1697.375000	-107.708138
10270.692553	5523.941667	1696.354492	-16.390549
10270.692553	5523.941667	1695.333008	145.056076
10270.692553	5523.941667	1694.311523	130.917709
10270.692553	5523.941667	1693.290039	65.281357
10270.692553	5523.941667	1692.267578	100.200882
10270.692553	5523.941667	1691.246094	4.119549
10270.692553	5523.941667	1690.223633	-122.360855
10270.692553	5523.941667	1689.201172	-92.212959
10270.692553	5523.941667	1688.178711	38.380718
10270.692553	5523.941667	1687.155273	152.525665
10270.692553	5523.941667	1686.132813	93.715302
10270.692553	5523.941667	1685.109375	139.993484
10270.692553	5523.941667	1684.085938	6.398501
10270.692553	5523.941667	1683.062500	195.029114
10270.692553	5523.941667	1682.039063	138.436234
10270.692553	5523.941667	1681.014648	179.850174
10270.692553	5523.941667	1679.990234	218.877731
10270.692553	5523.941667	1678.965820	-10.448709
10270.692553	5523.941667	1677.941406	292.113159
10270.692553	5523.941667	1676.916992	305.334015
10270.692553	5523.941667	1675.891602	166.945969
10270.692553	5523.941667	1674.866211	-83.325813
10270.692553	5523.941667	1673.840820	132.626236
10270.692553	5523.941667	1672.815430	164.360870
10270.692553	5523.941667	1671.790039	165.759140
10270.692553	5523.941667	1670.763672	78.595009
10270.692553	5523.941667	1669.737305	126.512756
10270.692553	5523.941667	1668.710938	265.191284
10270.692553	5523.941667	1667.684570	173.296768
10270.692553	5523.941667	1666.658203	260.634094
10270.692553	5523.941667	1665.630859	231.535721
10270.692553	5523.941667	1664.603516	232.661713
10270.692553	5523.941667	1663.576172	182.574768
10270.692553	5523.941667	1662.548828	281.327820
10270.692553	5523.941667	1661.520508	307.915314
10270.692553	5523.941667	1660.493164	327.489594
10270.692553	5523.941667	1659.464844	261.010040
10270.692553	5523.941667	1658.436523	482.707214
10270.692553	5523.941667	1657.408203	646.195618
10270.692553	5523.941667	1656.378906	537.769409
10270.692553	5523.941667	1655.350586	578.012756
10270.692553	5523.941667	1654.321289	546.212036
10270.692553	5523.941667	1653.291992	604.941711
10270.692553	5523.941667	1652.261719	728.610046
10270.692553	5523.941667	1651.232422	817.390442
10270.692553	5523.941667	1650.202148	901.456665
10270.692553	5523.941667	1649.171875	839.297363
10270.692553	5523.941667	1648.141602	663.470459
10270.692553	5523.941667	1647.111328	856.424438
10270.692553	5523.941667	1646.080078	907.825317
10270.692553	5523.941667	1645.049805	762.132813
10270.692553	5523.941667	1644.018555	748.573303
10270.692553	5523.941667	1642.987305	799.875732
10270.692553	5523.941667	1641.955078	976.233459
10270.692553	5523.941667	1640.923828	696.160156
10270.692553	5523.941667	1639.891602	751.979553
10270.692553	5523.941667	1638.859375	944.365234
10270.692553	5523.941667	1637.827148	884.301758
10270.692553	5523.941667	1636.794922	639.062012
10270.692553	5523.941667	1635.761719	511.906433
10270.692553	5523.941667	1634.729492	845.215332
10270.692553	5523.941667	1633.696289	650.928284
10270.692553	5523.941667	1632.662109	706.470398
10270.692553	5523.941667	1631.628906	708.785583
10270.692553	5523.941667	1630.594727	743.434448
10270.692553	5523.941667	1629.561523	715.639282
10270.692553	5523.941667	1628.527344	870.395203
10270.692553	5523.941667	1627.493164	680.785156
10270.692553	5523.941667	1626.458008	1057.205322
10270.692553	5523.941667	1625.423828	655.089172
10270.692553	5523.941667	1624.388672	781.917847
10270.692553	5523.941667	1623.353516	763.217957
10270.692553	5523.941667	1622.318359	901.470215
10270.692553	5523.941667	1621.282227	991.172180
10270.692553	5523.941667	1620.247070	836.231262
10270.692553	5523.941667	1619.210938	944.319885
10270.692553	5523.941667	1618.174805	1075.410034
10270.692553	5523.941667	1617.137695	872.033203
10270.692553	5523.941667	1616.101563	1132.159546
10270.692553	5523.941667	1615.064453	1177.770874
10270.692553	5523.941667	1614.027344	1004.388977
10270.692553	5523.941667	1612.990234	1236.614990
10270.692553	5523.941667	1611.953125	1180.745972
10270.692553	5523.941667	1610.916016	1168.642822
10270.692553	5523.941667	1609.877930	1165.730591
10270.692553	5523.941667	1608.839844	1201.942383
10270.692553	5523.941667	1607.801758	1083.881958
10270.692553	5523.941667	1606.763672	1278.870239
10270.692553	5523.941667	1605.724609	1202.217896
10270.692553	5523.941667	1604.685547	1233.712646
10270.692553	5523.941667	1603.646484	1209.970093
10270.692553	5523.941667	1602.607422	1218.418335
10270.692553	5523.941667	1601.568359	1192.354736
10270.692553	5523.941667	1600.528320	1265.133057
10270.692553	5523.941667	1599.489258	1278.113403
10270.692553	5523.941667	1598.449219	1091.135620
10270.692553	5523.941667	1597.408203	1414.276489
10270.692553	5523.941667	1596.368164	1114.755249
10270.692553	5523.941667	1595.327148	1058.780273
10270.692553	5523.941667	1594.287109	1158.965454
10270.692553	5523.941667	1593.246094	1057.060791
10270.692553	5523.941667	1592.204102	1200.778809
10270.692553	5523.941667	1591.163086	1101.175049
10270.692553	5523.941667	1590.121094	990.118469
10270.692553	5523.941667	1589.079102	966.266113
10270.692553	5523.941667	1588.037109	992.871338
10270.692553	5523.941667	1586.995117	1028.626953
10270.692553	5523.941667	1585.953125	1128.552979
10270.692553	5523.941667	1584.910156	941.895752
10270.692553	5523.941667	1583.867188	1167.820923
10270.692553	5523.941667	1582.824219	1075.155029
10270.692553	5523.941667	1581.781250	1071.860718
10270.692553	5523.941667	1580.737305	983.808105
10270.692553	5523.941667	1579.693359	1159.127808
10270.692553	5523.941667	1578.649414	1167.237427
10270.692553	5523.941667	1577.605469	1129.555298
10270.692553	5523.941667	1576.561523	975.161926
10270.692553	5523.941667	1575.516602	1047.346558
10270.692553	5523.941667	1574.472656	1094.338989
10270.692553	5523.941667	1573.427734	992.628052
10270.692553	5523.941667	1572.381836	1314.009277
10270.692553	5523.941667	1571.336914	1205.428101
10270.692553	5523.941667	1570.291016	1213.461548
10270.692553	5523.941667	1569.246094	1434.047241
10270.692553	5523.941667	1568.200195	1318.635254
10270.692553	5523.941667	1567.153320	1591.640015
10270.692553	5523.941667	1566.107422	1473.955322
10270.692553	5523.941667	1565.060547	1541.288086
10270.692553	5523.941667	1564.013672	1389.401733
10270.692553	5523.941667	1562.966797	1518.360352
10270.692553	5523.941667	1561.919922	1610.750244
10270.692553	5523.941667	1560.872070	1522.828491
10270.692553	5523.941667	1559.825195	1350.534668
10270.692553	5523.941667	1558.777344	1169.181152
10270.692553	5523.941667	1557.729492	1085.964111
10270.692553	5523.941667	1556.680664	1153.263672
10270.692553	5523.941667	1555.632813	1006.259399
10270.692553	5523.941667	1554.583984	1089.510010
10270.692553	5523.941667	1553.535156	1036.006470
10270.692553	5523.941667	1552.486328	1003.034546
10270.692553	5523.941667	1551.436523	771.898987
10270.692553	5523.941667	1550.387695	848.319702
10270.692553	5523.941667	1549.337891	924.709717
10270.692553	5523.941667	1548.288086	937.333435
10270.692553	5523.941667	1547.238281	908.991211
10270.692553	5523.941667	1546.187500	837.424561
10270.692553	5523.941667	1545.136719	1057.117554
10270.692553	5523.941667	1544.086914	1028.794556
10270.692553	5523.941667	1543.035156	816.261292
10270.692553	5523.941667	1541.984375	842.581116
10270.692553	5523.941667	1540.933594	757.505371
10270.692553	5523.941667	1539.881836	913.399780
10270.692553	5523.941667	1538.830078	876.082275
10270.692553	5523.941667	1537.778320	1236.399048
10270.692553	5523.941667	1536.725586	1071.841919
10270.692553	5523.941667	1535.673828	1048.180786
10270.692553	5523.941667	1534.621094	1065.407593
10270.692553	5523.941667	1533.568359	1073.561646
10270.692553	5523.941667	1532.515625	1174.789185
10270.692553	5523.941667	1531.461914	1255.560303
10270.692553	5523.941667	1530.409180	1073.130371
10270.692553	5523.941667	1529.355469	1162.996216
10270.692553	5523.941667	1528.301758	860.477478
10270.692553	5523.941667	1527.247070	950.377563
10270.692553	5523.941667	1526.193359	797.685059
10270.692553	5523.941667	1525.138672	796.930969
10270.692553	5523.941667	1524.083984	671.555115
10270.692553	5523.941667	1523.029297	822.672302
10270.692553	5523.941667	1521.974609	450.459717
10270.692553	5523.941667	1520.918945	486.085114
10270.692553	5523.941667	1519.863281	333.770508
10270.692553	5523.941667	1518.807617	426.047577
10270.692553	5523.941667	1517.751953	559.053589
10270.692553	5523.941667	1516.696289	646.768494
10270.692553	5523.941667	1515.639648	257.048615
10270.692553	5523.941667	1514.583008	491.869720
10270.692553	5523.941667	1513.526367	308.201050
10270.692553	5523.941667	1512.469727	506.787231
10270.692553	5523.941667	1511.412109	651.053040
10270.692553	5523.941667	1510.355469	698.097656
10270.692553	5523.941667	1509.297852	573.386414
10270.692553	5523.941667	1508.240234	563.986633
10270.692553	5523.941667	1507.181641	425.844788
10270.692553	5523.941667	1506.124023	493.324432
10270.692553	5523.941667	1505.065430	651.125488
10270.692553	5523.941667	1504.006836	479.267303
10270.692553	5523.941667	1502.948242	354.908661
10270.692553	5523.941667	1501.888672	300.583893
10270.692553	5523.941667	1500.830078	377.185638
10270.692553	5523.941667	1499.770508	433.479462
10270.692553	5523.941667	1498.710938	293.555023
10270.692553	5523.941667	1497.650391	180.771973
10270.692553	5523.941667	1496.590820	336.366425
10270.692553	5523.941667	1495.530273	203.398178
10270.692553	5523.941667	1494.469727	81.782867
10270.692553	5523.941667	1493.409180	59.392025
10270.692553	5523.941667	1492.348633	564.194885
10270.692553	5523.941667	1491.287109	197.172363
10270.692553	5523.941667	1490.225586	172.617950
10270.692553	5523.941667	1489.164063	69.308418
10270.692553	5523.941667	1488.102539	53.863342
10270.692553	5523.941667	1487.041016	-33.555698
10270.692553	5523.941667	1485.978516	180.603760
10270.692553	5523.941667	1484.916016	28.059708
10270.692553	5523.941667	1483.853516	-140.202057
10270.692553	5523.941667	1482.791016	22.245655
10270.692553	5523.941667	1481.727539	49.775745
10270.692553	5523.941667	1480.664063	129.021103
10270.692553	5523.941667	1479.600586	-9.701434
10270.692553	5523.941667	1478.537109	-170.806503
10270.692553	5523.941667	1477.473633	-212.676498
10270.692553	5523.941667	1476.409180	-92.852394
10270.692553	5523.941667	1475.344727	103.281906
10270.692553	5523.941667	1474.280273	7.625220
10270.692553	5523.941667	1473.215820	125.179916
10270.692553	5523.941667	1472.151367	-42.097565
10270.692553	5523.941667	1471.085938	39.691460
10270.692553	5523.941667	1470.020508	65.258553
10270.692553	5523.941667	1468.955078	7.871677
10270.692553	5523.941667	1467.888672	152.585876
10270.692553	5523.941667	1466.823242	-121.818100
10270.692553	5523.941667	1465.756836	-42.292034
10270.692553	5523.941667	1464.690430	-9.621664
10270.692553	5523.941667	1463.624023	103.409195
10270.692553	5523.941667	1462.556641	-147.703766
10270.692553	5523.941667	1461.490234	137.245514
10270.692553	5523.941667	1460.422852	42.718754
10270.692553	5523.941667	1459.355469	-45.308289
10270.692553	5523.941667	1458.287109	12.110435
10270.692553	5523.941667	1457.219727	63.330978
10270.692553	5523.941667	1456.151367	73.564468
10270.692553	5523.941667	1455.083008	-38.857113
10270.692553	5523.941667	1454.014648	70.910316
10270.692553	5523.941667	1452.945313	-20.123497
10270.692553	5523.941667	1451.876953	56.802280
10270.692553	5523.941667	1450.807617	-37.410332
10270.692553	5523.941667	1449.738281	-30.520437
10270.692553	5523.941667	1448.668945	37.337513
10270.692553	5523.941667	1447.598633	86.058258
10270.692553	5523.941667	1446.528320	-76.492470
10270.692553	5523.941667	1445.458008	-121.792885
10270.692553	5523.941667	1444.387695	-14.520416
10270.692553	5523.941667	1443.317383	-96.585915
10270.692553	5523.941667	1442.246094	37.094063
10270.692553	5523.941667	1441.174805	37.054913
10270.692553	5523.941667	1440.103516	79.830109
10270.692553	5523.941667	1439.032227	63.615246
10270.692553	5523.941667	1437.960938	16.428164
10270.692553	5523.941667	1436.888672	-68.965820
10270.692553	5523.941667	1435.816406	117.938141
10270.692553	5523.941667	1434.744141	-2.463220
10270.692553	5523.941667	1433.670898	-97.314590
10270.692553	5523.941667	1432.598633	-25.228140
10270.692553	5523.941667	1431.525391	31.405962
10270.692553	5523.941667	1430.452148	211.876450
10270.692553	5523.941667	1429.378906	170.549759
10270.692553	5523.941667	1428.304688	327.759949
10270.692553	5523.941667	1427.231445	56.713665
10270.692553	5523.941667	1426.157227	211.273163
10270.692553	5523.941667	1425.083008	15.950543
10270.692553	5523.941667	1424.007813	-45.239281
10270.692553	5523.941667	1422.933594	-39.335262
10270.692553	5523.941667	1421.858398	62.196205
10270.692553	5523.941667	1420.783203	138.533951
10270.692553	5523.941667	1419.708008	155.429123
10270.692553	5523.941667	1418.631836	-51.855015
10270.692553	5523.941667	1417.555664	133.710739
10270.692553	5523.941667	1416.479492	-48.446682
10270.692553	5523.941667	1415.403320	-85.299759
10270.692553	5523.941667	1414.327148	169.261032
10270.692553	5523.941667	1413.250000	-284.788879
10270.692553	5523.941667	1412.173828	57.676338
10270.692553	5523.941667	1411.096680	-11.836904
10270.692553	5523.941667	1410.018555	63.720516
10270.692553	5523.941667	1408.941406	99.265137
10270.692553	5523.941667	1407.863281	-137.172913
10270.692553	5523.941667	1406.785156	70.049240
10270.692553	5523.941667	1405.707031	104.548904
10270.692553	5523.941667	1404.628906	158.292969
10270.692553	5523.941667	1403.549805	-9.080552
10270.692553	5523.941667	1402.470703	-240.768906
10270.692553	5523.941667	1401.391602	-50.433125
10270.692553	5523.941667	1400.312500	30.168098
10270.692553	5523.941667	1399.233398	-88.807922
10270.692553	5523.941667	1398.153320	-123.386032
10270.692553	5523.941667	1397.073242	-131.435654
10270.692553	5523.941667	1395.993164	23.838228
10270.692553	5523.941667	1394.913086	-26.563366
10270.692553	5523.941667	1393.832031	105.800766
10270.692553	5523.941667	1392.750977	-12.873627
10270.692553	5523.941667	1391.669922	201.609802
10270.692553	5523.941667	1390.588867	9.356555
10270.692553	5523.941667	1389.506836	150.867615
10270.692553	5523.941667	1388.425781	-12.471107
10270.692553	5523.941667	1387.343750	195.275940
10270.692553	5523.941667	1386.261719	-56.474190
10270.692553	5523.941667	1385.178711	3.237704
10270.692553	5523.941667	1384.096680	11.609530
10270.692553	5523.941667	1383.013672	-32.517426
10270.692553	5523.941667	1381.930664	59.928902
10270.692553	5523.941667	1380.846680	-66.637978
10270.692553	5523.941667	1379.763672	-241.458130
10270.692553	5523.941667	1378.679688	-73.553131
10270.692553	5523.941667	1377.595703	7.741624
10270.692553	5523.941667	1376.511719	-18.778980
10270.692553	5523.941667	1375.427734	196.467056
10270.692553	5523.941667	1374.342773	31.059576
10270.692553	5523.941667	1373.257813	248.208817
10270.692553	5523.941667	1372.172852	124.490875
10270.692553	5523.941667	1371.087891	125.357864
10270.692553	5523.941667	1370.001953	230.251175
10270.692553	5523.941667	1368.916992	82.336708
10270.692553	5523.941667	1367.831055	206.374313
10270.692553	5523.941667	1366.744141	174.180511
10270.692553	5523.941667	1365.658203	145.498947
10270.692553	5523.941667	1364.571289	83.064415
10270.692553	5523.941667	1363.484375	320.056305
10270.692553	5523.941667	1362.397461	132.604370
10270.692553	5523.941667	1361.310547	207.229050
10270.692553	5523.941667	1360.222656	79.920021
10270.692553	5523.941667	1359.135742	160.640961
10270.692553	5523.941667	1358.047852	98.224953
10270.692553	5523.941667	1356.958984	21.992376
10270.692553	5523.941667	1355.871094	155.903564
10270.692553	5523.941667	1354.782227	204.207016
10270.692553	5523.941667	1353.693359	33.686001
10270.692553	5523.941667	1352.604492	263.460510
10270.692553	5523.941667	1351.515625	92.307701
10270.692553	5523.941667	1350.425781	315.056641
10270.692553	5523.941667	1349.335938	371.758972
10270.692553	5523.941667	1348.246094	314.911499
10270.692553	5523.941667	1347.156250	98.543434
10270.692553	5523.941667	1346.066406	215.223877
10270.692553	5523.941667	1344.975586	162.795837
10270.692553	5523.941667	1343.884766	280.778351
10270.692553	5523.941667	1342.793945	189.695679
10270.692553	5523.941667	1341.702148	203.873322
10270.692553	5523.941667	1340.611328	203.896942
10270.692553	5523.941667	1339.519531	226.201111
10270.692553	5523.941667	1338.427734	424.095581
10270.692553	5523.941667	1337.334961	301.526245
10270.692553	5523.941667	1336.243164	424.995239
10270.692553	5523.941667	1335.150391	386.004944
10270.692553	5523.941667	1334.057617	451.320953
10270.692553	5523.941667	1332.964844	405.201782
10270.692553	5523.941667	1331.871094	152.075043
10270.692553	5523.941667	1330.778320	322.034088
10270.692553	5523.941667	1329.684570	436.961700
10270.692553	5523.941667	1328.590820	208.213013
10270.692553	5523.941667	1327.496094	434.781219
10270.692553	5523.941667	1326.402344	263.628357
10270.692553	5523.941667	1325.307617	81.841759
10270.692553	5523.941667	1324.212891	1.038998
10270.692553	5523.941667	1323.117188	190.914627
10270.692553	5523.941667	1322.022461	-0.812888
10270.692553	5523.941667	1320.926758	-25.373236
10270.692553	5523.941667	1319.831055	172.664413
10270.692553	5523.941667	1318.735352	149.228455
10270.692553	5523.941667	1317.638672	-34.797825
10270.692553	5523.941667	1316.542969	-44.135963
10270.692553	5523.941667	1315.446289	16.200665
10270.692553	5523.941667	1314.349609	53.955105
10270.692553	5523.941667	1313.251953	27.874094
10270.692553	5523.941667	1312.155273	138.798187
10270.692553	5523.941667	1311.057617	79.968277
10270.692553	5523.941667	1309.959961	35.818619
10270.692553	5523.941667	1308.862305	68.759018
10270.692553	5523.941667	1307.763672	73.153610
10270.692553	5523.941667	1306.665039	-177.029327
10270.692553	5523.941667	1305.566406	-69.848778
10270.692553	5523.941667	1304.467773	-22.287500
10270.692553	5523.941667	1303.369141	12.777175
10270.692553	5523.941667	1302.269531	142.550430
10270.692553	5523.941667	1301.169922	-43.355202
10270.692553	5523.941667	1300.070313	58.867508
10270.692553	5523.941667	1298.970703	167.412506
10270.692553	5523.941667	1297.870117	205.819153
10270.692553	5523.941667	1296.769531	124.510300
10270.692553	5523.941667	1295.668945	-25.994919
10270.692553	5523.941667	1294.568359	289.318726
10270.692553	5523.941667	1293.466797	109.770042
10270.692553	5523.941667	1292.366211	72.978065
10270.692553	5523.941667	1291.264648	389.163849
10270.692553	5523.941667	1290.162109	399.289032
10270.692553	5523.941667	1289.060547	223.379578
10270.692553	5523.941667	1287.958008	339.494720
10270.692553	5523.941667	1286.855469	349.784393
10270.692553	5523.941667	1285.752930	218.792160
10270.692553	5523.941667	1284.650391	350.055634
10270.692553	5523.941667	1283.546875	423.976959
10270.692553	5523.941667	1282.444336	413.183228
10270.692553	5523.941667	1281.339844	388.147491
10270.692553	5523.941667	1280.236328	332.628204
10270.692553	5523.941667	1279.132813	404.440674
10270.692553	5523.941667	1278.028320	364.367065
10270.692553	5523.941667	1276.923828	328.616547
10270.692553	5523.941667	1275.819336	405.463074
10270.692553	5523.941667	1274.713867	401.123566
10270.692553	5523.941667	1273.608398	218.148788
10270.692553	5523.941667	1272.503906	234.344330
10270.692553	5523.941667	1271.397461	285.034851
10270.692553	5523.941667	1270.291992	172.925995
10270.692553	5523.941667	1269.185547	189.820404
10270.692553	5523.941667	1268.080078	136.598007
10270.692553	5523.941667	1266.972656	200.617111
10270.692553	5523.941667	1265.866211	186.955933
10270.692553	5523.941667	1264.759766	113.854050
10270.692553	5523.941667	1263.652344	26.553095
10270.692553	5523.941667	1262.544922	23.510715
10270.692553	5523.941667	1261.436523	98.088730
10270.692553	5523.941667	1260.329102	-148.969177
10270.692553	5523.941667	1259.220703	-225.448624
10270.692553	5523.941667	1258.112305	-118.605972
10270.692553	5523.941667	1257.003906	-211.413391
10270.692553	5523.941667	1255.895508	-359.074524
10270.692553	5523.941667	1254.786133	-203.786911
10270.692553	5523.941667	1253.676758	-234.190872
10270.692553	5523.941667	1252.567383	-237.733185
10270.692553	5523.941667	1251.458008	-125.876259
10270.692553	5523.941667	1250.347656	-117.711136
10270.692553	5523.941667	1249.237305	-136.255173
10270.692553	5523.941667	1248.126953	-1.080167
10270.692553	5523.941667	1247.016602	-174.344833
10270.692553	5523.941667	1245.905273	-63.269981
10270.692553	5523.941667	1244.793945	-21.112341
10270.692553	5523.941667	1243.682617	90.074829
10270.692553	5523.941667	1242.571289	46.616211
10270.692553	5523.941667	1241.459961	97.941948
10270.692553	5523.941667	1240.347656	133.972961
10270.692553	5523.941667	1239.235352	175.817596
10270.692553	5523.941667	1238.123047	233.147217
10270.692553	5523.941667	1237.009766	372.617188
10270.692553	5523.941667	1235.897461	354.973816
10270.692553	5523.941667	1234.784180	306.926819
10270.692553	5523.941667	1233.670898	396.996552
10270.692553	5523.941667	1232.556641	374.295471
10270.692553	5523.941667	1231.443359	330.126373
10270.692553	5523.941667	1230.329102	285.319244
10270.692553	5523.941667	1229.214844	234.841583
10270.692553	5523.941667	1228.099609	462.033508
10270.692553	5523.941667	1226.985352	279.563843
10270.692553	5523.941667	1225.870117	372.995178
10270.692553	5523.941667	1224.754883	390.434570
10270.692553	5523.941667	1223.639648	365.960602
10270.692553	5523.941667	1222.523438	366.640015
10270.692553	5523.941667	1221.408203	416.332886
10270.692553	5523.941667	1220.291992	472.931030
10270.692553	5523.941667	1219.174805	445.365601
10270.692553	5523.941667	1218.058594	450.940918
10270.692553	5523.941667	1216.941406	675.825317
10270.692553	5523.941667	1215.824219	452.617828
10270.692553	5523.941667	1214.707031	618.379578
10270.692553	5523.941667	1213.589844	610.748596
10270.692553	5523.941667	1212.471680	530.328918
10270.692553	5523.941667	1211.353516	450.530212
10270.692553	5523.941667	1210.235352	322.852875
10270.692553	5523.941667	1209.117188	330.090332
10270.692553	5523.941667	1207.998047	297.146454
10270.692553	5523.941667	1206.878906	432.088959
10270.692553	5523.941667	1205.759766	323.566803
10270.692553	5523.941667	1204.640625	290.992493
10270.692553	5523.941667	1203.520508	350.238708
10270.692553	5523.941667	1202.401367	203.234390
10270.692553	5523.941667	1201.281250	442.705780
10270.692553	5523.941667	1200.160156	274.700287
10270.692553	5523.941667	1199.040039	179.452423
10270.692553	5523.941667	1197.918945	45.504955
10270.692553	5523.941667	1196.797852	246.094513
10270.692553	5523.941667	1195.676758	319.120026
10270.692553	5523.941667	1194.555664	50.882690
10270.692553	5523.941667	1193.433594	215.793335
10270.692553	5523.941667	1192.311523	-10.480757
10270.692553	5523.941667	1191.189453	64.090179
10270.692553	5523.941667	1190.066406	32.859344
10270.692553	5523.941667	1188.944336	-25.787428
10270.692553	5523.941667	1187.821289	-47.977211
10270.692553	5523.941667	1186.698242	-31.138437
10270.692553	5523.941667	1185.574219	-152.696213
10270.692553	5523.941667	1184.451172	51.317337
10270.692553	5523.941667	1183.327148	-81.553963
10270.692553	5523.941667	1182.203125	-56.223885
10270.692553	5523.941667	1181.078125	-70.541351
10270.692553	5523.941667	1179.954102	-96.826584
10270.692553	5523.941667	1178.829102	-67.621674
10270.692553	5523.941667	1177.704102	-11.303278
10270.692553	5523.941667	1176.579102	-132.067184
10270.692553	5523.941667	1175.453125	-162.011353
10270.692553	5523.941667	1174.327148	-133.464569
10270.692553	5523.941667	1173.201172	-128.197830
10270.692553	5523.941667	1172.075195	-181.134445
10270.692553	5523.941667	1170.949219	40.869633
10270.692553	5523.941667	1169.822266	-92.783531
10270.692553	5523.941667	1168.695313	-52.408070
10270.692553	5523.941667	1167.568359	3.107861
10270.692553	5523.941667	1166.440430	173.554977
10270.692553	5523.941667	1165.313477	167.154190
10270.692553	5523.941667	1164.185547	-17.599548
10270.692553	5523.941667	1163.057617	126.587112
10270.692553	5523.941667	1161.928711	101.395515
10270.692553	5523.941667	1160.800781	135.448929
10270.692553	5523.941667	1159.671875	165.589005
10270.692553	5523.941667	1158.541992	218.591644
10270.692553	5523.941667	1157.413086	209.679794
10270.692553	5523.941667	1156.283203	253.886475
10270.692553	5523.941667	1155.154297	378.466858
10270.692553	5523.941667	1154.023438	361.407196
10270.692553	5523.941667	1152.893555	321.632538
10270.692553	5523.941667	1151.763672	353.656189
10270.692553	5523.941667	1150.632813	501.842133
10270.692553	5523.941667	1149.501953	325.040405
10270.692553	5523.941667	1148.370117	534.514343
10270.692553	5523.941667	1147.239258	431.761475
10270.692553	5523.941667	1146.107422	315.419189
10270.692553	5523.941667	1144.975586	308.946014
10270.692553	5523.941667	1143.843750	378.675568
10270.692553	5523.941667	1142.710938	164.611343
10270.692553	5523.941667	1141.578125	137.189484
10270.692553	5523.941667	1140.445313	124.876381
10270.692553	5523.941667	1139.312500	124.275200
10270.692553	5523.941667	1138.178711	236.721420
10270.692553	5523.941667	1137.045898	203.396469
10270.692553	5523.941667	1135.912109	193.332993
10270.692553	5523.941667	1134.777344	308.101929
10270.692553	5523.941667	1133.643555	142.543900
10270.692553	5523.941667	1132.508789	100.535316
10270.692553	5523.941667	1131.374023	220.569092
10270.692553	5523.941667	1130.239258	109.022812
10270.692553	5523.941667	1129.104492	158.820953
10270.692553	5523.941667	1127.968750	47.301834
10270.692553	5523.941667	1126.833008	125.967262
10270.692553	5523.941667	1125.697266	182.357941
10270.692553	5523.941667	1124.560547	135.225220
10270.692553	5523.941667	1123.424805	77.050774
10270.692553	5523.941667	1122.288086	78.254616
10270.692553	5523.941667	1121.151367	51.338676
10270.692553	5523.941667	1120.013672	-83.874443
10270.692553	5523.941667	1118.876953	187.575592
10270.692553	5523.941667	1117.739258	140.371368
10270.692553	5523.941667	1116.601563	1.858657
10270.692553	5523.941667	1115.462891	64.600243
10270.692553	5523.941667	1114.324219	-62.336395
10270.692553	5523.941667	1113.186523	-26.219622
10270.692553	5523.941667	1112.046875	-52.976856
10270.692553	5523.941667	1110.908203	-119.227104
10270.692553	5523.941667	1109.769531	-81.256226
10270.692553	5523.941667	1108.629883	78.529709
10270.692553	5523.941667	1107.490234	17.458097
10270.692553	5523.941667	1106.349609	-25.878122
10270.692553	5523.941667	1105.209961	278.104950
10270.692553	5523.941667	1104.069336	-45.086254
10270.692553	5523.941667	1102.928711	-88.819572
10270.692553	5523.941667	1101.787109	-30.274595
10270.692553	5523.941667	1100.646484	-136.747101
10270.692553	5523.941667	1099.504883	56.677376
10270.692553	5523.941667	1098.363281	219.902603
10270.692553	5523.941667	1097.221680	121.500648
10270.692553	5523.941667	1096.079102	-36.870270
10270.692553	5523.941667	1094.936523	-28.567038
10270.692553	5523.941667	1093.793945	95.903328
10270.692553	5523.941667	1092.651367	-12.149769
10270.692553	5523.941667	1091.507813	142.388824
10270.692553	5523.941667	1090.364258	-23.949953
10270.692553	5523.941667	1089.220703	-167.663330
10270.692553	5523.941667	1088.077148	5.543451
10270.692553	5523.941667	1086.933594	104.706383
10270.692553	5523.941667	1085.789063	-76.279198
10270.692553	5523.941667	1084.644531	173.784790
10270.692553	5523.941667	1083.499023	23.204779
10270.692553	5523.941667	1082.354492	-4.914756
10270.692553	5523.941667	1081.208984	187.320435
10270.692553	5523.941667	1080.063477	37.286278
10270.692553	5523.941667	1078.917969	-73.644295
10270.692553	5523.941667	1077.771484	26.650492
10270.692553	5523.941667	1076.625977	267.669922
10270.692553	5523.941667	1075.479492	200.718155
10270.692553	5523.941667	1074.332031	180.117325
10270.692553	5523.941667	1073.185547	118.204742
10270.692553	5523.941667	1072.038086	86.349899
10270.692553	5523.941667	1070.890625	200.387939
10270.692553	5523.941667	1069.743164	159.064896
10270.692553	5523.941667	1068.594727	128.145935
10270.692553	5523.941667	1067.447266	33.897385
10270.692553	5523.941667	1066.298828	120.732437
10270.692553	5523.941667	1065.149414	15.611908
10270.692553	5523.941667	1064.000977	164.897018
10270.692553	5523.941667	1062.851563	73.719589
10270.692553	5523.941667	1061.702148	204.519501
10270.692553	5523.941667	1060.552734	-44.866352
10270.692553	5523.941667	1059.402344	54.052612
10270.692553	5523.941667	1058.252930	57.709206
10270.692553	5523.941667	1057.102539	-79.939812
10270.692553	5523.941667	1055.951172	43.993176
10270.692553	5523.941667	1054.800781	18.180403
10270.692553	5523.941667	1053.649414	48.776737
10270.692553	5523.941667	1052.498047	192.827789
10270.692553	5523.941667	1051.346680	115.963470
10270.692553	5523.941667	1050.194336	136.665390
10270.692553	5523.941667	1049.042969	329.237946
10270.692553	5523.941667	1047.890625	136.901154
10270.692553	5523.941667	1046.738281	230.399048
10270.692553	5523.941667	1045.584961	-90.113976
10270.692553	5523.941667	1044.431641	-108.679962
10270.692553	5523.941667	1043.278320	-56.045940
10270.692553	5523.941667	1042.125000	-78.968689
10270.692553	5523.941667	1040.971680	84.314552
10270.692553	5523.941667	1039.817383	12.602611
10270.692553	5523.941667	1038.663086	2.921942
10270.692553	5523.941667	1037.508789	36.756996
10270.692553	5523.941667	1036.353516	220.680954
10270.692553	5523.941667	1035.198242	407.214508
10270.692553	5523.941667	1034.042969	363.162445
10270.692553	5523.941667	1032.887695	285.866638
10270.692553	5523.941667	1031.732422	87.527390
10270.692553	5523.941667	1030.576172	403.022461
10270.692553	5523.941667	1029.419922	298.625641
10270.692553	5523.941667	1028.263672	315.875122
10270.692553	5523.941667	1027.106445	29.378101
10270.692553	5523.941667	1025.949219	184.316635
10270.692553	5523.941667	1024.792969	319.309387
10270.692553	5523.941667	1023.634766	42.456928
10270.692553	5523.941667	1022.477539	-274.082245
10270.692553	5523.941667	1021.319336	50.609146
10270.692553	5523.941667	1020.161133	111.600990
10270.692553	5523.941667	1019.002930	-172.980591
10270.692553	5523.941667	1017.843750	-36.941631
10270.692553	5523.941667	1016.684570	-143.593018
10270.692553	5523.941667	1015.525391	42.588875
10270.692553	5523.941667	1014.366211	-35.678036
10270.692553	5523.941667	1013.207031	-118.604507
10270.692553	5523.941667	1012.046875	136.117569
10270.692553	5523.941667	1010.886719	77.364975
10270.692553	5523.941667	1009.726563	254.708191
10270.692553	5523.941667	1008.565430	133.377167
10270.692553	5523.941667	1007.404297	232.986023
10270.692553	5523.941667	1006.243164	-59.314625
10270.692553	5523.941667	1005.082031	108.268379
10270.692553	5523.941667	1003.920898	295.016479
10270.692553	5523.941667	1002.758789	215.319702
10270.692553	5523.941667	1001.596680	318.154602
10270.692553	5523.941667	1000.433594	243.645523
10270.692553	5523.941667	999.271484	400.943817
10270.692553	5523.941667	998.108398	267.999146
10270.692553	5523.941667	996.945313	376.761780
10270.692553	5523.941667	995.782227	268.083527
10270.692553	5523.941667	994.618164	191.149170
10270.692553	5523.941667	993.454102	370.610291
10270.692553	5523.941667	992.290039	357.801117
10270.692553	5523.941667	991.125977	373.388824
10270.692553	5523.941667	989.960938	562.094360
10270.692553	5523.941667	988.796875	482.063538
10270.692553	5523.941667	987.630859	392.419373
10270.692553	5523.941667	986.465820	628.140015
10270.692553	5523.941667	985.300781	608.786072
10270.692553	5523.941667	984.134766	340.020752
10270.692553	5523.941667	982.968750	302.124725
10270.692553	5523.941667	981.801758	283.663483
10270.692553	5523.941667	980.635742	215.536087
10270.692553	5523.941667	979.468750	425.883026
10270.692553	5523.941667	978.301758	200.264313
10270.692553	5523.941667	977.133789	66.035423
10270.692553	5523.941667	975.966797	242.125900
10270.692553	5523.941667	974.798828	484.889893
10270.692553	5523.941667	973.630859	243.426605
10270.692553	5523.941667	972.461914	9.886347
10270.692553	5523.941667	971.293945	-89.035568
10270.692553	5523.941667	970.125000	169.776627
10270.692553	5523.941667	968.956055	-60.472355
10270.692553	5523.941667	967.786133	58.671471
10270.692553	5523.941667	966.617188	139.502182
10270.692553	5523.941667	965.447266	325.235016
10270.692553	5523.941667	964.276367	236.855560
10270.692553	5523.941667	963.106445	15.606254
10270.692553	5523.941667	961.935547	-57.484287
10270.692553	5523.941667	960.764648	35.151104
10270.692553	5523.941667	959.593750	102.588890
10270.692553	5523.941667	958.422852	267.470001
10270.692553	5523.941667	957.250977	110.725769
10270.692553	5523.941667	956.079102	-82.154655
10270.692553	5523.941667	954.907227	137.507706
10270.692553	5523.941667	953.734375	-34.087254
10270.692553	5523.941667	952.562500	43.277760
10270.692553	5523.941667	951.389648	-167.114960
10270.692553	5523.941667	950.215820	38.557114
10270.692553	5523.941667	949.042969	68.214455
10270.692553	5523.941667	947.869141	-34.112652
10270.692553	5523.941667	946.695313	25.802294
10270.692553	5523.941667	945.521484	116.881462
10270.692553	5523.941667	944.346680	-80.666557
10270.692553	5523.941667	943.172852	-83.180931
10270.692553	5523.941667	941.998047	-40.033844
10270.692553	5523.941667	940.822266	20.224182
10270.692553	5523.941667	939.647461	137.775528
10270.692553	5523.941667	938.471680	44.785038
10270.692553	5523.941667	937.295898	47.480301
10270.692553	5523.941667	936.119141	-172.103027
10270.692553	5523.941667	934.943359	100.746803
10270.692553	5523.941667	933.766602	84.394760
10270.692553	5523.941667	932.589844	36.804790
10270.692553	5523.941667	931.413086	70.490837
10270.692553	5523.941667	930.235352	166.361557
10270.692553	5523.941667	929.057617	80.597710
10270.692553	5523.941667	927.879883	255.261093
10270.692553	5523.941667	926.702148	-47.909737
10270.692553	5523.941667	925.523438	100.433296
10270.692553	5523.941667	924.344727	-107.107155
10270.692553	5523.941667	923.166016	148.648865
10270.692553	5523.941667	921.987305	67.706512
10270.692553	5523.941667	920.807617	77.490967
10270.692553	5523.941667	919.627930	79.991615
10270.692553	5523.941667	919.497070	111.411469
10270.692553	5523.941667	918.331055	97.291298
10270.692553	5523.941667	917.165039	-86.190086
10270.692553	5523.941667	915.999023	-102.662331
10270.692553	5523.941667	914.833008	-30.912300
10270.692553	5523.941667	913.666016	78.947052
10270.692553	5523.941667	912.499023	21.917828
10270.692553	5523.941667	911.332031	-30.327875
10270.692553	5523.941667	910.165039	-1.555443
10270.692553	5523.941667	908.997070	86.752022
10270.692553	5523.941667	907.830078	236.934448
10270.692553	5523.941667	906.661133	-177.237228
10270.692553	5523.941667	905.493164	-12.785468
10270.692553	5523.941667	904.325195	-164.947281
10270.692553	5523.941667	903.156250	-88.613998
10270.692553	5523.941667	901.987305	-176.469070
10270.692553	5523.941667	900.818359	-230.991791
10270.692553	5523.941667	899.648438	-52.442646
10270.692553	5523.941667	898.478516	45.192181
10270.692553	5523.941667	897.308594	-45.006065
10270.692553	5523.941667	896.138672	69.217690
10270.692553	5523.941667	894.968750	36.073593
10270.692553	5523.941667	893.797852	124.099945
10270.692553	5523.941667	892.626953	221.588867
10270.692553	5523.941667	891.456055	45.947777
10270.692553	5523.941667	890.284180	95.926857
10270.692553	5523.941667	889.113281	98.408051
10270.692553	5523.941667	887.941406	48.677708
10270.692553	5523.941667	886.768555	51.168594
10270.692553	5523.941667	885.596680	143.801697
10270.692553	5523.941667	884.423828	120.179771
10270.692553	5523.941667	883.250977	-74.164864
10270.692553	5523.941667	882.078125	110.896843
10270.692553	5523.941667	880.905273	-0.407447
10270.692553	5523.941667	879.731445	113.469292
10270.692553	5523.941667	878.557617	73.291794
10270.692553	5523.941667	877.383789	239.220337
10270.692553	5523.941667	876.209961	19.036282
10270.692553	5523.941667	875.035156	40.469234
10270.692553	5523.941667	873.860352	-65.946548
10270.692553	5523.941667	872.685547	-136.815460
10270.692553	5523.941667	871.510742	14.790302
10270.692553	5523.941667	870.334961	-96.284424
10270.692553	5523.941667	869.159180	-152.907745
10270.692553	5523.941667	867.983398	-25.038597
10270.692553	5523.941667	866.807617	-65.100731
10270.692553	5523.941667	865.630859	-27.131186
10270.692553	5523.941667	864.454102	-29.357471
10270.692553	5523.941667	863.277344	-45.760017
10270.692553	5523.941667	862.100586	-107.043861
10270.692553	5523.941667	860.922852	-21.851540
10270.692553	5523.941667	859.745117	-135.066833
10270.692553	5523.941667	858.567383	82.321022
10270.692553	5523.941667	857.389648	-61.556137
10270.692553	5523.941667	856.210938	-94.445351
10270.692553	5523.941667	855.032227	52.014683
10270.692553	5523.941667	853.853516	0.243869
10270.692553	5523.941667	852.674805	-169.439438
10270.692553	5523.941667	851.495117	35.905170
10270.692553	5523.941667	850.315430	-100.704765
10270.692553	5523.941667	849.135742	-114.680412
10270.692553	5523.941667	847.956055	-50.877304
10270.692553	5523.941667	846.775391	-135.543503
10270.692553	5523.941667	845.595703	15.402907
10270.692553	5523.941667	844.415039	-3.292968
10270.692553	5523.941667	843.233398	-104.396828
10270.692553	5523.941667	842.052734	-179.563110
10270.692553	5523.941667	840.871094	-64.035019
10270.692553	5523.941667	839.689453	-226.251144
10270.692553	5523.941667	838.506836	-244.872696
10270.692553	5523.941667	837.325195	-35.306095
10270.692553	5523.941667	836.142578	26.004253
10270.692553	5523.941667	834.959961	14.396089
10270.692553	5523.941667	833.777344	-81.842644
10270.692553	5523.941667	832.593750	120.467636
10270.692553	5523.941667	831.410156	-224.849045
10270.692553	5523.941667	830.226563	-109.526222
10270.692553	5523.941667	829.042969	-104.653931
10270.692553	5523.941667	827.858398	52.870235
10270.692553	5523.941667	826.673828	-8.038904
10270.692553	5523.941667	825.489258	6.196591
10270.692553	5523.941667	824.304688	-24.170547
10270.692553	5523.941667	823.120117	46.376076
10270.692553	5523.941667	821.934570	-47.333664
10270.692553	5523.941667	820.749023	86.518356
10270.692553	5523.941667	819.562500	-168.979218
10270.692553	5523.941667	818.376953	-30.474106
10270.692553	5523.941667	817.190430	-27.989981
10270.692553	5523.941667	816.003906	42.457275
10270.692553	5523.941667	814.817383	2.740444
10270.692553	5523.941667	813.629883	-97.872200
10270.692553	5523.941667	812.442383	-97.731514
10270.692553	5523.941667	811.254883	-34.369045
10270.692553	5523.941667	810.067383	54.715897
10270.692553	5523.941667	808.878906	103.968292
10270.692553	5523.941667	807.690430	-66.792816
10270.692553	5523.941667	806.501953	-106.460320
10270.692553	5523.941667	805.313477	15.295516
10270.692553	5523.941667	804.124023	55.137409
10270.692553	5523.941667	802.934570	-220.723038
10270.692553	5523.941667	801.745117	169.818314
10270.692553	5523.941667	800.555664	134.785507
10270.692553	5523.941667	799.365234	-164.310165
10270.692553	5523.941667	798.175781	-147.875183
10270.692553	5523.941667	796.985352	-105.757759
10270.692553	5523.941667	795.793945	-12.286422
10270.692553	5523.941667	794.603516	-21.602993
10270.692553	5523.941667	793.412109	186.183517
10270.692553	5523.941667	792.220703	-82.264107
10270.692553	5523.941667	791.028320	-112.589996
10270.692553	5523.941667	789.836914	-126.585342
10270.692553	5523.941667	788.644531	-100.930534
10270.692553	5523.941667	787.452148	-23.994059
10270.692553	5523.941667	786.258789	24.920723
10270.692553	5523.941667	785.066406	17.853716
10270.692553	5523.941667	783.873047	71.374413
10270.692553	5523.941667	782.679688	8.351643
10270.692553	5523.941667	781.485352	120.065956
10270.692553	5523.941667	780.291992	1.129583
10270.692553	5523.941667	779.097656	170.985916
10270.692553	5523.941667	777.903320	38.088753
10270.692553	5523.941667	776.708008	226.456848
10270.692553	5523.941667	775.512695	142.443436
10270.692553	5523.941667	774.318359	144.534622
10270.692553	5523.941667	773.122070	239.661560
10270.692553	5523.941667	771.926758	162.619553
10270.692553	5523.941667	770.730469	66.989410
10270.692553	5523.941667	769.534180	478.189850
10270.692553	5523.941667	768.337891	73.356041
10270.692553	5523.941667	767.141602	605.182739
10270.692553	5523.941667	765.944336	572.188416
10270.692553	5523.941667	764.747070	827.223572
10270.692553	5523.941667	763.549805	931.174194
10270.692553	5523.941667	762.351563	923.606689
10270.692553	5523.941667	761.154297	753.515503
10270.692553	5523.941667	759.956055	736.654907
10270.692553	5523.941667	758.757813	624.636047
10270.692553	5523.941667	757.558594	552.079834
10270.692553	5523.941667	756.359375	702.198120
10270.692553	5523.941667	755.160156	611.048767
10270.692553	5523.941667	753.960938	686.844055
10270.692553	5523.941667	752.761719	528.455505
10270.692553	5523.941667	751.561523	787.266418
10270.692553	5523.941667	750.361328	851.305115
10270.692553	5523.941667	749.160156	968.568298
10270.692553	5523.941667	747.959961	1037.111328
10270.692553	5523.941667	746.758789	820.772034
10270.692553	5523.941667	745.557617	1072.150024
10270.692553	5523.941667	744.356445	1228.488647
10270.692553	5523.941667	743.154297	1028.343018
10270.692553	5523.941667	741.952148	483.504333
10270.692553	5523.941667	740.750000	628.196533
10270.692553	5523.941667	739.547852	497.576019
10270.692553	5523.941667	738.344727	491.835510
10270.692553	5523.941667	737.142578	573.905945
10270.692553	5523.941667	735.939453	658.215210
10270.692553	5523.941667	734.735352	807.153137
10270.692553	5523.941667	733.532227	678.749451
10270.692553	5523.941667	732.328125	513.400635
10270.692553	5523.941667	731.124023	491.259430
10270.692553	5523.941667	729.918945	452.923462
10270.692553	5523.941667	728.714844	259.897308
10270.692553	5523.941667	727.509766	380.784241
10270.692553	5523.941667	726.303711	127.771858
10270.692553	5523.941667	725.098633	114.741898
10270.692553	5523.941667	723.892578	80.913620
10270.692553	5523.941667	722.686523	203.858856
10270.692553	5523.941667	721.480469	70.793671
10270.692553	5523.941667	720.274414	85.257332
10270.692553	5523.941667	719.067383	58.183105
10270.692553	5523.941667	717.860352	143.968170
10270.692553	5523.941667	716.653320	-2.993700
10270.692553	5523.941667	715.445313	260.003082
10270.692553	5523.941667	714.238281	96.854599
10270.692553	5523.941667	713.030273	281.341858
10270.692553	5523.941667	711.821289	72.117332
10270.692553	5523.941667	710.613281	-38.125809
10270.692553	5523.941667	709.404297	19.570946
10270.692553	5523.941667	708.195313	47.283821
10270.692553	5523.941667	706.986328	-10.162747
10270.692553	5523.941667	705.776367	127.791931
10270.692553	5523.941667	704.566406	-92.975967
10270.692553	5523.941667	703.356445	-86.182060
10270.692553	5523.941667	702.146484	79.092827
10270.692553	5523.941667	700.935547	-132.518539
10270.692553	5523.941667	699.724609	149.710785
10270.692553	5523.941667	698.513672	85.011490
10270.692553	5523.941667	697.302734	132.772476
10270.692553	5523.941667	696.090820	113.882179
10270.692553	5523.941667	694.878906	69.689819
10270.692553	5523.941667	693.666992	108.048172
10270.692553	5523.941667	692.455078	61.448669
10270.692553	5523.941667	691.242188	7.919203
10270.692553	5523.941667	690.029297	259.305298
10270.692553	5523.941667	688.816406	33.682419
10270.692553	5523.941667	687.602539	73.954247
10270.692553	5523.941667	686.389648	118.721298
10270.692553	5523.941667	685.175781	67.173492
10270.692553	5523.941667	683.960938	191.944717
10270.692553	5523.941667	682.747070	227.279388
10270.692553	5523.941667	681.532227	164.071198
10270.692553	5523.941667	680.317383	137.439606
10270.692553	5523.941667	679.102539	46.662224
10270.692553	5523.941667	677.886719	175.506592
10270.692553	5523.941667	676.670898	48.001534
10270.692553	5523.941667	675.455078	105.732307
10270.692553	5523.941667	674.239258	218.241211
10270.692553	5523.941667	673.022461	99.714508
10270.692553	5523.941667	671.805664	138.871704
10270.692553	5523.941667	670.588867	319.617432
10270.692553	5523.941667	669.372070	171.198135
10270.692553	5523.941667	668.154297	143.825195
10270.692553	5523.941667	666.936523	184.893250
10270.692553	5523.941667	665.718750	292.077454
10270.692553	5523.941667	664.500977	127.473877
10270.692553	5523.941667	663.282227	134.029053
10270.692553	5523.941667	662.063477	199.824417
10270.692553	5523.941667	660.844727	25.958986
10270.692553	5523.941667	659.625000	-27.033958
10270.692553	5523.941667	658.405273	-29.923344
10270.692553	5523.941667	657.185547	106.176018
10270.692553	5523.941667	655.965820	155.510651
10270.692553	5523.941667	654.745117	318.679993
10270.692553	5523.941667	653.525391	96.627060
10270.692553	5523.941667	652.303711	93.260422
10270.692553	5523.941667	651.083008	-158.444748
10270.692553	5523.941667	649.861328	15.671604
10270.692553	5523.941667	648.640625	-88.117805
10270.692553	5523.941667	647.417969	-157.821228
10270.692553	5523.941667	646.196289	13.629208
10270.692553	5523.941667	644.973633	118.931107
10270.692553	5523.941667	643.750977	-80.708862
10270.692553	5523.941667	642.528320	-39.297955
10270.692553	5523.941667	641.305664	-129.874664
10270.692553	5523.941667	640.082031	-81.847099
10270.692553	5523.941667	638.858398	-20.299288
10270.692553	5523.941667	637.634766	38.852413
10270.692553	5523.941667	636.410156	-40.698757
10270.692553	5523.941667	635.185547	138.610931
10270.692553	5523.941667	633.960938	72.500893
10270.692553	5523.941667	632.736328	-75.411995
10270.692553	5523.941667	631.510742	46.745930
10270.692553	5523.941667	630.285156	-8.258107
10270.692553	5523.941667	629.059570	70.525826
10270.692553	5523.941667	627.833984	-0.537280
10270.692553	5523.941667	626.607422	91.614471
10270.692553	5523.941667	625.380859	65.719368
10270.692553	5523.941667	624.154297	42.001835
10270.692553	5523.941667	622.927734	6.860119
10270.692553	5523.941667	621.700195	71.331459
10270.692553	5523.941667	620.472656	-18.380629
10270.692553	5523.941667	619.245117	45.864349
10270.692553	5523.941667	618.016602	73.743088
10270.692553	5523.941667	616.788086	38.113693
10270.692553	5523.941667	615.559570	58.986828
10270.692553	5523.941667	614.331055	77.484497
10270.692553	5523.941667	613.101563	118.494102
10270.692553	5523.941667	611.872070	-8.016501
10270.692553	5523.941667	610.642578	50.880413
10270.692553	5523.941667	609.413086	48.597954
10270.692553	5523.941667	608.182617	-139.170105
10270.692553	5523.941667	606.952148	-3.749435
10270.692553	5523.941667	605.721680	244.497711
10270.692553	5523.941667	604.491211	27.128063
10270.692553	5523.941667	603.259766	-90.871849
10270.692553	5523.941667	602.028320	-116.334175
10270.692553	5523.941667	600.796875	68.088890
10270.692553	5523.941667	599.564453	-124.650490
10270.692553	5523.941667	598.332031	-116.551155
10270.692553	5523.941667	597.099609	42.620502
10270.692553	5523.941667	595.867188	82.058060
10270.692553	5523.941667	594.633789	33.409744
10270.692553	5523.941667	593.400391	-148.361969
10270.692553	5523.941667	592.166992	-52.859310
10270.692553	5523.941667	590.933594	-119.786095
10270.692553	5523.941667	589.699219	135.457825
10270.692553	5523.941667	588.464844	-10.545548
10270.692553	5523.941667	587.230469	-55.222591
10270.692553	5523.941667	585.995117	5.857719
10270.692553	5523.941667	584.760742	-34.502483
10270.692553	5523.941667	583.525391	-34.431808
10270.692553	5523.941667	582.289063	6.042624
10270.692553	5523.941667	581.053711	116.161934
10270.692553	5523.941667	579.817383	-111.320053
10270.692553	5523.941667	578.581055	90.788811
10270.692553	5523.941667	577.343750	103.816635
10270.692553	5523.941667	576.107422	-40.627590
10270.692553	5523.941667	574.870117	28.420368
10270.692553	5523.941667	573.631836	-30.758850
10270.692553	5523.941667	572.394531	112.209862
10270.692553	5523.941667	571.156250	171.899750
10270.692553	5523.941667	569.917969	224.733093
10270.692553	5523.941667	568.679688	266.222321
10270.692553	5523.941667	567.440430	161.675522
10270.692553	5523.941667	566.202148	234.395401
10270.692553	5523.941667	564.961914	329.414246
10270.692553	5523.941667	563.722656	231.374084
10270.692553	5523.941667	562.482422	222.993759
10270.692553	5523.941667	561.243164	275.082428
10270.692553	5523.941667	560.001953	6.437267
10270.692553	5523.941667	558.761719	116.641594
10270.692553	5523.941667	557.520508	65.348381
10270.692553	5523.941667	556.279297	247.006271
10270.692553	5523.941667	555.038086	63.368092
10270.692553	5523.941667	553.795898	-44.139431
10270.692553	5523.941667	552.554688	374.513611
10270.692553	5523.941667	551.311523	210.840973
10270.692553	5523.941667	550.069336	47.163696
10270.692553	5523.941667	548.826172	19.963114
10270.692553	5523.941667	547.583984	6.124160
10270.692553	5523.941667	546.339844	-117.406517
10270.692553	5523.941667	545.096680	-117.961342
10270.692553	5523.941667	543.852539	-96.246941
10270.692553	5523.941667	542.608398	-199.796249
10270.692553	5523.941667	541.364258	78.773567
10270.692553	5523.941667	540.119141	-27.165928
10270.692553	5523.941667	538.875000	-63.876362
10270.692553	5523.941667	537.628906	31.104406
10270.692553	5523.941667	536.383789	-43.718861
10270.692553	5523.941667	535.137695	-80.641373
10270.692553	5523.941667	533.892578	54.249512
10270.692553	5523.941667	532.645508	-176.966476
10270.692553	5523.941667	531.399414	-60.110119
10270.692553	5523.941667	530.152344	-39.293404
10270.692553	5523.941667	528.905273	-125.593513
10270.692553	5523.941667	527.658203	-327.858978
10270.692553	5523.941667	526.410156	-215.815399
10270.692553	5523.941667	525.163086	9.783590
10270.692553	5523.941667	523.914063	-301.770355
10270.692553	5523.941667	522.666016	-214.498199
10270.692553	5523.941667	521.416992	-185.240082
10270.692553	5523.941667	520.167969	-84.801376
10270.692553	5523.941667	518.918945	-171.465195
10270.692553	5523.941667	517.669922	-180.250015
10270.692553	5523.941667	516.419922	-295.909119
10270.692553	5523.941667	515.169922	-189.099258
10270.692553	5523.941667	513.919922	120.019440
10270.692553	5523.941667	512.668945	-227.080841
10270.692553	5523.941667	511.417969	-84.954269
10270.692553	5523.941667	510.166992	-231.910370
10270.692553	5523.941667	508.916016	-252.179581
10270.692553	5523.941667	507.664063	-56.976467
10270.692553	5523.941667	506.412109	-81.827736
10270.692553	5523.941667	505.160156	-91.169930
10270.692553	5523.941667	503.907227	-60.597645
10270.692553	5523.941667	502.655273	191.923828
10270.692553	5523.941667	501.402344	7.038286
10270.692553	5523.941667	500.148438	-42.463444
10270.692553	5523.941667	498.895508	-14.326826
10270.692553	5523.941667	497.641602	53.667866
10270.692553	5523.941667	496.387695	66.151215
10270.692553	5523.941667	495.132813	9.845634
10270.692553	5523.941667	493.878906	-17.649492
10270.692553	5523.941667	492.624023	63.408646
10270.692553	5523.941667	491.368164	84.556770
10270.692553	5523.941667	490.113281	10.413829
10270.692553	5523.941667	488.857422	104.572960
10270.692553	5523.941667	487.601563	130.011368
10270.692553	5523.941667	486.344727	102.258652
10270.692553	5523.941667	485.088867	85.558792
10270.692553	5523.941667	483.832031	170.608063
10270.692553	5523.941667	482.575195	-45.295124
10270.692553	5523.941667	481.317383	-6.787484
10270.692553	5523.941667	480.059570	190.888306
10270.692553	5523.941667	478.801758	191.670929
10270.692553	5523.941667	477.543945	75.263611
10270.692553	5523.941667	476.285156	137.867233
10270.692553	5523.941667	475.027344	94.363396
10270.692553	5523.941667	473.767578	101.627777
10270.692553	5523.941667	472.508789	234.750305
10270.692553	5523.941667	471.249023	206.579529
10270.692553	5523.941667	469.989258	299.801117
10270.692553	5523.941667	468.729492	119.264336
10270.692553	5523.941667	467.469727	320.514618
10270.692553	5523.941667	466.208984	285.571442
10270.692553	5523.941667	464.948242	455.731506
10270.692553	5523.941667	463.686523	164.881241
10270.692553	5523.941667	462.425781	198.222198
10270.692553	5523.941667	461.164063	194.023743
10270.692553	5523.941667	459.901367	50.935181
10270.692553	5523.941667	458.639648	137.020248
10270.692553	5523.941667	457.376953	0.527293
10270.692553	5523.941667	456.114258	-19.228855
10270.692553	5523.941667	454.851563	143.730835
10270.692553	5523.941667	453.587891	130.448914
10270.692553	5523.941667	452.324219	317.404938
10270.692553	5523.941667	451.060547	-67.886261
10270.692553	5523.941667	449.796875	112.325356
10270.692553	5523.941667	448.532227	257.198853
10270.692553	5523.941667	447.267578	182.049362
10270.692553	5523.941667	446.002930	80.489792
10270.692553	5523.941667	444.737305	47.038040
10270.692553	5523.941667	443.471680	189.340958
10270.692553	5523.941667	442.206055	-9.038815
10270.692553	5523.941667	440.940430	29.831352
10270.692553	5523.941667	439.673828	222.328888
10270.692553	5523.941667	438.407227	276.336487
10270.692553	5523.941667	437.140625	132.670090
10270.692553	5523.941667	435.873047	43.836300
10270.692553	5523.941667	434.605469	51.497726
10270.692553	5523.941667	433.337891	247.728531
10270.692553	5523.941667	432.070313	191.545044
10270.692553	5523.941667	430.801758	244.913818
10270.692553	5523.941667	429.533203	61.376812
10270.692553	5523.941667	428.264648	202.206604
10270.692553	5523.941667	426.996094	351.623810
10270.692553	5523.941667	425.726563	29.791069
10270.692553	5523.941667	424.457031	113.203888
10270.692553	5523.941667	423.186523	106.645348
10270.692553	5523.941667	421.916992	292.640411
10270.692553	5523.941667	420.646484	90.936119
10270.692553	5523.941667	419.375977	213.074249
10270.692553	5523.941667	418.104492	310.917542
10270.692553	5523.941667	416.833008	216.042633
10270.692553	5523.941667	415.561523	302.568420
10270.692553	5523.941667	414.290039	119.916138
10270.692553	5523.941667	413.017578	114.222321
10270.692553	5523.941667	411.746094	-123.337852
10270.692553	5523.941667	410.472656	93.500313
10270.692553	5523.941667	409.200195	100.307823
10270.692553	5523.941667	407.926758	144.007965
10270.692553	5523.941667	406.653320	213.661545
10270.692553	5523.941667	405.379883	-22.623779
10270.692553	5523.941667	404.105469	-56.067333
10270.692553	5523.941667	402.831055	56.460529
10270.692553	5523.941667	401.556641	231.942474
10270.692553	5523.941667	400.282227	217.278763
10270.692553	5523.941667	399.006836	60.545715
10270.692553	5523.941667	397.731445	-94.245834
10270.692553	5523.941667	396.456055	62.452717
10270.692553	5523.941667	395.179688	11.677727
10270.692553	5523.941667	393.903320	143.621216
10270.692553	5523.941667	392.626953	133.539581
10270.692553	5523.941667	391.350586	140.514053
10270.692553	5523.941667	390.073242	83.929825
10270.692553	5523.941667	388.795898	142.359161
10270.692553	5523.941667	387.518555	193.815582
10270.692553	5523.941667	386.240234	164.278732
10270.692553	5523.941667	384.961914	145.184677
10270.692553	5523.941667	383.683594	-74.493484
10270.692553	5523.941667	382.405273	42.539154
10270.692553	5523.941667	381.125977	-47.560394
10270.692553	5523.941667	379.846680	68.378716
10270.692553	5523.941667	378.567383	38.113785
10270.692553	5523.941667	377.287109	-44.864967
10270.692553	5523.941667	376.006836	71.483994
10270.692553	5523.941667	374.726563	293.613678
10270.692553	5523.941667	373.446289	54.672825
10270.692553	5523.941667	372.165039	342.736542
10270.692553	5523.941667	370.883789	-60.222443
10270.692553	5523.941667	369.602539	104.876503
10270.692553	5523.941667	368.320313	19.669653
10270.692553	5523.941667	367.039063	55.268097
10270.692553	5523.941667	365.755859	-239.590210
10270.692553	5523.941667	364.473633	-77.580856
10270.692553	5523.941667	363.190430	22.831919
10270.692553	5523.941667	361.907227	55.186581
10270.692553	5523.941667	360.624023	123.506683
10270.692553	5523.941667	359.340820	-58.211227
10270.692553	5523.941667	358.056641	40.767448
10270.692553	5523.941667	356.772461	28.327627
10270.692553	5523.941667	355.487305	-255.719864
10270.692553	5523.941667	354.202148	-29.842760
10270.692553	5523.941667	352.916992	-51.786392
10270.692553	5523.941667	351.631836	-221.903275
10270.692553	5523.941667	350.346680	46.048065
10270.692553	5523.941667	349.060547	64.024979
10270.692553	5523.941667	347.774414	199.741394
10270.692553	5523.941667	346.487305	-253.794098
10270.692553	5523.941667	345.200195	-217.794296
10270.692553	5523.941667	343.913086	-116.105804
10270.692553	5523.941667	342.625977	-56.818264
10270.692553	5523.941667	341.338867	-24.823883
10270.692553	5523.941667	340.050781	107.208786
10270.692553	5523.941667	338.762695	-101.174896
10270.692553	5523.941667	337.473633	-62.782284
10270.692553	5523.941667	336.184570	-6.502417
10270.692553	5523.941667	334.895508	-57.519260
10270.692553	5523.941667	333.606445	-323.649567
10270.692553	5523.941667	332.317383	36.202068
10270.692553	5523.941667	331.027344	79.383430
10270.692553	5523.941667	329.736328	-19.356812
10270.692553	5523.941667	328.446289	-177.982620
10270.692553	5523.941667	327.155273	-127.291580
10270.692553	5523.941667	325.864258	-214.223953
10270.692553	5523.941667	324.573242	-206.154495
10270.692553	5523.941667	323.281250	-17.131163
10270.692553	5523.941667	321.989258	-146.686142
10270.692553	5523.941667	320.697266	143.531891
10270.692553	5523.941667	319.405273	100.092804
10270.692553	5523.941667	318.112305	213.574356
10270.692553	5523.941667	316.819336	92.436981
10270.692553	5523.941667	315.526367	184.036972
10270.692553	5523.941667	314.232422	-2.058894
10270.692553	5523.941667	312.938477	142.605225
10270.692553	5523.941667	311.644531	359.879852
10270.692553	5523.941667	310.349609	-98.072357
10270.692553	5523.941667	309.054688	-45.137875
10270.692553	5523.941667	307.759766	105.967316
10270.692553	5523.941667	306.464844	284.256348
10270.692553	5523.941667	305.168945	216.942505
10270.692553	5523.941667	303.873047	485.785309
10270.692553	5523.941667	302.577148	511.171539
10270.692553	5523.941667	301.281250	346.816620
10270.692553	5523.941667	299.984375	588.891479
