#X		#Y		#Wave		#Intensity
9612.733511	4786.993333	1999.946289	9.255683
9612.733511	4786.993333	1998.981445	-41.473869
9612.733511	4786.993333	1998.017578	78.116920
9612.733511	4786.993333	1997.052734	-65.015007
9612.733511	4786.993333	1996.088867	101.616325
9612.733511	4786.993333	1995.124023	-4.304111
9612.733511	4786.993333	1994.159180	-3.683336
9612.733511	4786.993333	1993.193359	100.942375
9612.733511	4786.993333	1992.228516	29.750147
9612.733511	4786.993333	1991.262695	156.614182
9612.733511	4786.993333	1990.296875	87.916756
9612.733511	4786.993333	1989.331055	98.429863
9612.733511	4786.993333	1988.365234	-54.341103
9612.733511	4786.993333	1987.398438	79.874496
9612.733511	4786.993333	1986.432617	-1.111990
9612.733511	4786.993333	1985.465820	-49.923134
9612.733511	4786.993333	1984.499023	-12.188167
9612.733511	4786.993333	1983.532227	94.742599
9612.733511	4786.993333	1982.565430	48.420700
9612.733511	4786.993333	1981.597656	26.825277
9612.733511	4786.993333	1980.629883	136.167435
9612.733511	4786.993333	1979.662109	25.654940
9612.733511	4786.993333	1978.694336	18.900869
9612.733511	4786.993333	1977.726563	49.186485
9612.733511	4786.993333	1976.758789	12.815037
9612.733511	4786.993333	1975.790039	-11.201113
9612.733511	4786.993333	1974.821289	172.069565
9612.733511	4786.993333	1973.852539	-34.526234
9612.733511	4786.993333	1972.883789	170.886765
9612.733511	4786.993333	1971.915039	-50.423378
9612.733511	4786.993333	1970.945313	-15.213546
9612.733511	4786.993333	1969.975586	96.409431
9612.733511	4786.993333	1969.005859	40.387211
9612.733511	4786.993333	1968.036133	58.319427
9612.733511	4786.993333	1967.066406	41.753700
9612.733511	4786.993333	1966.096680	49.831882
9612.733511	4786.993333	1965.125977	67.760719
9612.733511	4786.993333	1964.155273	63.523678
9612.733511	4786.993333	1963.184570	54.367363
9612.733511	4786.993333	1962.213867	-28.630342
9612.733511	4786.993333	1961.242188	9.000985
9612.733511	4786.993333	1960.271484	39.240700
9612.733511	4786.993333	1959.299805	52.249847
9612.733511	4786.993333	1958.328125	-10.995687
9612.733511	4786.993333	1957.356445	19.239697
9612.733511	4786.993333	1956.384766	98.644478
9612.733511	4786.993333	1955.412109	3.475228
9612.733511	4786.993333	1954.439453	80.401169
9612.733511	4786.993333	1953.467773	39.342972
9612.733511	4786.993333	1952.495117	69.556458
9612.733511	4786.993333	1951.521484	126.783585
9612.733511	4786.993333	1950.548828	-51.793995
9612.733511	4786.993333	1949.575195	-48.583519
9612.733511	4786.993333	1948.601563	-38.005642
9612.733511	4786.993333	1947.627930	90.399834
9612.733511	4786.993333	1946.654297	24.871675
9612.733511	4786.993333	1945.680664	-101.974648
9612.733511	4786.993333	1944.706055	90.167511
9612.733511	4786.993333	1943.732422	154.690689
9612.733511	4786.993333	1942.757813	-3.981995
9612.733511	4786.993333	1941.783203	-22.828104
9612.733511	4786.993333	1940.807617	12.269321
9612.733511	4786.993333	1939.833008	62.064354
9612.733511	4786.993333	1938.857422	30.972330
9612.733511	4786.993333	1937.881836	-54.009239
9612.733511	4786.993333	1936.906250	-31.167732
9612.733511	4786.993333	1935.930664	21.059336
9612.733511	4786.993333	1934.955078	-44.272636
9612.733511	4786.993333	1933.978516	20.184772
9612.733511	4786.993333	1933.001953	-8.398829
9612.733511	4786.993333	1932.025391	-14.941928
9612.733511	4786.993333	1931.048828	-31.267302
9612.733511	4786.993333	1930.072266	175.051056
9612.733511	4786.993333	1929.094727	-78.568123
9612.733511	4786.993333	1928.118164	-26.386240
9612.733511	4786.993333	1927.140625	-20.679773
9612.733511	4786.993333	1926.163086	-29.640488
9612.733511	4786.993333	1925.184570	142.278549
9612.733511	4786.993333	1924.207031	-137.965103
9612.733511	4786.993333	1923.228516	-129.788055
9612.733511	4786.993333	1922.250000	17.633297
9612.733511	4786.993333	1921.271484	-13.295070
9612.733511	4786.993333	1920.292969	9.514204
9612.733511	4786.993333	1919.314453	22.551802
9612.733511	4786.993333	1918.334961	79.525314
9612.733511	4786.993333	1917.355469	-2.634253
9612.733511	4786.993333	1916.375977	32.366512
9612.733511	4786.993333	1915.396484	-86.344017
9612.733511	4786.993333	1914.416992	-68.410423
9612.733511	4786.993333	1913.436523	15.365632
9612.733511	4786.993333	1912.457031	52.785103
9612.733511	4786.993333	1911.476563	-12.198666
9612.733511	4786.993333	1910.496094	-84.468185
9612.733511	4786.993333	1909.515625	77.240417
9612.733511	4786.993333	1908.534180	29.350086
9612.733511	4786.993333	1907.552734	42.381130
9612.733511	4786.993333	1906.572266	38.360935
9612.733511	4786.993333	1905.590820	29.473339
9612.733511	4786.993333	1904.608398	18.155304
9612.733511	4786.993333	1903.626953	186.977997
9612.733511	4786.993333	1902.644531	-26.365210
9612.733511	4786.993333	1901.663086	-54.693298
9612.733511	4786.993333	1900.680664	-78.143951
9612.733511	4786.993333	1899.698242	5.442291
9612.733511	4786.993333	1898.714844	64.678314
9612.733511	4786.993333	1897.732422	41.223400
9612.733511	4786.993333	1896.749023	-13.825752
9612.733511	4786.993333	1895.765625	47.815788
9612.733511	4786.993333	1894.782227	38.961426
9612.733511	4786.993333	1893.798828	27.682144
9612.733511	4786.993333	1892.814453	-12.743385
9612.733511	4786.993333	1891.831055	19.711760
9612.733511	4786.993333	1890.846680	-76.546371
9612.733511	4786.993333	1889.862305	14.178994
9612.733511	4786.993333	1888.877930	61.177582
9612.733511	4786.993333	1887.892578	69.327187
9612.733511	4786.993333	1886.908203	126.006035
9612.733511	4786.993333	1885.922852	71.064514
9612.733511	4786.993333	1884.937500	45.251637
9612.733511	4786.993333	1883.952148	-2.377251
9612.733511	4786.993333	1882.965820	3.354722
9612.733511	4786.993333	1881.980469	81.813065
9612.733511	4786.993333	1880.994141	43.899693
9612.733511	4786.993333	1880.007813	83.547691
9612.733511	4786.993333	1879.021484	-87.609482
9612.733511	4786.993333	1878.035156	-30.994505
9612.733511	4786.993333	1877.047852	-3.465178
9612.733511	4786.993333	1876.061523	-9.846435
9612.733511	4786.993333	1875.074219	-76.752953
9612.733511	4786.993333	1874.086914	-56.492630
9612.733511	4786.993333	1873.098633	-2.358805
9612.733511	4786.993333	1872.111328	-45.032623
9612.733511	4786.993333	1871.123047	96.171043
9612.733511	4786.993333	1870.135742	-28.745359
9612.733511	4786.993333	1869.147461	-25.444357
9612.733511	4786.993333	1868.158203	52.808338
9612.733511	4786.993333	1867.169922	-26.101038
9612.733511	4786.993333	1866.180664	-32.473446
9612.733511	4786.993333	1865.192383	57.817589
9612.733511	4786.993333	1864.203125	121.495758
9612.733511	4786.993333	1863.213867	-46.750015
9612.733511	4786.993333	1862.223633	2.430235
9612.733511	4786.993333	1861.234375	-8.776475
9612.733511	4786.993333	1860.244141	28.303986
9612.733511	4786.993333	1859.253906	65.369087
9612.733511	4786.993333	1858.263672	30.018101
9612.733511	4786.993333	1857.273438	64.652794
9612.733511	4786.993333	1856.282227	60.672928
9612.733511	4786.993333	1855.291992	-3.606539
9612.733511	4786.993333	1854.300781	62.358620
9612.733511	4786.993333	1853.309570	-21.190168
9612.733511	4786.993333	1852.317383	95.371933
9612.733511	4786.993333	1851.326172	52.816696
9612.733511	4786.993333	1850.333984	82.566498
9612.733511	4786.993333	1849.342773	102.666069
9612.733511	4786.993333	1848.350586	50.490410
9612.733511	4786.993333	1847.357422	166.916397
9612.733511	4786.993333	1846.365234	160.493378
9612.733511	4786.993333	1845.372070	-4.823318
9612.733511	4786.993333	1844.379883	27.294746
9612.733511	4786.993333	1843.386719	-3.173432
9612.733511	4786.993333	1842.393555	-67.318932
9612.733511	4786.993333	1841.399414	-1.538911
9612.733511	4786.993333	1840.406250	56.998257
9612.733511	4786.993333	1839.412109	36.152897
9612.733511	4786.993333	1838.417969	-3.922652
9612.733511	4786.993333	1837.423828	54.570831
9612.733511	4786.993333	1836.429688	69.777794
9612.733511	4786.993333	1835.434570	12.886016
9612.733511	4786.993333	1834.440430	59.319935
9612.733511	4786.993333	1833.445313	64.896629
9612.733511	4786.993333	1832.450195	5.624650
9612.733511	4786.993333	1831.454102	100.042618
9612.733511	4786.993333	1830.458984	55.181908
9612.733511	4786.993333	1829.462891	-44.871861
9612.733511	4786.993333	1828.466797	47.089096
9612.733511	4786.993333	1827.470703	-33.739510
9612.733511	4786.993333	1826.474609	-83.357285
9612.733511	4786.993333	1825.478516	56.513523
9612.733511	4786.993333	1824.481445	95.611679
9612.733511	4786.993333	1823.484375	199.422836
9612.733511	4786.993333	1822.487305	20.337523
9612.733511	4786.993333	1821.490234	28.249695
9612.733511	4786.993333	1820.493164	-50.107826
9612.733511	4786.993333	1819.495117	39.257137
9612.733511	4786.993333	1818.498047	-77.407379
9612.733511	4786.993333	1817.500000	21.497334
9612.733511	4786.993333	1816.500977	41.345188
9612.733511	4786.993333	1815.502930	176.087631
9612.733511	4786.993333	1814.504883	42.707787
9612.733511	4786.993333	1813.505859	-23.624207
9612.733511	4786.993333	1812.506836	-10.983444
9612.733511	4786.993333	1811.507813	-113.173721
9612.733511	4786.993333	1810.508789	50.139828
9612.733511	4786.993333	1809.508789	34.046272
9612.733511	4786.993333	1808.508789	104.018867
9612.733511	4786.993333	1807.508789	4.248701
9612.733511	4786.993333	1806.508789	-28.574863
9612.733511	4786.993333	1805.508789	-75.729004
9612.733511	4786.993333	1804.508789	-15.370051
9612.733511	4786.993333	1803.507813	28.238966
9612.733511	4786.993333	1802.506836	24.064274
9612.733511	4786.993333	1801.505859	-27.866867
9612.733511	4786.993333	1800.504883	108.796783
9612.733511	4786.993333	1799.502930	92.654488
9612.733511	4786.993333	1798.501953	47.877361
9612.733511	4786.993333	1797.500000	36.509689
9612.733511	4786.993333	1796.498047	120.551437
9612.733511	4786.993333	1795.496094	92.465897
9612.733511	4786.993333	1794.493164	-19.072010
9612.733511	4786.993333	1793.491211	0.543714
9612.733511	4786.993333	1792.488281	103.565796
9612.733511	4786.993333	1791.485352	94.537682
9612.733511	4786.993333	1790.482422	90.270576
9612.733511	4786.993333	1789.478516	143.168121
9612.733511	4786.993333	1788.475586	84.098610
9612.733511	4786.993333	1787.471680	127.436272
9612.733511	4786.993333	1786.467773	-24.475840
9612.733511	4786.993333	1785.463867	2.187642
9612.733511	4786.993333	1784.459961	81.190086
9612.733511	4786.993333	1783.455078	98.287865
9612.733511	4786.993333	1782.450195	-46.400532
9612.733511	4786.993333	1781.445313	-50.708435
9612.733511	4786.993333	1780.440430	2.050868
9612.733511	4786.993333	1779.435547	2.473260
9612.733511	4786.993333	1778.429688	-23.262785
9612.733511	4786.993333	1777.424805	136.388428
9612.733511	4786.993333	1776.418945	117.748268
9612.733511	4786.993333	1775.413086	-14.933651
9612.733511	4786.993333	1774.406250	97.088997
9612.733511	4786.993333	1773.400391	-16.557213
9612.733511	4786.993333	1772.393555	112.026901
9612.733511	4786.993333	1771.386719	-44.330635
9612.733511	4786.993333	1770.379883	3.490005
9612.733511	4786.993333	1769.373047	44.164066
9612.733511	4786.993333	1768.365234	-26.703781
9612.733511	4786.993333	1767.358398	111.202843
9612.733511	4786.993333	1766.350586	49.817928
9612.733511	4786.993333	1765.342773	19.274015
9612.733511	4786.993333	1764.334961	-84.764389
9612.733511	4786.993333	1763.326172	143.084702
9612.733511	4786.993333	1762.318359	-36.796104
9612.733511	4786.993333	1761.309570	27.441435
9612.733511	4786.993333	1760.300781	148.502411
9612.733511	4786.993333	1759.291016	46.856419
9612.733511	4786.993333	1758.282227	54.176441
9612.733511	4786.993333	1757.272461	101.733246
9612.733511	4786.993333	1756.262695	104.284958
9612.733511	4786.993333	1755.252930	-49.384789
9612.733511	4786.993333	1754.243164	-37.359993
9612.733511	4786.993333	1753.233398	5.407153
9612.733511	4786.993333	1752.222656	-105.608185
9612.733511	4786.993333	1751.211914	17.545017
9612.733511	4786.993333	1750.201172	173.744675
9612.733511	4786.993333	1749.190430	110.012711
9612.733511	4786.993333	1748.179688	129.022934
9612.733511	4786.993333	1747.167969	1.495604
9612.733511	4786.993333	1746.156250	-26.757870
9612.733511	4786.993333	1745.144531	122.162888
9612.733511	4786.993333	1744.132813	98.600632
9612.733511	4786.993333	1743.121094	-7.611649
9612.733511	4786.993333	1742.108398	-21.718603
9612.733511	4786.993333	1741.095703	11.380317
9612.733511	4786.993333	1740.083008	-73.546837
9612.733511	4786.993333	1739.070313	20.878340
9612.733511	4786.993333	1738.057617	-9.778249
9612.733511	4786.993333	1737.043945	-141.859436
9612.733511	4786.993333	1736.030273	77.479530
9612.733511	4786.993333	1735.016602	-28.652479
9612.733511	4786.993333	1734.002930	86.836327
9612.733511	4786.993333	1732.989258	23.146130
9612.733511	4786.993333	1731.974609	93.786606
9612.733511	4786.993333	1730.959961	-2.887193
9612.733511	4786.993333	1729.945313	67.709686
9612.733511	4786.993333	1728.930664	44.065037
9612.733511	4786.993333	1727.916016	-123.214935
9612.733511	4786.993333	1726.900391	-12.646731
9612.733511	4786.993333	1725.885742	-43.355324
9612.733511	4786.993333	1724.870117	-71.710861
9612.733511	4786.993333	1723.853516	-60.068832
9612.733511	4786.993333	1722.837891	-34.326378
9612.733511	4786.993333	1721.822266	-65.050537
9612.733511	4786.993333	1720.805664	129.968964
9612.733511	4786.993333	1719.789063	-32.456665
9612.733511	4786.993333	1718.772461	0.269274
9612.733511	4786.993333	1717.754883	37.670990
9612.733511	4786.993333	1716.738281	-44.785740
9612.733511	4786.993333	1715.720703	46.622288
9612.733511	4786.993333	1714.703125	93.357224
9612.733511	4786.993333	1713.685547	-3.185897
9612.733511	4786.993333	1712.667969	52.911411
9612.733511	4786.993333	1711.649414	50.288540
9612.733511	4786.993333	1710.630859	0.716770
9612.733511	4786.993333	1709.612305	21.549641
9612.733511	4786.993333	1708.593750	0.134344
9612.733511	4786.993333	1707.575195	-58.813267
9612.733511	4786.993333	1706.555664	1.854465
9612.733511	4786.993333	1705.536133	3.870296
9612.733511	4786.993333	1704.516602	76.203979
9612.733511	4786.993333	1703.497070	21.931734
9612.733511	4786.993333	1702.477539	16.881220
9612.733511	4786.993333	1701.457031	23.535513
9612.733511	4786.993333	1700.437500	62.974468
9612.733511	4786.993333	1699.416992	29.781870
9612.733511	4786.993333	1698.395508	-45.558388
9612.733511	4786.993333	1697.375000	24.273361
9612.733511	4786.993333	1696.354492	89.387123
9612.733511	4786.993333	1695.333008	126.381172
9612.733511	4786.993333	1694.311523	-12.135169
9612.733511	4786.993333	1693.290039	38.880142
9612.733511	4786.993333	1692.267578	68.813927
9612.733511	4786.993333	1691.246094	-53.271870
9612.733511	4786.993333	1690.223633	91.211288
9612.733511	4786.993333	1689.201172	39.273643
9612.733511	4786.993333	1688.178711	120.561745
9612.733511	4786.993333	1687.155273	47.586891
9612.733511	4786.993333	1686.132813	21.356918
9612.733511	4786.993333	1685.109375	-77.282890
9612.733511	4786.993333	1684.085938	36.619186
9612.733511	4786.993333	1683.062500	-1.298125
9612.733511	4786.993333	1682.039063	2.809478
9612.733511	4786.993333	1681.014648	72.254517
9612.733511	4786.993333	1679.990234	15.654278
9612.733511	4786.993333	1678.965820	-3.604461
9612.733511	4786.993333	1677.941406	77.437843
9612.733511	4786.993333	1676.916992	60.488293
9612.733511	4786.993333	1675.891602	99.495613
9612.733511	4786.993333	1674.866211	28.909641
9612.733511	4786.993333	1673.840820	-57.974133
9612.733511	4786.993333	1672.815430	-79.582397
9612.733511	4786.993333	1671.790039	-14.984406
9612.733511	4786.993333	1670.763672	75.202126
9612.733511	4786.993333	1669.737305	30.262039
9612.733511	4786.993333	1668.710938	-21.654673
9612.733511	4786.993333	1667.684570	-1.388267
9612.733511	4786.993333	1666.658203	39.810852
9612.733511	4786.993333	1665.630859	39.093990
9612.733511	4786.993333	1664.603516	145.400818
9612.733511	4786.993333	1663.576172	23.678194
9612.733511	4786.993333	1662.548828	11.310980
9612.733511	4786.993333	1661.520508	15.216568
9612.733511	4786.993333	1660.493164	121.413948
9612.733511	4786.993333	1659.464844	-32.787579
9612.733511	4786.993333	1658.436523	-1.010301
9612.733511	4786.993333	1657.408203	-1.783909
9612.733511	4786.993333	1656.378906	132.178101
9612.733511	4786.993333	1655.350586	117.427521
9612.733511	4786.993333	1654.321289	202.531876
9612.733511	4786.993333	1653.291992	192.400177
9612.733511	4786.993333	1652.261719	29.051815
9612.733511	4786.993333	1651.232422	70.004448
9612.733511	4786.993333	1650.202148	159.662003
9612.733511	4786.993333	1649.171875	144.876358
9612.733511	4786.993333	1648.141602	58.182323
9612.733511	4786.993333	1647.111328	210.386612
9612.733511	4786.993333	1646.080078	146.885086
9612.733511	4786.993333	1645.049805	162.223770
9612.733511	4786.993333	1644.018555	96.425690
9612.733511	4786.993333	1642.987305	125.657707
9612.733511	4786.993333	1641.955078	238.278061
9612.733511	4786.993333	1640.923828	195.648743
9612.733511	4786.993333	1639.891602	146.080338
9612.733511	4786.993333	1638.859375	272.506836
9612.733511	4786.993333	1637.827148	195.149551
9612.733511	4786.993333	1636.794922	212.717560
9612.733511	4786.993333	1635.761719	193.243912
9612.733511	4786.993333	1634.729492	78.910446
9612.733511	4786.993333	1633.696289	66.399300
9612.733511	4786.993333	1632.662109	137.148575
9612.733511	4786.993333	1631.628906	69.122894
9612.733511	4786.993333	1630.594727	51.979931
9612.733511	4786.993333	1629.561523	159.661865
9612.733511	4786.993333	1628.527344	100.899612
9612.733511	4786.993333	1627.493164	259.352325
9612.733511	4786.993333	1626.458008	179.790268
9612.733511	4786.993333	1625.423828	162.619553
9612.733511	4786.993333	1624.388672	150.067139
9612.733511	4786.993333	1623.353516	216.015823
9612.733511	4786.993333	1622.318359	238.075607
9612.733511	4786.993333	1621.282227	188.574875
9612.733511	4786.993333	1620.247070	58.331348
9612.733511	4786.993333	1619.210938	29.640846
9612.733511	4786.993333	1618.174805	256.987732
9612.733511	4786.993333	1617.137695	129.097870
9612.733511	4786.993333	1616.101563	298.688904
9612.733511	4786.993333	1615.064453	272.264130
9612.733511	4786.993333	1614.027344	100.645836
9612.733511	4786.993333	1612.990234	212.524109
9612.733511	4786.993333	1611.953125	285.189606
9612.733511	4786.993333	1610.916016	171.246933
9612.733511	4786.993333	1609.877930	181.705170
9612.733511	4786.993333	1608.839844	256.627808
9612.733511	4786.993333	1607.801758	352.237640
9612.733511	4786.993333	1606.763672	180.818954
9612.733511	4786.993333	1605.724609	363.845673
9612.733511	4786.993333	1604.685547	254.605423
9612.733511	4786.993333	1603.646484	255.820007
9612.733511	4786.993333	1602.607422	257.033020
9612.733511	4786.993333	1601.568359	274.339844
9612.733511	4786.993333	1600.528320	404.284668
9612.733511	4786.993333	1599.489258	403.166229
9612.733511	4786.993333	1598.449219	284.844788
9612.733511	4786.993333	1597.408203	334.290680
9612.733511	4786.993333	1596.368164	415.879333
9612.733511	4786.993333	1595.327148	419.345490
9612.733511	4786.993333	1594.287109	326.370178
9612.733511	4786.993333	1593.246094	249.499252
9612.733511	4786.993333	1592.204102	379.237701
9612.733511	4786.993333	1591.163086	350.579620
9612.733511	4786.993333	1590.121094	354.053162
9612.733511	4786.993333	1589.079102	444.697998
9612.733511	4786.993333	1588.037109	452.740265
9612.733511	4786.993333	1586.995117	258.986298
9612.733511	4786.993333	1585.953125	400.037354
9612.733511	4786.993333	1584.910156	318.687622
9612.733511	4786.993333	1583.867188	473.422943
9612.733511	4786.993333	1582.824219	515.824585
9612.733511	4786.993333	1581.781250	459.703705
9612.733511	4786.993333	1580.737305	403.604034
9612.733511	4786.993333	1579.693359	409.357666
9612.733511	4786.993333	1578.649414	373.899292
9612.733511	4786.993333	1577.605469	430.020050
9612.733511	4786.993333	1576.561523	458.658142
9612.733511	4786.993333	1575.516602	443.809448
9612.733511	4786.993333	1574.472656	557.084167
9612.733511	4786.993333	1573.427734	613.133179
9612.733511	4786.993333	1572.381836	431.330170
9612.733511	4786.993333	1571.336914	574.270630
9612.733511	4786.993333	1570.291016	387.980988
9612.733511	4786.993333	1569.246094	434.889709
9612.733511	4786.993333	1568.200195	362.959290
9612.733511	4786.993333	1567.153320	409.857788
9612.733511	4786.993333	1566.107422	379.082581
9612.733511	4786.993333	1565.060547	270.675720
9612.733511	4786.993333	1564.013672	395.206970
9612.733511	4786.993333	1562.966797	321.090576
9612.733511	4786.993333	1561.919922	269.830566
9612.733511	4786.993333	1560.872070	172.955643
9612.733511	4786.993333	1559.825195	121.754601
9612.733511	4786.993333	1558.777344	218.842285
9612.733511	4786.993333	1557.729492	115.207413
9612.733511	4786.993333	1556.680664	86.860146
9612.733511	4786.993333	1555.632813	117.803062
9612.733511	4786.993333	1554.583984	249.022690
9612.733511	4786.993333	1553.535156	222.961288
9612.733511	4786.993333	1552.486328	187.803101
9612.733511	4786.993333	1551.436523	282.501190
9612.733511	4786.993333	1550.387695	128.931656
9612.733511	4786.993333	1549.337891	180.354462
9612.733511	4786.993333	1548.288086	193.062454
9612.733511	4786.993333	1547.238281	89.692513
9612.733511	4786.993333	1546.187500	166.142563
9612.733511	4786.993333	1545.136719	192.515976
9612.733511	4786.993333	1544.086914	166.568909
9612.733511	4786.993333	1543.035156	240.703888
9612.733511	4786.993333	1541.984375	207.949356
9612.733511	4786.993333	1540.933594	147.934708
9612.733511	4786.993333	1539.881836	199.323074
9612.733511	4786.993333	1538.830078	107.532677
9612.733511	4786.993333	1537.778320	158.925018
9612.733511	4786.993333	1536.725586	117.168121
9612.733511	4786.993333	1535.673828	186.724731
9612.733511	4786.993333	1534.621094	129.100677
9612.733511	4786.993333	1533.568359	219.074997
9612.733511	4786.993333	1532.515625	225.039963
9612.733511	4786.993333	1531.461914	133.427277
9612.733511	4786.993333	1530.409180	139.425201
9612.733511	4786.993333	1529.355469	111.400993
9612.733511	4786.993333	1528.301758	219.478363
9612.733511	4786.993333	1527.247070	166.523666
9612.733511	4786.993333	1526.193359	154.410110
9612.733511	4786.993333	1525.138672	174.042145
9612.733511	4786.993333	1524.083984	116.625496
9612.733511	4786.993333	1523.029297	45.647591
9612.733511	4786.993333	1521.974609	15.483585
9612.733511	4786.993333	1520.918945	41.962292
9612.733511	4786.993333	1519.863281	-19.871262
9612.733511	4786.993333	1518.807617	88.128571
9612.733511	4786.993333	1517.751953	-37.046375
9612.733511	4786.993333	1516.696289	64.147507
9612.733511	4786.993333	1515.639648	160.785660
9612.733511	4786.993333	1514.583008	139.763153
9612.733511	4786.993333	1513.526367	100.667046
9612.733511	4786.993333	1512.469727	38.985252
9612.733511	4786.993333	1511.412109	74.554024
9612.733511	4786.993333	1510.355469	17.446898
9612.733511	4786.993333	1509.297852	80.149712
9612.733511	4786.993333	1508.240234	18.567709
9612.733511	4786.993333	1507.181641	-18.129330
9612.733511	4786.993333	1506.124023	-81.900681
9612.733511	4786.993333	1505.065430	-50.793121
9612.733511	4786.993333	1504.006836	-85.158791
9612.733511	4786.993333	1502.948242	-60.808601
9612.733511	4786.993333	1501.888672	-104.160591
9612.733511	4786.993333	1500.830078	-109.122406
9612.733511	4786.993333	1499.770508	-8.041983
9612.733511	4786.993333	1498.710938	-31.039099
9612.733511	4786.993333	1497.650391	-126.175789
9612.733511	4786.993333	1496.590820	-63.438442
9612.733511	4786.993333	1495.530273	64.655701
9612.733511	4786.993333	1494.469727	52.985332
9612.733511	4786.993333	1493.409180	-51.048553
9612.733511	4786.993333	1492.348633	-31.123569
9612.733511	4786.993333	1491.287109	-40.473541
9612.733511	4786.993333	1490.225586	49.277714
9612.733511	4786.993333	1489.164063	-27.598196
9612.733511	4786.993333	1488.102539	-61.659748
9612.733511	4786.993333	1487.041016	41.590729
9612.733511	4786.993333	1485.978516	-37.443810
9612.733511	4786.993333	1484.916016	-21.933632
9612.733511	4786.993333	1483.853516	-87.410370
9612.733511	4786.993333	1482.791016	144.001099
9612.733511	4786.993333	1481.727539	197.718903
9612.733511	4786.993333	1480.664063	-34.040066
9612.733511	4786.993333	1479.600586	55.675945
9612.733511	4786.993333	1478.537109	-47.829727
9612.733511	4786.993333	1477.473633	62.083649
9612.733511	4786.993333	1476.409180	32.768860
9612.733511	4786.993333	1475.344727	66.311836
9612.733511	4786.993333	1474.280273	81.920692
9612.733511	4786.993333	1473.215820	113.250313
9612.733511	4786.993333	1472.151367	144.541016
9612.733511	4786.993333	1471.085938	5.443063
9612.733511	4786.993333	1470.020508	34.611118
9612.733511	4786.993333	1468.955078	-86.469360
9612.733511	4786.993333	1467.888672	110.797211
9612.733511	4786.993333	1466.823242	68.074944
9612.733511	4786.993333	1465.756836	171.123779
9612.733511	4786.993333	1464.690430	-92.856285
9612.733511	4786.993333	1463.624023	-5.569239
9612.733511	4786.993333	1462.556641	35.077644
9612.733511	4786.993333	1461.490234	171.461670
9612.733511	4786.993333	1460.422852	89.101250
9612.733511	4786.993333	1459.355469	59.924335
9612.733511	4786.993333	1458.287109	39.825966
9612.733511	4786.993333	1457.219727	137.931351
9612.733511	4786.993333	1456.151367	252.094009
9612.733511	4786.993333	1455.083008	71.572365
9612.733511	4786.993333	1454.014648	167.956345
9612.733511	4786.993333	1452.945313	187.919388
9612.733511	4786.993333	1451.876953	232.810654
9612.733511	4786.993333	1450.807617	173.391541
9612.733511	4786.993333	1449.738281	107.986771
9612.733511	4786.993333	1448.668945	190.960205
9612.733511	4786.993333	1447.598633	144.259308
9612.733511	4786.993333	1446.528320	112.153091
9612.733511	4786.993333	1445.458008	47.167011
9612.733511	4786.993333	1444.387695	-76.272591
9612.733511	4786.993333	1443.317383	76.824104
9612.733511	4786.993333	1442.246094	161.700531
9612.733511	4786.993333	1441.174805	90.523064
9612.733511	4786.993333	1440.103516	80.168251
9612.733511	4786.993333	1439.032227	133.197174
9612.733511	4786.993333	1437.960938	-26.610811
9612.733511	4786.993333	1436.888672	120.240761
9612.733511	4786.993333	1435.816406	256.930847
9612.733511	4786.993333	1434.744141	27.056715
9612.733511	4786.993333	1433.670898	94.936615
9612.733511	4786.993333	1432.598633	249.814041
9612.733511	4786.993333	1431.525391	20.042803
9612.733511	4786.993333	1430.452148	49.809612
9612.733511	4786.993333	1429.378906	109.423592
9612.733511	4786.993333	1428.304688	129.860825
9612.733511	4786.993333	1427.231445	38.176609
9612.733511	4786.993333	1426.157227	-53.269184
9612.733511	4786.993333	1425.083008	91.036690
9612.733511	4786.993333	1424.007813	184.271576
9612.733511	4786.993333	1422.933594	39.155624
9612.733511	4786.993333	1421.858398	-26.377890
9612.733511	4786.993333	1420.783203	44.122185
9612.733511	4786.993333	1419.708008	105.109978
9612.733511	4786.993333	1418.631836	37.675518
9612.733511	4786.993333	1417.555664	-117.756477
9612.733511	4786.993333	1416.479492	-79.153259
9612.733511	4786.993333	1415.403320	-13.309736
9612.733511	4786.993333	1414.327148	-115.444138
9612.733511	4786.993333	1413.250000	12.400347
9612.733511	4786.993333	1412.173828	-18.383669
9612.733511	4786.993333	1411.096680	65.852295
9612.733511	4786.993333	1410.018555	11.459382
9612.733511	4786.993333	1408.941406	19.910172
9612.733511	4786.993333	1407.863281	-41.799091
9612.733511	4786.993333	1406.785156	27.559816
9612.733511	4786.993333	1405.707031	74.203705
9612.733511	4786.993333	1404.628906	49.274178
9612.733511	4786.993333	1403.549805	28.457710
9612.733511	4786.993333	1402.470703	118.746597
9612.733511	4786.993333	1401.391602	14.715055
9612.733511	4786.993333	1400.312500	69.834770
9612.733511	4786.993333	1399.233398	90.691200
9612.733511	4786.993333	1398.153320	1.122261
9612.733511	4786.993333	1397.073242	73.567413
9612.733511	4786.993333	1395.993164	102.102325
9612.733511	4786.993333	1394.913086	90.042931
9612.733511	4786.993333	1393.832031	86.651520
9612.733511	4786.993333	1392.750977	41.580860
9612.733511	4786.993333	1391.669922	80.915894
9612.733511	4786.993333	1390.588867	79.861687
9612.733511	4786.993333	1389.506836	2.259236
9612.733511	4786.993333	1388.425781	-75.496811
9612.733511	4786.993333	1387.343750	138.352722
9612.733511	4786.993333	1386.261719	135.784164
9612.733511	4786.993333	1385.178711	151.817825
9612.733511	4786.993333	1384.096680	228.413086
9612.733511	4786.993333	1383.013672	189.501663
9612.733511	4786.993333	1381.930664	97.437241
9612.733511	4786.993333	1380.846680	207.681091
9612.733511	4786.993333	1379.763672	321.740814
9612.733511	4786.993333	1378.679688	134.708405
9612.733511	4786.993333	1377.595703	234.819809
9612.733511	4786.993333	1376.511719	146.973907
9612.733511	4786.993333	1375.427734	195.794205
9612.733511	4786.993333	1374.342773	213.463272
9612.733511	4786.993333	1373.257813	223.115891
9612.733511	4786.993333	1372.172852	221.711975
9612.733511	4786.993333	1371.087891	231.656281
9612.733511	4786.993333	1370.001953	249.572830
9612.733511	4786.993333	1368.916992	264.365814
9612.733511	4786.993333	1367.831055	301.978149
9612.733511	4786.993333	1366.744141	293.341980
9612.733511	4786.993333	1365.658203	250.275436
9612.733511	4786.993333	1364.571289	402.228394
9612.733511	4786.993333	1363.484375	404.353546
9612.733511	4786.993333	1362.397461	278.726990
9612.733511	4786.993333	1361.310547	194.153839
9612.733511	4786.993333	1360.222656	256.861816
9612.733511	4786.993333	1359.135742	253.592133
9612.733511	4786.993333	1358.047852	183.676727
9612.733511	4786.993333	1356.958984	218.005249
9612.733511	4786.993333	1355.871094	245.168884
9612.733511	4786.993333	1354.782227	133.483597
9612.733511	4786.993333	1353.693359	123.707314
9612.733511	4786.993333	1352.604492	106.935684
9612.733511	4786.993333	1351.515625	149.346359
9612.733511	4786.993333	1350.425781	105.492424
9612.733511	4786.993333	1349.335938	101.962776
9612.733511	4786.993333	1348.246094	19.483433
9612.733511	4786.993333	1347.156250	36.597767
9612.733511	4786.993333	1346.066406	133.182159
9612.733511	4786.993333	1344.975586	95.760475
9612.733511	4786.993333	1343.884766	29.273579
9612.733511	4786.993333	1342.793945	135.657425
9612.733511	4786.993333	1341.702148	149.828964
9612.733511	4786.993333	1340.611328	80.902298
9612.733511	4786.993333	1339.519531	31.047384
9612.733511	4786.993333	1338.427734	41.695225
9612.733511	4786.993333	1337.334961	118.331215
9612.733511	4786.993333	1336.243164	-18.008839
9612.733511	4786.993333	1335.150391	118.322701
9612.733511	4786.993333	1334.057617	-6.250066
9612.733511	4786.993333	1332.964844	-80.788757
9612.733511	4786.993333	1331.871094	2.897652
9612.733511	4786.993333	1330.778320	92.865311
9612.733511	4786.993333	1329.684570	89.245407
9612.733511	4786.993333	1328.590820	27.488327
9612.733511	4786.993333	1327.496094	83.833008
9612.733511	4786.993333	1326.402344	48.637695
9612.733511	4786.993333	1325.307617	29.282253
9612.733511	4786.993333	1324.212891	58.653015
9612.733511	4786.993333	1323.117188	54.122780
9612.733511	4786.993333	1322.022461	133.463715
9612.733511	4786.993333	1320.926758	119.599258
9612.733511	4786.993333	1319.831055	17.890785
9612.733511	4786.993333	1318.735352	29.241982
9612.733511	4786.993333	1317.638672	228.271820
9612.733511	4786.993333	1316.542969	155.982758
9612.733511	4786.993333	1315.446289	222.476135
9612.733511	4786.993333	1314.349609	137.155228
9612.733511	4786.993333	1313.251953	255.506226
9612.733511	4786.993333	1312.155273	316.355713
9612.733511	4786.993333	1311.057617	288.489197
9612.733511	4786.993333	1309.959961	300.962219
9612.733511	4786.993333	1308.862305	364.868439
9612.733511	4786.993333	1307.763672	387.130157
9612.733511	4786.993333	1306.665039	327.082153
9612.733511	4786.993333	1305.566406	231.582214
9612.733511	4786.993333	1304.467773	234.984207
9612.733511	4786.993333	1303.369141	155.409592
9612.733511	4786.993333	1302.269531	108.937988
9612.733511	4786.993333	1301.169922	85.491493
9612.733511	4786.993333	1300.070313	49.758453
9612.733511	4786.993333	1298.970703	28.955040
9612.733511	4786.993333	1297.870117	61.506138
9612.733511	4786.993333	1296.769531	91.065231
9612.733511	4786.993333	1295.668945	119.682976
9612.733511	4786.993333	1294.568359	6.615076
9612.733511	4786.993333	1293.466797	34.754246
9612.733511	4786.993333	1292.366211	0.374730
9612.733511	4786.993333	1291.264648	35.043335
9612.733511	4786.993333	1290.162109	36.298531
9612.733511	4786.993333	1289.060547	-33.207096
9612.733511	4786.993333	1287.958008	-76.415947
9612.733511	4786.993333	1286.855469	37.433250
9612.733511	4786.993333	1285.752930	-39.198711
9612.733511	4786.993333	1284.650391	-5.522431
9612.733511	4786.993333	1283.546875	41.246017
9612.733511	4786.993333	1282.444336	86.763931
9612.733511	4786.993333	1281.339844	146.815063
9612.733511	4786.993333	1280.236328	147.910782
9612.733511	4786.993333	1279.132813	99.098190
9612.733511	4786.993333	1278.028320	72.584618
9612.733511	4786.993333	1276.923828	11.855330
9612.733511	4786.993333	1275.819336	20.839861
9612.733511	4786.993333	1274.713867	97.998489
9612.733511	4786.993333	1273.608398	29.415571
9612.733511	4786.993333	1272.503906	37.908318
9612.733511	4786.993333	1271.397461	12.993205
9612.733511	4786.993333	1270.291992	154.832153
9612.733511	4786.993333	1269.185547	87.849373
9612.733511	4786.993333	1268.080078	45.557327
9612.733511	4786.993333	1266.972656	-9.244669
9612.733511	4786.993333	1265.866211	85.140816
9612.733511	4786.993333	1264.759766	101.196091
9612.733511	4786.993333	1263.652344	69.922554
9612.733511	4786.993333	1262.544922	76.709625
9612.733511	4786.993333	1261.436523	-51.817757
9612.733511	4786.993333	1260.329102	44.098820
9612.733511	4786.993333	1259.220703	55.575638
9612.733511	4786.993333	1258.112305	23.978628
9612.733511	4786.993333	1257.003906	59.755375
9612.733511	4786.993333	1255.895508	56.775833
9612.733511	4786.993333	1254.786133	23.692835
9612.733511	4786.993333	1253.676758	10.091996
9612.733511	4786.993333	1252.567383	-28.727045
9612.733511	4786.993333	1251.458008	-71.866508
9612.733511	4786.993333	1250.347656	-25.468941
9612.733511	4786.993333	1249.237305	-73.772972
9612.733511	4786.993333	1248.126953	-64.912575
9612.733511	4786.993333	1247.016602	-27.030005
9612.733511	4786.993333	1245.905273	-73.352730
9612.733511	4786.993333	1244.793945	-24.597462
9612.733511	4786.993333	1243.682617	117.674599
9612.733511	4786.993333	1242.571289	-33.596775
9612.733511	4786.993333	1241.459961	58.950539
9612.733511	4786.993333	1240.347656	-67.454842
9612.733511	4786.993333	1239.235352	37.703743
9612.733511	4786.993333	1238.123047	47.357758
9612.733511	4786.993333	1237.009766	52.402340
9612.733511	4786.993333	1235.897461	98.043282
9612.733511	4786.993333	1234.784180	104.668213
9612.733511	4786.993333	1233.670898	-16.267296
9612.733511	4786.993333	1232.556641	-7.701567
9612.733511	4786.993333	1231.443359	109.660492
9612.733511	4786.993333	1230.329102	78.749519
9612.733511	4786.993333	1229.214844	-24.010658
9612.733511	4786.993333	1228.099609	48.855705
9612.733511	4786.993333	1226.985352	20.439556
9612.733511	4786.993333	1225.870117	32.406933
9612.733511	4786.993333	1224.754883	58.580559
9612.733511	4786.993333	1223.639648	-21.207710
9612.733511	4786.993333	1222.523438	14.352372
9612.733511	4786.993333	1221.408203	44.086079
9612.733511	4786.993333	1220.291992	118.212227
9612.733511	4786.993333	1219.174805	133.260910
9612.733511	4786.993333	1218.058594	110.993927
9612.733511	4786.993333	1216.941406	102.444557
9612.733511	4786.993333	1215.824219	148.908630
9612.733511	4786.993333	1214.707031	88.166740
9612.733511	4786.993333	1213.589844	79.526321
9612.733511	4786.993333	1212.471680	76.205360
9612.733511	4786.993333	1211.353516	56.344421
9612.733511	4786.993333	1210.235352	195.950638
9612.733511	4786.993333	1209.117188	136.646896
9612.733511	4786.993333	1207.998047	43.779598
9612.733511	4786.993333	1206.878906	39.697784
9612.733511	4786.993333	1205.759766	-36.706139
9612.733511	4786.993333	1204.640625	-80.833229
9612.733511	4786.993333	1203.520508	66.973007
9612.733511	4786.993333	1202.401367	-4.928092
9612.733511	4786.993333	1201.281250	-42.462132
9612.733511	4786.993333	1200.160156	-24.308969
9612.733511	4786.993333	1199.040039	64.083603
9612.733511	4786.993333	1197.918945	70.888618
9612.733511	4786.993333	1196.797852	-59.661129
9612.733511	4786.993333	1195.676758	92.572876
9612.733511	4786.993333	1194.555664	28.788198
9612.733511	4786.993333	1193.433594	36.341545
9612.733511	4786.993333	1192.311523	-36.589462
9612.733511	4786.993333	1191.189453	14.561903
9612.733511	4786.993333	1190.066406	-22.851082
9612.733511	4786.993333	1188.944336	-48.862152
9612.733511	4786.993333	1187.821289	-81.669357
9612.733511	4786.993333	1186.698242	87.326309
9612.733511	4786.993333	1185.574219	22.028435
9612.733511	4786.993333	1184.451172	4.755813
9612.733511	4786.993333	1183.327148	24.368990
9612.733511	4786.993333	1182.203125	-39.977352
9612.733511	4786.993333	1181.078125	-62.862549
9612.733511	4786.993333	1179.954102	21.863749
9612.733511	4786.993333	1178.829102	-31.955492
9612.733511	4786.993333	1177.704102	-26.670961
9612.733511	4786.993333	1176.579102	9.350478
9612.733511	4786.993333	1175.453125	28.675968
9612.733511	4786.993333	1174.327148	-41.440678
9612.733511	4786.993333	1173.201172	-31.480091
9612.733511	4786.993333	1172.075195	-41.002499
9612.733511	4786.993333	1170.949219	-38.175537
9612.733511	4786.993333	1169.822266	-60.469673
9612.733511	4786.993333	1168.695313	-39.606667
9612.733511	4786.993333	1167.568359	-84.245857
9612.733511	4786.993333	1166.440430	12.382035
9612.733511	4786.993333	1165.313477	-55.688789
9612.733511	4786.993333	1164.185547	-92.870293
9612.733511	4786.993333	1163.057617	-99.324661
9612.733511	4786.993333	1161.928711	-9.515038
9612.733511	4786.993333	1160.800781	6.412145
9612.733511	4786.993333	1159.671875	-71.970734
9612.733511	4786.993333	1158.541992	-5.160910
9612.733511	4786.993333	1157.413086	-13.433206
9612.733511	4786.993333	1156.283203	-82.303642
9612.733511	4786.993333	1155.154297	33.488628
9612.733511	4786.993333	1154.023438	21.425962
9612.733511	4786.993333	1152.893555	-48.864441
9612.733511	4786.993333	1151.763672	-70.218796
9612.733511	4786.993333	1150.632813	-75.920609
9612.733511	4786.993333	1149.501953	-18.156891
9612.733511	4786.993333	1148.370117	-90.473854
9612.733511	4786.993333	1147.239258	-45.417225
9612.733511	4786.993333	1146.107422	7.365555
9612.733511	4786.993333	1144.975586	29.015615
9612.733511	4786.993333	1143.843750	102.470314
9612.733511	4786.993333	1142.710938	66.341621
9612.733511	4786.993333	1141.578125	-0.696101
9612.733511	4786.993333	1140.445313	82.844795
9612.733511	4786.993333	1139.312500	49.343567
9612.733511	4786.993333	1138.178711	31.469784
9612.733511	4786.993333	1137.045898	18.405375
9612.733511	4786.993333	1135.912109	35.439320
9612.733511	4786.993333	1134.777344	16.507992
9612.733511	4786.993333	1133.643555	7.831926
9612.733511	4786.993333	1132.508789	13.202028
9612.733511	4786.993333	1131.374023	14.652577
9612.733511	4786.993333	1130.239258	-44.065090
9612.733511	4786.993333	1129.104492	-9.439386
9612.733511	4786.993333	1127.968750	9.113764
9612.733511	4786.993333	1126.833008	-47.504627
9612.733511	4786.993333	1125.697266	51.672596
9612.733511	4786.993333	1124.560547	67.151367
9612.733511	4786.993333	1123.424805	-26.499008
9612.733511	4786.993333	1122.288086	48.144093
9612.733511	4786.993333	1121.151367	36.242954
9612.733511	4786.993333	1120.013672	34.392830
9612.733511	4786.993333	1118.876953	-98.996078
9612.733511	4786.993333	1117.739258	53.358654
9612.733511	4786.993333	1116.601563	25.962116
9612.733511	4786.993333	1115.462891	-90.427368
9612.733511	4786.993333	1114.324219	-30.821295
9612.733511	4786.993333	1113.186523	-11.481602
9612.733511	4786.993333	1112.046875	12.281879
9612.733511	4786.993333	1110.908203	-25.752977
9612.733511	4786.993333	1109.769531	15.815688
9612.733511	4786.993333	1108.629883	-24.912054
9612.733511	4786.993333	1107.490234	-119.497925
9612.733511	4786.993333	1106.349609	-104.055740
9612.733511	4786.993333	1105.209961	21.894737
9612.733511	4786.993333	1104.069336	12.783207
9612.733511	4786.993333	1102.928711	53.424454
9612.733511	4786.993333	1101.787109	-97.364708
9612.733511	4786.993333	1100.646484	-42.782665
9612.733511	4786.993333	1099.504883	5.236435
9612.733511	4786.993333	1098.363281	30.787207
9612.733511	4786.993333	1097.221680	22.748953
9612.733511	4786.993333	1096.079102	89.396454
9612.733511	4786.993333	1094.936523	20.256491
9612.733511	4786.993333	1093.793945	-12.662241
9612.733511	4786.993333	1092.651367	72.665077
9612.733511	4786.993333	1091.507813	-53.902336
9612.733511	4786.993333	1090.364258	41.280510
9612.733511	4786.993333	1089.220703	40.135887
9612.733511	4786.993333	1088.077148	5.440579
9612.733511	4786.993333	1086.933594	62.772625
9612.733511	4786.993333	1085.789063	17.960938
9612.733511	4786.993333	1084.644531	65.401039
9612.733511	4786.993333	1083.499023	-78.273491
9612.733511	4786.993333	1082.354492	-130.341766
9612.733511	4786.993333	1081.208984	27.690018
9612.733511	4786.993333	1080.063477	-6.050650
9612.733511	4786.993333	1078.917969	-24.496449
9612.733511	4786.993333	1077.771484	5.307926
9612.733511	4786.993333	1076.625977	-62.553719
9612.733511	4786.993333	1075.479492	12.142768
9612.733511	4786.993333	1074.332031	-11.661798
9612.733511	4786.993333	1073.185547	98.993904
9612.733511	4786.993333	1072.038086	-11.474141
9612.733511	4786.993333	1070.890625	-74.308205
9612.733511	4786.993333	1069.743164	41.610561
9612.733511	4786.993333	1068.594727	63.196117
9612.733511	4786.993333	1067.447266	-15.131354
9612.733511	4786.993333	1066.298828	23.555252
9612.733511	4786.993333	1065.149414	110.965324
9612.733511	4786.993333	1064.000977	71.045235
9612.733511	4786.993333	1062.851563	138.047226
9612.733511	4786.993333	1061.702148	116.219116
9612.733511	4786.993333	1060.552734	54.028156
9612.733511	4786.993333	1059.402344	-31.657421
9612.733511	4786.993333	1058.252930	19.809074
9612.733511	4786.993333	1057.102539	45.615318
9612.733511	4786.993333	1055.951172	47.855965
9612.733511	4786.993333	1054.800781	29.531298
9612.733511	4786.993333	1053.649414	65.885567
9612.733511	4786.993333	1052.498047	110.315628
9612.733511	4786.993333	1051.346680	67.435715
9612.733511	4786.993333	1050.194336	43.908401
9612.733511	4786.993333	1049.042969	42.045147
9612.733511	4786.993333	1047.890625	-64.152840
9612.733511	4786.993333	1046.738281	-5.281056
9612.733511	4786.993333	1045.584961	55.625034
9612.733511	4786.993333	1044.431641	60.728264
9612.733511	4786.993333	1043.278320	39.453415
9612.733511	4786.993333	1042.125000	-109.385086
9612.733511	4786.993333	1040.971680	-52.369766
9612.733511	4786.993333	1039.817383	141.066635
9612.733511	4786.993333	1038.663086	49.931999
9612.733511	4786.993333	1037.508789	8.235088
9612.733511	4786.993333	1036.353516	130.321472
9612.733511	4786.993333	1035.198242	77.119942
9612.733511	4786.993333	1034.042969	154.790649
9612.733511	4786.993333	1032.887695	197.440536
9612.733511	4786.993333	1031.732422	127.621826
9612.733511	4786.993333	1030.576172	79.618500
9612.733511	4786.993333	1029.419922	132.676834
9612.733511	4786.993333	1028.263672	130.706955
9612.733511	4786.993333	1027.106445	117.161293
9612.733511	4786.993333	1025.949219	86.686523
9612.733511	4786.993333	1024.792969	155.400589
9612.733511	4786.993333	1023.634766	138.689438
9612.733511	4786.993333	1022.477539	59.867325
9612.733511	4786.993333	1021.319336	1.120474
9612.733511	4786.993333	1020.161133	27.099308
9612.733511	4786.993333	1019.002930	115.932983
9612.733511	4786.993333	1017.843750	6.795508
9612.733511	4786.993333	1016.684570	5.567559
9612.733511	4786.993333	1015.525391	45.833138
9612.733511	4786.993333	1014.366211	5.173069
9612.733511	4786.993333	1013.207031	144.006317
9612.733511	4786.993333	1012.046875	46.281479
9612.733511	4786.993333	1010.886719	72.527023
9612.733511	4786.993333	1009.726563	-32.715046
9612.733511	4786.993333	1008.565430	68.193550
9612.733511	4786.993333	1007.404297	24.023731
9612.733511	4786.993333	1006.243164	-0.414413
9612.733511	4786.993333	1005.082031	-27.154060
9612.733511	4786.993333	1003.920898	59.802864
9612.733511	4786.993333	1002.758789	54.028656
9612.733511	4786.993333	1001.596680	106.226440
9612.733511	4786.993333	1000.433594	-33.141365
9612.733511	4786.993333	999.271484	9.610846
9612.733511	4786.993333	998.108398	-50.230816
9612.733511	4786.993333	996.945313	-27.199984
9612.733511	4786.993333	995.782227	5.648202
9612.733511	4786.993333	994.618164	7.352273
9612.733511	4786.993333	993.454102	203.040253
9612.733511	4786.993333	992.290039	86.259544
9612.733511	4786.993333	991.125977	-24.332830
9612.733511	4786.993333	989.960938	-18.151991
9612.733511	4786.993333	988.796875	82.938087
9612.733511	4786.993333	987.630859	160.864273
9612.733511	4786.993333	986.465820	11.573330
9612.733511	4786.993333	985.300781	175.955048
9612.733511	4786.993333	984.134766	153.929459
9612.733511	4786.993333	982.968750	-64.880661
9612.733511	4786.993333	981.801758	22.994488
9612.733511	4786.993333	980.635742	60.728954
9612.733511	4786.993333	979.468750	26.187593
9612.733511	4786.993333	978.301758	-9.215025
9612.733511	4786.993333	977.133789	47.297024
9612.733511	4786.993333	975.966797	155.134201
9612.733511	4786.993333	974.798828	116.871727
9612.733511	4786.993333	973.630859	28.480867
9612.733511	4786.993333	972.461914	11.972605
9612.733511	4786.993333	971.293945	51.356861
9612.733511	4786.993333	970.125000	35.381630
9612.733511	4786.993333	968.956055	162.837067
9612.733511	4786.993333	967.786133	62.478741
9612.733511	4786.993333	966.617188	126.902122
9612.733511	4786.993333	965.447266	-3.081899
9612.733511	4786.993333	964.276367	127.892433
9612.733511	4786.993333	963.106445	61.724365
9612.733511	4786.993333	961.935547	8.919791
9612.733511	4786.993333	960.764648	44.667873
9612.733511	4786.993333	959.593750	-7.980050
9612.733511	4786.993333	958.422852	52.882584
9612.733511	4786.993333	957.250977	55.943642
9612.733511	4786.993333	956.079102	133.533447
9612.733511	4786.993333	954.907227	129.365448
9612.733511	4786.993333	953.734375	160.483917
9612.733511	4786.993333	952.562500	31.709686
9612.733511	4786.993333	951.389648	77.719620
9612.733511	4786.993333	950.215820	-21.782629
9612.733511	4786.993333	949.042969	-19.656103
9612.733511	4786.993333	947.869141	68.464233
9612.733511	4786.993333	946.695313	25.862638
9612.733511	4786.993333	945.521484	30.050919
9612.733511	4786.993333	944.346680	-124.487999
9612.733511	4786.993333	943.172852	22.845917
9612.733511	4786.993333	941.998047	3.957166
9612.733511	4786.993333	940.822266	60.462742
9612.733511	4786.993333	939.647461	15.707858
9612.733511	4786.993333	938.471680	30.187042
9612.733511	4786.993333	937.295898	88.924629
9612.733511	4786.993333	936.119141	65.305832
9612.733511	4786.993333	934.943359	77.593918
9612.733511	4786.993333	933.766602	-114.879028
9612.733511	4786.993333	932.589844	-22.471184
9612.733511	4786.993333	931.413086	25.598536
9612.733511	4786.993333	930.235352	-10.701453
9612.733511	4786.993333	929.057617	43.621765
9612.733511	4786.993333	927.879883	66.350258
9612.733511	4786.993333	926.702148	32.153782
9612.733511	4786.993333	925.523438	-18.914555
9612.733511	4786.993333	924.344727	52.241711
9612.733511	4786.993333	923.166016	58.048939
9612.733511	4786.993333	921.987305	61.746464
9612.733511	4786.993333	920.807617	-44.066986
9612.733511	4786.993333	919.627930	-43.775620
9612.733511	4786.993333	919.497070	39.661430
9612.733511	4786.993333	918.331055	-36.659752
9612.733511	4786.993333	917.165039	65.917503
9612.733511	4786.993333	915.999023	-67.205833
9612.733511	4786.993333	914.833008	29.005468
9612.733511	4786.993333	913.666016	-17.846254
9612.733511	4786.993333	912.499023	21.523048
9612.733511	4786.993333	911.332031	-61.066471
9612.733511	4786.993333	910.165039	-15.417947
9612.733511	4786.993333	908.997070	40.710075
9612.733511	4786.993333	907.830078	111.512909
9612.733511	4786.993333	906.661133	-80.295525
9612.733511	4786.993333	905.493164	38.788551
9612.733511	4786.993333	904.325195	-58.457527
9612.733511	4786.993333	903.156250	-17.118752
9612.733511	4786.993333	901.987305	-68.156364
9612.733511	4786.993333	900.818359	-79.311485
9612.733511	4786.993333	899.648438	87.860893
9612.733511	4786.993333	898.478516	-11.437600
9612.733511	4786.993333	897.308594	25.611233
9612.733511	4786.993333	896.138672	24.895172
9612.733511	4786.993333	894.968750	9.496577
9612.733511	4786.993333	893.797852	109.369461
9612.733511	4786.993333	892.626953	37.366364
9612.733511	4786.993333	891.456055	30.329893
9612.733511	4786.993333	890.284180	-58.401188
9612.733511	4786.993333	889.113281	20.429438
9612.733511	4786.993333	887.941406	-64.092110
9612.733511	4786.993333	886.768555	-10.427928
9612.733511	4786.993333	885.596680	-78.181274
9612.733511	4786.993333	884.423828	115.643105
9612.733511	4786.993333	883.250977	54.151958
9612.733511	4786.993333	882.078125	157.915665
9612.733511	4786.993333	880.905273	0.231684
9612.733511	4786.993333	879.731445	43.316879
9612.733511	4786.993333	878.557617	42.480408
9612.733511	4786.993333	877.383789	177.480164
9612.733511	4786.993333	876.209961	132.722717
9612.733511	4786.993333	875.035156	87.976921
9612.733511	4786.993333	873.860352	87.102737
9612.733511	4786.993333	872.685547	54.899067
9612.733511	4786.993333	871.510742	16.438251
9612.733511	4786.993333	870.334961	67.741806
9612.733511	4786.993333	869.159180	-50.022182
9612.733511	4786.993333	867.983398	22.125116
9612.733511	4786.993333	866.807617	-20.496883
9612.733511	4786.993333	865.630859	-67.279289
9612.733511	4786.993333	864.454102	-13.959517
9612.733511	4786.993333	863.277344	62.264267
9612.733511	4786.993333	862.100586	192.642868
9612.733511	4786.993333	860.922852	-6.296393
9612.733511	4786.993333	859.745117	-40.564831
9612.733511	4786.993333	858.567383	-114.403831
9612.733511	4786.993333	857.389648	-38.269138
9612.733511	4786.993333	856.210938	-103.761864
9612.733511	4786.993333	855.032227	16.044439
9612.733511	4786.993333	853.853516	-84.827461
9612.733511	4786.993333	852.674805	39.075867
9612.733511	4786.993333	851.495117	44.333958
9612.733511	4786.993333	850.315430	-83.540062
9612.733511	4786.993333	849.135742	110.976822
9612.733511	4786.993333	847.956055	116.199608
9612.733511	4786.993333	846.775391	69.445374
9612.733511	4786.993333	845.595703	-25.097567
9612.733511	4786.993333	844.415039	-98.828110
9612.733511	4786.993333	843.233398	-18.798464
9612.733511	4786.993333	842.052734	-23.967232
9612.733511	4786.993333	840.871094	-18.755819
9612.733511	4786.993333	839.689453	63.268364
9612.733511	4786.993333	838.506836	-95.539085
9612.733511	4786.993333	837.325195	27.964083
9612.733511	4786.993333	836.142578	35.214584
9612.733511	4786.993333	834.959961	0.966551
9612.733511	4786.993333	833.777344	-47.790943
9612.733511	4786.993333	832.593750	-127.638359
9612.733511	4786.993333	831.410156	-153.553741
9612.733511	4786.993333	830.226563	-104.842186
9612.733511	4786.993333	829.042969	-66.517342
9612.733511	4786.993333	827.858398	17.369621
9612.733511	4786.993333	826.673828	10.070171
9612.733511	4786.993333	825.489258	13.124641
9612.733511	4786.993333	824.304688	1.678342
9612.733511	4786.993333	823.120117	-3.556766
9612.733511	4786.993333	821.934570	36.741161
9612.733511	4786.993333	820.749023	-24.381721
9612.733511	4786.993333	819.562500	-8.932674
9612.733511	4786.993333	818.376953	45.808041
9612.733511	4786.993333	817.190430	-15.292573
9612.733511	4786.993333	816.003906	37.350235
9612.733511	4786.993333	814.817383	-40.270092
9612.733511	4786.993333	813.629883	57.817429
9612.733511	4786.993333	812.442383	-38.381306
9612.733511	4786.993333	811.254883	24.535349
9612.733511	4786.993333	810.067383	-55.100780
9612.733511	4786.993333	808.878906	-41.777962
9612.733511	4786.993333	807.690430	-34.658989
9612.733511	4786.993333	806.501953	63.280823
9612.733511	4786.993333	805.313477	-12.186273
9612.733511	4786.993333	804.124023	-17.470676
9612.733511	4786.993333	802.934570	6.124930
9612.733511	4786.993333	801.745117	27.644274
9612.733511	4786.993333	800.555664	-20.961689
9612.733511	4786.993333	799.365234	130.433731
9612.733511	4786.993333	798.175781	-107.818764
9612.733511	4786.993333	796.985352	-3.875498
9612.733511	4786.993333	795.793945	110.323120
9612.733511	4786.993333	794.603516	8.170518
9612.733511	4786.993333	793.412109	-19.799208
9612.733511	4786.993333	792.220703	-14.814746
9612.733511	4786.993333	791.028320	-42.775795
9612.733511	4786.993333	789.836914	-33.679543
9612.733511	4786.993333	788.644531	20.681921
9612.733511	4786.993333	787.452148	44.155350
9612.733511	4786.993333	786.258789	-41.406532
9612.733511	4786.993333	785.066406	21.137783
9612.733511	4786.993333	783.873047	44.585285
9612.733511	4786.993333	782.679688	-24.488749
9612.733511	4786.993333	781.485352	25.669518
9612.733511	4786.993333	780.291992	14.157417
9612.733511	4786.993333	779.097656	62.225040
9612.733511	4786.993333	777.903320	-37.620934
9612.733511	4786.993333	776.708008	-18.320534
9612.733511	4786.993333	775.512695	48.191273
9612.733511	4786.993333	774.318359	14.087195
9612.733511	4786.993333	773.122070	-36.425289
9612.733511	4786.993333	771.926758	140.839905
9612.733511	4786.993333	770.730469	10.307127
9612.733511	4786.993333	769.534180	99.286789
9612.733511	4786.993333	768.337891	-29.139814
9612.733511	4786.993333	767.141602	33.150848
9612.733511	4786.993333	765.944336	-50.121365
9612.733511	4786.993333	764.747070	65.422798
9612.733511	4786.993333	763.549805	31.344610
9612.733511	4786.993333	762.351563	7.519192
9612.733511	4786.993333	761.154297	61.526608
9612.733511	4786.993333	759.956055	101.173492
9612.733511	4786.993333	758.757813	24.109854
9612.733511	4786.993333	757.558594	49.413197
9612.733511	4786.993333	756.359375	19.450331
9612.733511	4786.993333	755.160156	71.333305
9612.733511	4786.993333	753.960938	59.780376
9612.733511	4786.993333	752.761719	29.823019
9612.733511	4786.993333	751.561523	169.579239
9612.733511	4786.993333	750.361328	25.127045
9612.733511	4786.993333	749.160156	83.066124
9612.733511	4786.993333	747.959961	24.505888
9612.733511	4786.993333	746.758789	153.915985
9612.733511	4786.993333	745.557617	52.464283
9612.733511	4786.993333	744.356445	89.912956
9612.733511	4786.993333	743.154297	113.049675
9612.733511	4786.993333	741.952148	19.822573
9612.733511	4786.993333	740.750000	-59.084045
9612.733511	4786.993333	739.547852	-7.377233
9612.733511	4786.993333	738.344727	97.342476
9612.733511	4786.993333	737.142578	110.235558
9612.733511	4786.993333	735.939453	108.845337
9612.733511	4786.993333	734.735352	129.876373
9612.733511	4786.993333	733.532227	12.293862
9612.733511	4786.993333	732.328125	82.235580
9612.733511	4786.993333	731.124023	15.638207
9612.733511	4786.993333	729.918945	-14.270443
9612.733511	4786.993333	728.714844	84.132309
9612.733511	4786.993333	727.509766	125.477623
9612.733511	4786.993333	726.303711	44.658535
9612.733511	4786.993333	725.098633	71.738907
9612.733511	4786.993333	723.892578	-11.078339
9612.733511	4786.993333	722.686523	97.370064
9612.733511	4786.993333	721.480469	-30.174706
9612.733511	4786.993333	720.274414	21.283176
9612.733511	4786.993333	719.067383	-39.108105
9612.733511	4786.993333	717.860352	-40.530003
9612.733511	4786.993333	716.653320	-121.214966
9612.733511	4786.993333	715.445313	-45.417904
9612.733511	4786.993333	714.238281	-46.851505
9612.733511	4786.993333	713.030273	-11.731123
9612.733511	4786.993333	711.821289	-90.343903
9612.733511	4786.993333	710.613281	-12.605407
9612.733511	4786.993333	709.404297	-16.094282
9612.733511	4786.993333	708.195313	39.263416
9612.733511	4786.993333	706.986328	17.495737
9612.733511	4786.993333	705.776367	-54.980133
9612.733511	4786.993333	704.566406	20.616301
9612.733511	4786.993333	703.356445	59.678814
9612.733511	4786.993333	702.146484	98.720306
9612.733511	4786.993333	700.935547	30.321295
9612.733511	4786.993333	699.724609	45.025711
9612.733511	4786.993333	698.513672	53.641148
9612.733511	4786.993333	697.302734	37.941986
9612.733511	4786.993333	696.090820	-8.132150
9612.733511	4786.993333	694.878906	-15.724317
9612.733511	4786.993333	693.666992	65.747002
9612.733511	4786.993333	692.455078	13.608920
9612.733511	4786.993333	691.242188	46.468044
9612.733511	4786.993333	690.029297	57.055359
9612.733511	4786.993333	688.816406	-1.131853
9612.733511	4786.993333	687.602539	-57.278503
9612.733511	4786.993333	686.389648	149.408249
9612.733511	4786.993333	685.175781	157.922134
9612.733511	4786.993333	683.960938	216.946198
9612.733511	4786.993333	682.747070	128.452774
9612.733511	4786.993333	681.532227	122.808838
9612.733511	4786.993333	680.317383	151.493454
9612.733511	4786.993333	679.102539	180.160431
9612.733511	4786.993333	677.886719	269.369659
9612.733511	4786.993333	676.670898	160.746765
9612.733511	4786.993333	675.455078	225.696945
9612.733511	4786.993333	674.239258	236.144516
9612.733511	4786.993333	673.022461	175.986801
9612.733511	4786.993333	671.805664	117.865501
9612.733511	4786.993333	670.588867	132.343582
9612.733511	4786.993333	669.372070	78.275520
9612.733511	4786.993333	668.154297	62.514679
9612.733511	4786.993333	666.936523	93.095848
9612.733511	4786.993333	665.718750	65.239708
9612.733511	4786.993333	664.500977	37.390102
9612.733511	4786.993333	663.282227	-10.590584
9612.733511	4786.993333	662.063477	100.482109
9612.733511	4786.993333	660.844727	-52.164776
9612.733511	4786.993333	659.625000	97.091141
9612.733511	4786.993333	658.405273	105.447044
9612.733511	4786.993333	657.185547	81.610199
9612.733511	4786.993333	655.965820	-6.575644
9612.733511	4786.993333	654.745117	122.414223
9612.733511	4786.993333	653.525391	-7.968166
9612.733511	4786.993333	652.303711	104.877205
9612.733511	4786.993333	651.083008	83.044167
9612.733511	4786.993333	649.861328	83.312119
9612.733511	4786.993333	648.640625	13.278137
9612.733511	4786.993333	647.417969	91.862038
9612.733511	4786.993333	646.196289	84.079567
9612.733511	4786.993333	644.973633	78.300926
9612.733511	4786.993333	643.750977	0.274376
9612.733511	4786.993333	642.528320	26.605892
9612.733511	4786.993333	641.305664	32.860916
9612.733511	4786.993333	640.082031	-29.080397
9612.733511	4786.993333	638.858398	55.369110
9612.733511	4786.993333	637.634766	-108.799820
9612.733511	4786.993333	636.410156	59.796371
9612.733511	4786.993333	635.185547	55.988033
9612.733511	4786.993333	633.960938	4.094032
9612.733511	4786.993333	632.736328	28.328751
9612.733511	4786.993333	631.510742	26.513733
9612.733511	4786.993333	630.285156	122.797699
9612.733511	4786.993333	629.059570	-35.179661
9612.733511	4786.993333	627.833984	13.034310
9612.733511	4786.993333	626.607422	7.199146
9612.733511	4786.993333	625.380859	47.370327
9612.733511	4786.993333	624.154297	35.519081
9612.733511	4786.993333	622.927734	85.653755
9612.733511	4786.993333	621.700195	-0.180974
9612.733511	4786.993333	620.472656	-65.997238
9612.733511	4786.993333	619.245117	-55.855766
9612.733511	4786.993333	618.016602	112.106705
9612.733511	4786.993333	616.788086	-11.634140
9612.733511	4786.993333	615.559570	24.433481
9612.733511	4786.993333	614.331055	28.535208
9612.733511	4786.993333	613.101563	-31.248169
9612.733511	4786.993333	611.872070	8.776110
9612.733511	4786.993333	610.642578	-9.086234
9612.733511	4786.993333	609.413086	88.758614
9612.733511	4786.993333	608.182617	-18.875154
9612.733511	4786.993333	606.952148	-20.783049
9612.733511	4786.993333	605.721680	37.113617
9612.733511	4786.993333	604.491211	106.940399
9612.733511	4786.993333	603.259766	53.179455
9612.733511	4786.993333	602.028320	15.375630
9612.733511	4786.993333	600.796875	93.115425
9612.733511	4786.993333	599.564453	-54.223492
9612.733511	4786.993333	598.332031	-12.351153
9612.733511	4786.993333	597.099609	19.546009
9612.733511	4786.993333	595.867188	27.542297
9612.733511	4786.993333	594.633789	7.673083
9612.733511	4786.993333	593.400391	3.723482
9612.733511	4786.993333	592.166992	-41.996845
9612.733511	4786.993333	590.933594	11.725580
9612.733511	4786.993333	589.699219	73.373383
9612.733511	4786.993333	588.464844	55.482685
9612.733511	4786.993333	587.230469	154.846054
9612.733511	4786.993333	585.995117	39.582363
9612.733511	4786.993333	584.760742	43.550865
9612.733511	4786.993333	583.525391	29.640064
9612.733511	4786.993333	582.289063	1.831510
9612.733511	4786.993333	581.053711	-8.100484
9612.733511	4786.993333	579.817383	-2.154139
9612.733511	4786.993333	578.581055	-10.103860
9612.733511	4786.993333	577.343750	97.011986
9612.733511	4786.993333	576.107422	148.543915
9612.733511	4786.993333	574.870117	75.118195
9612.733511	4786.993333	573.631836	192.052338
9612.733511	4786.993333	572.394531	23.498610
9612.733511	4786.993333	571.156250	-41.933304
9612.733511	4786.993333	569.917969	57.112091
9612.733511	4786.993333	568.679688	5.563140
9612.733511	4786.993333	567.440430	163.966934
9612.733511	4786.993333	566.202148	58.951340
9612.733511	4786.993333	564.961914	-40.083340
9612.733511	4786.993333	563.722656	86.556595
9612.733511	4786.993333	562.482422	92.432495
9612.733511	4786.993333	561.243164	149.743515
9612.733511	4786.993333	560.001953	27.032537
9612.733511	4786.993333	558.761719	106.083603
9612.733511	4786.993333	557.520508	74.380417
9612.733511	4786.993333	556.279297	204.779465
9612.733511	4786.993333	555.038086	139.470825
9612.733511	4786.993333	553.795898	131.488876
9612.733511	4786.993333	552.554688	10.911233
9612.733511	4786.993333	551.311523	101.708977
9612.733511	4786.993333	550.069336	70.044579
9612.733511	4786.993333	548.826172	73.928101
9612.733511	4786.993333	547.583984	117.285774
9612.733511	4786.993333	546.339844	-46.574883
9612.733511	4786.993333	545.096680	-17.019730
9612.733511	4786.993333	543.852539	-48.624634
9612.733511	4786.993333	542.608398	-26.969633
9612.733511	4786.993333	541.364258	95.230057
9612.733511	4786.993333	540.119141	47.853569
9612.733511	4786.993333	538.875000	34.002876
9612.733511	4786.993333	537.628906	24.098808
9612.733511	4786.993333	536.383789	110.727608
9612.733511	4786.993333	535.137695	47.637157
9612.733511	4786.993333	533.892578	-23.300081
9612.733511	4786.993333	532.645508	21.944641
9612.733511	4786.993333	531.399414	-45.017559
9612.733511	4786.993333	530.152344	82.864914
9612.733511	4786.993333	528.905273	96.585220
9612.733511	4786.993333	527.658203	29.655174
9612.733511	4786.993333	526.410156	118.114052
9612.733511	4786.993333	525.163086	-9.737500
9612.733511	4786.993333	523.914063	-13.692982
9612.733511	4786.993333	522.666016	-23.539293
9612.733511	4786.993333	521.416992	43.250263
9612.733511	4786.993333	520.167969	74.654160
9612.733511	4786.993333	518.918945	-149.276764
9612.733511	4786.993333	517.669922	-76.603951
9612.733511	4786.993333	516.419922	-23.591860
9612.733511	4786.993333	515.169922	-109.955894
9612.733511	4786.993333	513.919922	-5.932829
9612.733511	4786.993333	512.668945	-37.324715
9612.733511	4786.993333	511.417969	82.335632
9612.733511	4786.993333	510.166992	1.917859
9612.733511	4786.993333	508.916016	-56.895386
9612.733511	4786.993333	507.664063	-54.913010
9612.733511	4786.993333	506.412109	17.624603
9612.733511	4786.993333	505.160156	43.108570
9612.733511	4786.993333	503.907227	-86.174332
9612.733511	4786.993333	502.655273	-54.796719
9612.733511	4786.993333	501.402344	82.308624
9612.733511	4786.993333	500.148438	-58.637142
9612.733511	4786.993333	498.895508	99.946632
9612.733511	4786.993333	497.641602	-80.073532
9612.733511	4786.993333	496.387695	-19.370237
9612.733511	4786.993333	495.132813	84.341293
9612.733511	4786.993333	493.878906	12.007854
9612.733511	4786.993333	492.624023	-1.637353
9612.733511	4786.993333	491.368164	12.091602
9612.733511	4786.993333	490.113281	16.046736
9612.733511	4786.993333	488.857422	-26.892778
9612.733511	4786.993333	487.601563	37.631107
9612.733511	4786.993333	486.344727	2.521266
9612.733511	4786.993333	485.088867	53.346443
9612.733511	4786.993333	483.832031	-57.885323
9612.733511	4786.993333	482.575195	26.114122
9612.733511	4786.993333	481.317383	-14.811478
9612.733511	4786.993333	480.059570	-14.748027
9612.733511	4786.993333	478.801758	36.030781
9612.733511	4786.993333	477.543945	100.438728
9612.733511	4786.993333	476.285156	-16.504715
9612.733511	4786.993333	475.027344	55.684067
9612.733511	4786.993333	473.767578	-0.785611
9612.733511	4786.993333	472.508789	-61.127647
9612.733511	4786.993333	471.249023	22.708323
9612.733511	4786.993333	469.989258	-41.511711
9612.733511	4786.993333	468.729492	83.171310
9612.733511	4786.993333	467.469727	-4.399780
9612.733511	4786.993333	466.208984	17.058952
9612.733511	4786.993333	464.948242	-130.790588
9612.733511	4786.993333	463.686523	-109.321747
9612.733511	4786.993333	462.425781	151.380051
9612.733511	4786.993333	461.164063	61.923573
9612.733511	4786.993333	459.901367	211.641220
9612.733511	4786.993333	458.639648	11.400643
9612.733511	4786.993333	457.376953	52.221134
9612.733511	4786.993333	456.114258	-4.133029
9612.733511	4786.993333	454.851563	108.532776
9612.733511	4786.993333	453.587891	110.437729
9612.733511	4786.993333	452.324219	127.866051
9612.733511	4786.993333	451.060547	94.802315
9612.733511	4786.993333	449.796875	77.268654
9612.733511	4786.993333	448.532227	131.527557
9612.733511	4786.993333	447.267578	-43.176426
9612.733511	4786.993333	446.002930	40.152393
9612.733511	4786.993333	444.737305	20.651354
9612.733511	4786.993333	443.471680	111.653809
9612.733511	4786.993333	442.206055	119.250053
9612.733511	4786.993333	440.940430	-43.714794
9612.733511	4786.993333	439.673828	39.437923
9612.733511	4786.993333	438.407227	83.791939
9612.733511	4786.993333	437.140625	21.586798
9612.733511	4786.993333	435.873047	23.282713
9612.733511	4786.993333	434.605469	40.440388
9612.733511	4786.993333	433.337891	13.050218
9612.733511	4786.993333	432.070313	126.901863
9612.733511	4786.993333	430.801758	91.710655
9612.733511	4786.993333	429.533203	71.979073
9612.733511	4786.993333	428.264648	104.436111
9612.733511	4786.993333	426.996094	65.313118
9612.733511	4786.993333	425.726563	149.878372
9612.733511	4786.993333	424.457031	52.716270
9612.733511	4786.993333	423.186523	79.210632
9612.733511	4786.993333	421.916992	34.183388
9612.733511	4786.993333	420.646484	85.695709
9612.733511	4786.993333	419.375977	121.696167
9612.733511	4786.993333	418.104492	173.077499
9612.733511	4786.993333	416.833008	-12.998894
9612.733511	4786.993333	415.561523	-4.157611
9612.733511	4786.993333	414.290039	18.132938
9612.733511	4786.993333	413.017578	-32.933624
9612.733511	4786.993333	411.746094	66.376808
9612.733511	4786.993333	410.472656	55.692612
9612.733511	4786.993333	409.200195	27.606834
9612.733511	4786.993333	407.926758	109.310638
9612.733511	4786.993333	406.653320	92.655144
9612.733511	4786.993333	405.379883	43.192478
9612.733511	4786.993333	404.105469	163.149628
9612.733511	4786.993333	402.831055	44.233109
9612.733511	4786.993333	401.556641	29.239941
9612.733511	4786.993333	400.282227	23.796167
9612.733511	4786.993333	399.006836	39.436333
9612.733511	4786.993333	397.731445	143.474777
9612.733511	4786.993333	396.456055	-50.731728
9612.733511	4786.993333	395.179688	-18.048517
9612.733511	4786.993333	393.903320	74.121414
9612.733511	4786.993333	392.626953	-26.051956
9612.733511	4786.993333	391.350586	46.662785
9612.733511	4786.993333	390.073242	-19.090090
9612.733511	4786.993333	388.795898	-63.795189
9612.733511	4786.993333	387.518555	141.054001
9612.733511	4786.993333	386.240234	92.259926
9612.733511	4786.993333	384.961914	31.848164
9612.733511	4786.993333	383.683594	32.748775
9612.733511	4786.993333	382.405273	275.276001
9612.733511	4786.993333	381.125977	82.109406
9612.733511	4786.993333	379.846680	-9.464720
9612.733511	4786.993333	378.567383	-95.389778
9612.733511	4786.993333	377.287109	46.698677
9612.733511	4786.993333	376.006836	60.158703
9612.733511	4786.993333	374.726563	203.757492
9612.733511	4786.993333	373.446289	86.584404
9612.733511	4786.993333	372.165039	45.905281
9612.733511	4786.993333	370.883789	58.689495
9612.733511	4786.993333	369.602539	15.768222
9612.733511	4786.993333	368.320313	10.959758
9612.733511	4786.993333	367.039063	-28.478231
9612.733511	4786.993333	365.755859	17.994396
9612.733511	4786.993333	364.473633	45.121025
9612.733511	4786.993333	363.190430	5.088254
9612.733511	4786.993333	361.907227	115.909447
9612.733511	4786.993333	360.624023	172.937302
9612.733511	4786.993333	359.340820	34.771973
9612.733511	4786.993333	358.056641	76.041397
9612.733511	4786.993333	356.772461	-98.818146
9612.733511	4786.993333	355.487305	-46.570488
9612.733511	4786.993333	354.202148	28.314436
9612.733511	4786.993333	352.916992	-11.641624
9612.733511	4786.993333	351.631836	26.408110
9612.733511	4786.993333	350.346680	3.099820
9612.733511	4786.993333	349.060547	-5.226663
9612.733511	4786.993333	347.774414	112.050697
9612.733511	4786.993333	346.487305	28.730421
9612.733511	4786.993333	345.200195	145.333054
9612.733511	4786.993333	343.913086	133.851349
9612.733511	4786.993333	342.625977	45.817909
9612.733511	4786.993333	341.338867	-31.079538
9612.733511	4786.993333	340.050781	74.580887
9612.733511	4786.993333	338.762695	86.519226
9612.733511	4786.993333	337.473633	58.094437
9612.733511	4786.993333	336.184570	-94.431328
9612.733511	4786.993333	334.895508	-93.105698
9612.733511	4786.993333	333.606445	-78.851967
9612.733511	4786.993333	332.317383	-76.421288
9612.733511	4786.993333	331.027344	60.630714
9612.733511	4786.993333	329.736328	41.254658
9612.733511	4786.993333	328.446289	-85.005325
9612.733511	4786.993333	327.155273	20.231894
9612.733511	4786.993333	325.864258	-27.065285
9612.733511	4786.993333	324.573242	8.788690
9612.733511	4786.993333	323.281250	-10.953168
9612.733511	4786.993333	321.989258	-80.556992
9612.733511	4786.993333	320.697266	-12.027398
9612.733511	4786.993333	319.405273	-44.656322
9612.733511	4786.993333	318.112305	-1.898800
9612.733511	4786.993333	316.819336	-14.730431
9612.733511	4786.993333	315.526367	34.490177
9612.733511	4786.993333	314.232422	-17.419611
9612.733511	4786.993333	312.938477	-18.692289
9612.733511	4786.993333	311.644531	-69.854729
9612.733511	4786.993333	310.349609	-2.213293
9612.733511	4786.993333	309.054688	49.610355
9612.733511	4786.993333	307.759766	191.708649
9612.733511	4786.993333	306.464844	100.103897
9612.733511	4786.993333	305.168945	-28.134893
9612.733511	4786.993333	303.873047	83.447029
9612.733511	4786.993333	302.577148	6.874549
9612.733511	4786.993333	301.281250	143.467651
9612.733511	4786.993333	299.984375	214.909195
