#X		#Y		#Wave		#Intensity
10588.826596	5166.485000	1999.946289	223.601242
10588.826596	5166.485000	1998.981445	-26.581575
10588.826596	5166.485000	1998.017578	-80.074814
10588.826596	5166.485000	1997.052734	94.500839
10588.826596	5166.485000	1996.088867	-35.680550
10588.826596	5166.485000	1995.124023	-4.736386
10588.826596	5166.485000	1994.159180	-30.711941
10588.826596	5166.485000	1993.193359	74.619995
10588.826596	5166.485000	1992.228516	75.981049
10588.826596	5166.485000	1991.262695	-128.061981
10588.826596	5166.485000	1990.296875	29.355732
10588.826596	5166.485000	1989.331055	-45.833954
10588.826596	5166.485000	1988.365234	17.592848
10588.826596	5166.485000	1987.398438	-116.841194
10588.826596	5166.485000	1986.432617	-23.660902
10588.826596	5166.485000	1985.465820	37.382973
10588.826596	5166.485000	1984.499023	-0.441495
10588.826596	5166.485000	1983.532227	-28.326241
10588.826596	5166.485000	1982.565430	-48.751255
10588.826596	5166.485000	1981.597656	-242.085999
10588.826596	5166.485000	1980.629883	-37.594643
10588.826596	5166.485000	1979.662109	65.589600
10588.826596	5166.485000	1978.694336	-115.213318
10588.826596	5166.485000	1977.726563	116.393723
10588.826596	5166.485000	1976.758789	31.977825
10588.826596	5166.485000	1975.790039	187.019501
10588.826596	5166.485000	1974.821289	70.599297
10588.826596	5166.485000	1973.852539	20.859585
10588.826596	5166.485000	1972.883789	-38.704697
10588.826596	5166.485000	1971.915039	27.551809
10588.826596	5166.485000	1970.945313	189.970245
10588.826596	5166.485000	1969.975586	91.030571
10588.826596	5166.485000	1969.005859	-121.233086
10588.826596	5166.485000	1968.036133	38.717312
10588.826596	5166.485000	1967.066406	146.884674
10588.826596	5166.485000	1966.096680	247.638168
10588.826596	5166.485000	1965.125977	178.426590
10588.826596	5166.485000	1964.155273	57.543461
10588.826596	5166.485000	1963.184570	-60.819756
10588.826596	5166.485000	1962.213867	76.881973
10588.826596	5166.485000	1961.242188	81.644501
10588.826596	5166.485000	1960.271484	5.212881
10588.826596	5166.485000	1959.299805	142.861938
10588.826596	5166.485000	1958.328125	-86.036674
10588.826596	5166.485000	1957.356445	-39.396793
10588.826596	5166.485000	1956.384766	63.787678
10588.826596	5166.485000	1955.412109	9.605542
10588.826596	5166.485000	1954.439453	-17.511927
10588.826596	5166.485000	1953.467773	90.548180
10588.826596	5166.485000	1952.495117	117.492592
10588.826596	5166.485000	1951.521484	73.193718
10588.826596	5166.485000	1950.548828	151.719894
10588.826596	5166.485000	1949.575195	183.565063
10588.826596	5166.485000	1948.601563	122.104866
10588.826596	5166.485000	1947.627930	112.218651
10588.826596	5166.485000	1946.654297	99.885323
10588.826596	5166.485000	1945.680664	-89.118294
10588.826596	5166.485000	1944.706055	-15.538124
10588.826596	5166.485000	1943.732422	4.050682
10588.826596	5166.485000	1942.757813	148.709579
10588.826596	5166.485000	1941.783203	178.069214
10588.826596	5166.485000	1940.807617	160.840759
10588.826596	5166.485000	1939.833008	-35.315517
10588.826596	5166.485000	1938.857422	239.124771
10588.826596	5166.485000	1937.881836	133.681992
10588.826596	5166.485000	1936.906250	16.027615
10588.826596	5166.485000	1935.930664	99.254974
10588.826596	5166.485000	1934.955078	1.234792
10588.826596	5166.485000	1933.978516	18.322828
10588.826596	5166.485000	1933.001953	184.722137
10588.826596	5166.485000	1932.025391	35.333752
10588.826596	5166.485000	1931.048828	-109.108315
10588.826596	5166.485000	1930.072266	-52.886604
10588.826596	5166.485000	1929.094727	42.447445
10588.826596	5166.485000	1928.118164	-194.864609
10588.826596	5166.485000	1927.140625	-45.757320
10588.826596	5166.485000	1926.163086	-67.841980
10588.826596	5166.485000	1925.184570	103.173752
10588.826596	5166.485000	1924.207031	29.736582
10588.826596	5166.485000	1923.228516	173.779144
10588.826596	5166.485000	1922.250000	46.600346
10588.826596	5166.485000	1921.271484	131.952896
10588.826596	5166.485000	1920.292969	104.934189
10588.826596	5166.485000	1919.314453	95.008858
10588.826596	5166.485000	1918.334961	129.019043
10588.826596	5166.485000	1917.355469	204.499100
10588.826596	5166.485000	1916.375977	-39.718182
10588.826596	5166.485000	1915.396484	28.427563
10588.826596	5166.485000	1914.416992	-32.740623
10588.826596	5166.485000	1913.436523	35.361576
10588.826596	5166.485000	1912.457031	96.112816
10588.826596	5166.485000	1911.476563	-145.463593
10588.826596	5166.485000	1910.496094	-31.096840
10588.826596	5166.485000	1909.515625	-2.076164
10588.826596	5166.485000	1908.534180	141.440552
10588.826596	5166.485000	1907.552734	21.800320
10588.826596	5166.485000	1906.572266	204.205658
10588.826596	5166.485000	1905.590820	94.317513
10588.826596	5166.485000	1904.608398	-185.967819
10588.826596	5166.485000	1903.626953	1.211949
10588.826596	5166.485000	1902.644531	-149.983292
10588.826596	5166.485000	1901.663086	-21.301540
10588.826596	5166.485000	1900.680664	182.740295
10588.826596	5166.485000	1899.698242	145.885818
10588.826596	5166.485000	1898.714844	-10.132278
10588.826596	5166.485000	1897.732422	64.889252
10588.826596	5166.485000	1896.749023	98.543800
10588.826596	5166.485000	1895.765625	-71.997238
10588.826596	5166.485000	1894.782227	53.991634
10588.826596	5166.485000	1893.798828	148.335510
10588.826596	5166.485000	1892.814453	-104.747620
10588.826596	5166.485000	1891.831055	69.715164
10588.826596	5166.485000	1890.846680	76.547607
10588.826596	5166.485000	1889.862305	-13.750672
10588.826596	5166.485000	1888.877930	48.900318
10588.826596	5166.485000	1887.892578	53.268307
10588.826596	5166.485000	1886.908203	108.577354
10588.826596	5166.485000	1885.922852	-86.028618
10588.826596	5166.485000	1884.937500	-54.995228
10588.826596	5166.485000	1883.952148	-21.560823
10588.826596	5166.485000	1882.965820	-128.782928
10588.826596	5166.485000	1881.980469	88.868309
10588.826596	5166.485000	1880.994141	-78.955482
10588.826596	5166.485000	1880.007813	-55.287746
10588.826596	5166.485000	1879.021484	-92.213509
10588.826596	5166.485000	1878.035156	-15.284590
10588.826596	5166.485000	1877.047852	30.116219
10588.826596	5166.485000	1876.061523	90.015038
10588.826596	5166.485000	1875.074219	125.667824
10588.826596	5166.485000	1874.086914	-51.720490
10588.826596	5166.485000	1873.098633	37.162560
10588.826596	5166.485000	1872.111328	24.369583
10588.826596	5166.485000	1871.123047	-109.394363
10588.826596	5166.485000	1870.135742	-30.269972
10588.826596	5166.485000	1869.147461	82.669441
10588.826596	5166.485000	1868.158203	120.597610
10588.826596	5166.485000	1867.169922	-136.429794
10588.826596	5166.485000	1866.180664	-21.160002
10588.826596	5166.485000	1865.192383	-29.190592
10588.826596	5166.485000	1864.203125	151.220413
10588.826596	5166.485000	1863.213867	0.610132
10588.826596	5166.485000	1862.223633	-43.690559
10588.826596	5166.485000	1861.234375	71.381020
10588.826596	5166.485000	1860.244141	29.469070
10588.826596	5166.485000	1859.253906	166.178162
10588.826596	5166.485000	1858.263672	189.394958
10588.826596	5166.485000	1857.273438	0.252202
10588.826596	5166.485000	1856.282227	33.110966
10588.826596	5166.485000	1855.291992	0.817295
10588.826596	5166.485000	1854.300781	50.514252
10588.826596	5166.485000	1853.309570	-30.021641
10588.826596	5166.485000	1852.317383	65.434868
10588.826596	5166.485000	1851.326172	180.119598
10588.826596	5166.485000	1850.333984	265.830780
10588.826596	5166.485000	1849.342773	-21.944769
10588.826596	5166.485000	1848.350586	85.420235
10588.826596	5166.485000	1847.357422	86.760628
10588.826596	5166.485000	1846.365234	6.215708
10588.826596	5166.485000	1845.372070	72.540558
10588.826596	5166.485000	1844.379883	59.393089
10588.826596	5166.485000	1843.386719	137.683594
10588.826596	5166.485000	1842.393555	-51.149143
10588.826596	5166.485000	1841.399414	-45.068508
10588.826596	5166.485000	1840.406250	119.736839
10588.826596	5166.485000	1839.412109	92.084305
10588.826596	5166.485000	1838.417969	-79.832390
10588.826596	5166.485000	1837.423828	-83.431282
10588.826596	5166.485000	1836.429688	208.570770
10588.826596	5166.485000	1835.434570	101.559883
10588.826596	5166.485000	1834.440430	6.583913
10588.826596	5166.485000	1833.445313	46.140724
10588.826596	5166.485000	1832.450195	-80.042656
10588.826596	5166.485000	1831.454102	221.205948
10588.826596	5166.485000	1830.458984	-77.845734
10588.826596	5166.485000	1829.462891	-170.382614
10588.826596	5166.485000	1828.466797	53.868328
10588.826596	5166.485000	1827.470703	-55.488518
10588.826596	5166.485000	1826.474609	-83.259857
10588.826596	5166.485000	1825.478516	-34.288540
10588.826596	5166.485000	1824.481445	62.605305
10588.826596	5166.485000	1823.484375	-5.982993
10588.826596	5166.485000	1822.487305	57.275593
10588.826596	5166.485000	1821.490234	120.491333
10588.826596	5166.485000	1820.493164	212.419998
10588.826596	5166.485000	1819.495117	115.035339
10588.826596	5166.485000	1818.498047	44.016579
10588.826596	5166.485000	1817.500000	32.876663
10588.826596	5166.485000	1816.500977	105.525620
10588.826596	5166.485000	1815.502930	-10.990029
10588.826596	5166.485000	1814.504883	11.339548
10588.826596	5166.485000	1813.505859	-57.291332
10588.826596	5166.485000	1812.506836	-87.634811
10588.826596	5166.485000	1811.507813	-94.064995
10588.826596	5166.485000	1810.508789	86.036194
10588.826596	5166.485000	1809.508789	46.061241
10588.826596	5166.485000	1808.508789	-32.169655
10588.826596	5166.485000	1807.508789	-50.633144
10588.826596	5166.485000	1806.508789	83.840607
10588.826596	5166.485000	1805.508789	320.985901
10588.826596	5166.485000	1804.508789	53.959839
10588.826596	5166.485000	1803.507813	188.278854
10588.826596	5166.485000	1802.506836	-50.004333
10588.826596	5166.485000	1801.505859	-44.685722
10588.826596	5166.485000	1800.504883	-53.711685
10588.826596	5166.485000	1799.502930	-10.247537
10588.826596	5166.485000	1798.501953	40.337849
10588.826596	5166.485000	1797.500000	43.168991
10588.826596	5166.485000	1796.498047	43.593636
10588.826596	5166.485000	1795.496094	60.691784
10588.826596	5166.485000	1794.493164	56.301918
10588.826596	5166.485000	1793.491211	137.716492
10588.826596	5166.485000	1792.488281	49.849880
10588.826596	5166.485000	1791.485352	21.572382
10588.826596	5166.485000	1790.482422	141.005005
10588.826596	5166.485000	1789.478516	88.857231
10588.826596	5166.485000	1788.475586	-63.323391
10588.826596	5166.485000	1787.471680	101.236664
10588.826596	5166.485000	1786.467773	-79.501366
10588.826596	5166.485000	1785.463867	37.350124
10588.826596	5166.485000	1784.459961	4.203156
10588.826596	5166.485000	1783.455078	92.396980
10588.826596	5166.485000	1782.450195	194.809906
10588.826596	5166.485000	1781.445313	-54.861866
10588.826596	5166.485000	1780.440430	54.630600
10588.826596	5166.485000	1779.435547	28.533314
10588.826596	5166.485000	1778.429688	-23.724733
10588.826596	5166.485000	1777.424805	2.446442
10588.826596	5166.485000	1776.418945	-56.961327
10588.826596	5166.485000	1775.413086	71.321053
10588.826596	5166.485000	1774.406250	9.501770
10588.826596	5166.485000	1773.400391	52.179779
10588.826596	5166.485000	1772.393555	-185.369064
10588.826596	5166.485000	1771.386719	-66.747681
10588.826596	5166.485000	1770.379883	87.409103
10588.826596	5166.485000	1769.373047	-26.678099
10588.826596	5166.485000	1768.365234	22.967354
10588.826596	5166.485000	1767.358398	86.805992
10588.826596	5166.485000	1766.350586	36.750137
10588.826596	5166.485000	1765.342773	72.057365
10588.826596	5166.485000	1764.334961	145.261795
10588.826596	5166.485000	1763.326172	95.151466
10588.826596	5166.485000	1762.318359	68.736946
10588.826596	5166.485000	1761.309570	198.695969
10588.826596	5166.485000	1760.300781	103.520599
10588.826596	5166.485000	1759.291016	249.954865
10588.826596	5166.485000	1758.282227	121.602287
10588.826596	5166.485000	1757.272461	-75.389847
10588.826596	5166.485000	1756.262695	127.736244
10588.826596	5166.485000	1755.252930	-57.397434
10588.826596	5166.485000	1754.243164	-128.899323
10588.826596	5166.485000	1753.233398	-91.566383
10588.826596	5166.485000	1752.222656	239.044495
10588.826596	5166.485000	1751.211914	77.580864
10588.826596	5166.485000	1750.201172	-126.407509
10588.826596	5166.485000	1749.190430	5.360557
10588.826596	5166.485000	1748.179688	-40.220455
10588.826596	5166.485000	1747.167969	103.245567
10588.826596	5166.485000	1746.156250	152.122131
10588.826596	5166.485000	1745.144531	-195.914063
10588.826596	5166.485000	1744.132813	-2.976329
10588.826596	5166.485000	1743.121094	22.201885
10588.826596	5166.485000	1742.108398	-134.449234
10588.826596	5166.485000	1741.095703	-161.238907
10588.826596	5166.485000	1740.083008	36.161919
10588.826596	5166.485000	1739.070313	-78.005569
10588.826596	5166.485000	1738.057617	-1.064646
10588.826596	5166.485000	1737.043945	-72.777626
10588.826596	5166.485000	1736.030273	-0.636220
10588.826596	5166.485000	1735.016602	-34.648262
10588.826596	5166.485000	1734.002930	-49.815739
10588.826596	5166.485000	1732.989258	-48.503902
10588.826596	5166.485000	1731.974609	6.978931
10588.826596	5166.485000	1730.959961	88.329659
10588.826596	5166.485000	1729.945313	-44.732014
10588.826596	5166.485000	1728.930664	-52.948284
10588.826596	5166.485000	1727.916016	-63.541824
10588.826596	5166.485000	1726.900391	-45.908947
10588.826596	5166.485000	1725.885742	-16.537352
10588.826596	5166.485000	1724.870117	52.799858
10588.826596	5166.485000	1723.853516	23.263739
10588.826596	5166.485000	1722.837891	-36.867634
10588.826596	5166.485000	1721.822266	135.842407
10588.826596	5166.485000	1720.805664	-58.376625
10588.826596	5166.485000	1719.789063	13.120720
10588.826596	5166.485000	1718.772461	-61.171417
10588.826596	5166.485000	1717.754883	-64.960091
10588.826596	5166.485000	1716.738281	-99.317505
10588.826596	5166.485000	1715.720703	14.313887
10588.826596	5166.485000	1714.703125	3.388232
10588.826596	5166.485000	1713.685547	152.129181
10588.826596	5166.485000	1712.667969	173.999664
10588.826596	5166.485000	1711.649414	10.384297
10588.826596	5166.485000	1710.630859	41.606472
10588.826596	5166.485000	1709.612305	32.900597
10588.826596	5166.485000	1708.593750	157.898560
10588.826596	5166.485000	1707.575195	48.257599
10588.826596	5166.485000	1706.555664	69.960884
10588.826596	5166.485000	1705.536133	91.630768
10588.826596	5166.485000	1704.516602	120.298553
10588.826596	5166.485000	1703.497070	188.774826
10588.826596	5166.485000	1702.477539	48.635834
10588.826596	5166.485000	1701.457031	2.240578
10588.826596	5166.485000	1700.437500	89.362381
10588.826596	5166.485000	1699.416992	80.398903
10588.826596	5166.485000	1698.395508	38.627476
10588.826596	5166.485000	1697.375000	-3.152058
10588.826596	5166.485000	1696.354492	161.042328
10588.826596	5166.485000	1695.333008	-51.637482
10588.826596	5166.485000	1694.311523	58.633301
10588.826596	5166.485000	1693.290039	147.782486
10588.826596	5166.485000	1692.267578	150.329086
10588.826596	5166.485000	1691.246094	-113.733414
10588.826596	5166.485000	1690.223633	22.078186
10588.826596	5166.485000	1689.201172	104.048775
10588.826596	5166.485000	1688.178711	57.420643
10588.826596	5166.485000	1687.155273	48.169724
10588.826596	5166.485000	1686.132813	43.571964
10588.826596	5166.485000	1685.109375	-19.445295
10588.826596	5166.485000	1684.085938	167.415665
10588.826596	5166.485000	1683.062500	-70.765961
10588.826596	5166.485000	1682.039063	92.638878
10588.826596	5166.485000	1681.014648	136.921402
10588.826596	5166.485000	1679.990234	45.817932
10588.826596	5166.485000	1678.965820	164.701614
10588.826596	5166.485000	1677.941406	239.195648
10588.826596	5166.485000	1676.916992	10.454440
10588.826596	5166.485000	1675.891602	229.465454
10588.826596	5166.485000	1674.866211	257.203369
10588.826596	5166.485000	1673.840820	-8.776951
10588.826596	5166.485000	1672.815430	205.379105
10588.826596	5166.485000	1671.790039	293.612122
10588.826596	5166.485000	1670.763672	99.919212
10588.826596	5166.485000	1669.737305	209.050598
10588.826596	5166.485000	1668.710938	155.115829
10588.826596	5166.485000	1667.684570	271.133606
10588.826596	5166.485000	1666.658203	345.184143
10588.826596	5166.485000	1665.630859	172.495010
10588.826596	5166.485000	1664.603516	151.090897
10588.826596	5166.485000	1663.576172	204.114594
10588.826596	5166.485000	1662.548828	266.398285
10588.826596	5166.485000	1661.520508	226.314957
10588.826596	5166.485000	1660.493164	230.403366
10588.826596	5166.485000	1659.464844	311.173920
10588.826596	5166.485000	1658.436523	310.548920
10588.826596	5166.485000	1657.408203	175.132080
10588.826596	5166.485000	1656.378906	262.768951
10588.826596	5166.485000	1655.350586	331.772980
10588.826596	5166.485000	1654.321289	259.066406
10588.826596	5166.485000	1653.291992	160.826599
10588.826596	5166.485000	1652.261719	241.348251
10588.826596	5166.485000	1651.232422	389.129486
10588.826596	5166.485000	1650.202148	416.163818
10588.826596	5166.485000	1649.171875	399.087585
10588.826596	5166.485000	1648.141602	567.566101
10588.826596	5166.485000	1647.111328	399.683533
10588.826596	5166.485000	1646.080078	271.261871
10588.826596	5166.485000	1645.049805	509.156891
10588.826596	5166.485000	1644.018555	489.661682
10588.826596	5166.485000	1642.987305	502.598297
10588.826596	5166.485000	1641.955078	371.860962
10588.826596	5166.485000	1640.923828	470.488159
10588.826596	5166.485000	1639.891602	615.375427
10588.826596	5166.485000	1638.859375	512.425964
10588.826596	5166.485000	1637.827148	520.623413
10588.826596	5166.485000	1636.794922	445.472931
10588.826596	5166.485000	1635.761719	398.101074
10588.826596	5166.485000	1634.729492	501.129517
10588.826596	5166.485000	1633.696289	719.763245
10588.826596	5166.485000	1632.662109	713.944824
10588.826596	5166.485000	1631.628906	511.561737
10588.826596	5166.485000	1630.594727	524.250488
10588.826596	5166.485000	1629.561523	555.415222
10588.826596	5166.485000	1628.527344	618.903320
10588.826596	5166.485000	1627.493164	636.139648
10588.826596	5166.485000	1626.458008	565.565063
10588.826596	5166.485000	1625.423828	573.537903
10588.826596	5166.485000	1624.388672	618.438721
10588.826596	5166.485000	1623.353516	790.292053
10588.826596	5166.485000	1622.318359	555.793457
10588.826596	5166.485000	1621.282227	808.339905
10588.826596	5166.485000	1620.247070	689.277100
10588.826596	5166.485000	1619.210938	574.857544
10588.826596	5166.485000	1618.174805	672.675232
10588.826596	5166.485000	1617.137695	678.194336
10588.826596	5166.485000	1616.101563	692.926819
10588.826596	5166.485000	1615.064453	843.645508
10588.826596	5166.485000	1614.027344	641.665222
10588.826596	5166.485000	1612.990234	790.009583
10588.826596	5166.485000	1611.953125	742.456360
10588.826596	5166.485000	1610.916016	950.592712
10588.826596	5166.485000	1609.877930	787.854675
10588.826596	5166.485000	1608.839844	917.592041
10588.826596	5166.485000	1607.801758	888.426270
10588.826596	5166.485000	1606.763672	686.640869
10588.826596	5166.485000	1605.724609	728.847595
10588.826596	5166.485000	1604.685547	899.870911
10588.826596	5166.485000	1603.646484	948.904541
10588.826596	5166.485000	1602.607422	896.718445
10588.826596	5166.485000	1601.568359	957.216125
10588.826596	5166.485000	1600.528320	893.536804
10588.826596	5166.485000	1599.489258	1009.163086
10588.826596	5166.485000	1598.449219	892.630554
10588.826596	5166.485000	1597.408203	886.420044
10588.826596	5166.485000	1596.368164	969.798462
10588.826596	5166.485000	1595.327148	961.268188
10588.826596	5166.485000	1594.287109	1053.774902
10588.826596	5166.485000	1593.246094	1036.039551
10588.826596	5166.485000	1592.204102	848.447388
10588.826596	5166.485000	1591.163086	823.866943
10588.826596	5166.485000	1590.121094	925.484070
10588.826596	5166.485000	1589.079102	969.709351
10588.826596	5166.485000	1588.037109	846.484558
10588.826596	5166.485000	1586.995117	851.720215
10588.826596	5166.485000	1585.953125	753.782898
10588.826596	5166.485000	1584.910156	729.229675
10588.826596	5166.485000	1583.867188	821.565735
10588.826596	5166.485000	1582.824219	824.503479
10588.826596	5166.485000	1581.781250	999.255127
10588.826596	5166.485000	1580.737305	1009.024231
10588.826596	5166.485000	1579.693359	771.473267
10588.826596	5166.485000	1578.649414	939.262817
10588.826596	5166.485000	1577.605469	841.455750
10588.826596	5166.485000	1576.561523	640.699951
10588.826596	5166.485000	1575.516602	687.145142
10588.826596	5166.485000	1574.472656	742.729309
10588.826596	5166.485000	1573.427734	935.528076
10588.826596	5166.485000	1572.381836	968.172607
10588.826596	5166.485000	1571.336914	920.789307
10588.826596	5166.485000	1570.291016	866.566162
10588.826596	5166.485000	1569.246094	876.367676
10588.826596	5166.485000	1568.200195	751.348694
10588.826596	5166.485000	1567.153320	866.262573
10588.826596	5166.485000	1566.107422	869.217957
10588.826596	5166.485000	1565.060547	616.400940
10588.826596	5166.485000	1564.013672	877.421326
10588.826596	5166.485000	1562.966797	921.479553
10588.826596	5166.485000	1561.919922	901.623047
10588.826596	5166.485000	1560.872070	738.018311
10588.826596	5166.485000	1559.825195	649.778809
10588.826596	5166.485000	1558.777344	748.620972
10588.826596	5166.485000	1557.729492	623.938660
10588.826596	5166.485000	1556.680664	832.208069
10588.826596	5166.485000	1555.632813	696.180298
10588.826596	5166.485000	1554.583984	767.621643
10588.826596	5166.485000	1553.535156	629.398560
10588.826596	5166.485000	1552.486328	812.485168
10588.826596	5166.485000	1551.436523	783.665283
10588.826596	5166.485000	1550.387695	597.730896
10588.826596	5166.485000	1549.337891	619.083191
10588.826596	5166.485000	1548.288086	717.841553
10588.826596	5166.485000	1547.238281	684.562988
10588.826596	5166.485000	1546.187500	578.487549
10588.826596	5166.485000	1545.136719	549.824280
10588.826596	5166.485000	1544.086914	500.717896
10588.826596	5166.485000	1543.035156	701.810364
10588.826596	5166.485000	1541.984375	791.424316
10588.826596	5166.485000	1540.933594	519.551758
10588.826596	5166.485000	1539.881836	659.200317
10588.826596	5166.485000	1538.830078	667.006775
10588.826596	5166.485000	1537.778320	574.857300
10588.826596	5166.485000	1536.725586	625.868896
10588.826596	5166.485000	1535.673828	695.050903
10588.826596	5166.485000	1534.621094	603.002319
10588.826596	5166.485000	1533.568359	508.737732
10588.826596	5166.485000	1532.515625	632.431396
10588.826596	5166.485000	1531.461914	420.228790
10588.826596	5166.485000	1530.409180	546.200562
10588.826596	5166.485000	1529.355469	588.206604
10588.826596	5166.485000	1528.301758	525.889343
10588.826596	5166.485000	1527.247070	536.176575
10588.826596	5166.485000	1526.193359	494.340942
10588.826596	5166.485000	1525.138672	531.875366
10588.826596	5166.485000	1524.083984	515.028564
10588.826596	5166.485000	1523.029297	366.796051
10588.826596	5166.485000	1521.974609	268.483978
10588.826596	5166.485000	1520.918945	598.292664
10588.826596	5166.485000	1519.863281	303.013855
10588.826596	5166.485000	1518.807617	354.266052
10588.826596	5166.485000	1517.751953	405.523285
10588.826596	5166.485000	1516.696289	404.734192
10588.826596	5166.485000	1515.639648	322.515320
10588.826596	5166.485000	1514.583008	391.920898
10588.826596	5166.485000	1513.526367	201.226700
10588.826596	5166.485000	1512.469727	17.419445
10588.826596	5166.485000	1511.412109	369.529846
10588.826596	5166.485000	1510.355469	86.359978
10588.826596	5166.485000	1509.297852	167.180862
10588.826596	5166.485000	1508.240234	87.573875
10588.826596	5166.485000	1507.181641	130.014175
10588.826596	5166.485000	1506.124023	298.952057
10588.826596	5166.485000	1505.065430	300.747620
10588.826596	5166.485000	1504.006836	191.945023
10588.826596	5166.485000	1502.948242	15.498740
10588.826596	5166.485000	1501.888672	24.210232
10588.826596	5166.485000	1500.830078	75.823441
10588.826596	5166.485000	1499.770508	183.844238
10588.826596	5166.485000	1498.710938	-23.910879
10588.826596	5166.485000	1497.650391	-80.466530
10588.826596	5166.485000	1496.590820	-98.635666
10588.826596	5166.485000	1495.530273	-310.621155
10588.826596	5166.485000	1494.469727	22.902163
10588.826596	5166.485000	1493.409180	16.089886
10588.826596	5166.485000	1492.348633	-211.457031
10588.826596	5166.485000	1491.287109	-8.684893
10588.826596	5166.485000	1490.225586	40.913921
10588.826596	5166.485000	1489.164063	-139.117279
10588.826596	5166.485000	1488.102539	-111.949059
10588.826596	5166.485000	1487.041016	41.276363
10588.826596	5166.485000	1485.978516	97.721245
10588.826596	5166.485000	1484.916016	-59.520073
10588.826596	5166.485000	1483.853516	-88.486320
10588.826596	5166.485000	1482.791016	80.504463
10588.826596	5166.485000	1481.727539	-27.078657
10588.826596	5166.485000	1480.664063	-112.104408
10588.826596	5166.485000	1479.600586	-37.475780
10588.826596	5166.485000	1478.537109	-156.070389
10588.826596	5166.485000	1477.473633	-65.634010
10588.826596	5166.485000	1476.409180	60.700043
10588.826596	5166.485000	1475.344727	74.701530
10588.826596	5166.485000	1474.280273	-52.637066
10588.826596	5166.485000	1473.215820	-103.533211
10588.826596	5166.485000	1472.151367	-69.152611
10588.826596	5166.485000	1471.085938	-88.496567
10588.826596	5166.485000	1470.020508	-20.456675
10588.826596	5166.485000	1468.955078	-21.754313
10588.826596	5166.485000	1467.888672	-83.333046
10588.826596	5166.485000	1466.823242	67.524246
10588.826596	5166.485000	1465.756836	48.250504
10588.826596	5166.485000	1464.690430	89.670708
10588.826596	5166.485000	1463.624023	-27.934584
10588.826596	5166.485000	1462.556641	120.986366
10588.826596	5166.485000	1461.490234	110.950058
10588.826596	5166.485000	1460.422852	25.062674
10588.826596	5166.485000	1459.355469	1.555232
10588.826596	5166.485000	1458.287109	70.193497
10588.826596	5166.485000	1457.219727	39.641075
10588.826596	5166.485000	1456.151367	210.216400
10588.826596	5166.485000	1455.083008	169.870987
10588.826596	5166.485000	1454.014648	-22.968161
10588.826596	5166.485000	1452.945313	215.207123
10588.826596	5166.485000	1451.876953	221.651764
10588.826596	5166.485000	1450.807617	51.686592
10588.826596	5166.485000	1449.738281	33.372250
10588.826596	5166.485000	1448.668945	138.825180
10588.826596	5166.485000	1447.598633	186.843765
10588.826596	5166.485000	1446.528320	-26.838594
10588.826596	5166.485000	1445.458008	65.041962
10588.826596	5166.485000	1444.387695	22.636032
10588.826596	5166.485000	1443.317383	92.699684
10588.826596	5166.485000	1442.246094	69.651634
10588.826596	5166.485000	1441.174805	55.696697
10588.826596	5166.485000	1440.103516	78.043060
10588.826596	5166.485000	1439.032227	161.974106
10588.826596	5166.485000	1437.960938	77.429482
10588.826596	5166.485000	1436.888672	182.216797
10588.826596	5166.485000	1435.816406	14.242739
10588.826596	5166.485000	1434.744141	68.701813
10588.826596	5166.485000	1433.670898	249.641022
10588.826596	5166.485000	1432.598633	91.504982
10588.826596	5166.485000	1431.525391	-71.059692
10588.826596	5166.485000	1430.452148	21.381748
10588.826596	5166.485000	1429.378906	3.604844
10588.826596	5166.485000	1428.304688	238.375565
10588.826596	5166.485000	1427.231445	65.733719
10588.826596	5166.485000	1426.157227	-40.128689
10588.826596	5166.485000	1425.083008	69.016769
10588.826596	5166.485000	1424.007813	80.030006
10588.826596	5166.485000	1422.933594	207.493378
10588.826596	5166.485000	1421.858398	-113.162460
10588.826596	5166.485000	1420.783203	-70.740532
10588.826596	5166.485000	1419.708008	-95.110855
10588.826596	5166.485000	1418.631836	-107.971901
10588.826596	5166.485000	1417.555664	-9.069234
10588.826596	5166.485000	1416.479492	18.820858
10588.826596	5166.485000	1415.403320	207.774628
10588.826596	5166.485000	1414.327148	168.005066
10588.826596	5166.485000	1413.250000	-52.814999
10588.826596	5166.485000	1412.173828	8.618424
10588.826596	5166.485000	1411.096680	206.858032
10588.826596	5166.485000	1410.018555	-164.781509
10588.826596	5166.485000	1408.941406	177.463425
10588.826596	5166.485000	1407.863281	213.650711
10588.826596	5166.485000	1406.785156	233.879913
10588.826596	5166.485000	1405.707031	105.013382
10588.826596	5166.485000	1404.628906	41.326557
10588.826596	5166.485000	1403.549805	135.566910
10588.826596	5166.485000	1402.470703	168.975388
10588.826596	5166.485000	1401.391602	134.620392
10588.826596	5166.485000	1400.312500	203.239227
10588.826596	5166.485000	1399.233398	170.932495
10588.826596	5166.485000	1398.153320	325.142242
10588.826596	5166.485000	1397.073242	275.373810
10588.826596	5166.485000	1395.993164	312.411346
10588.826596	5166.485000	1394.913086	290.838867
10588.826596	5166.485000	1393.832031	391.719635
10588.826596	5166.485000	1392.750977	262.123260
10588.826596	5166.485000	1391.669922	-95.252060
10588.826596	5166.485000	1390.588867	215.961823
10588.826596	5166.485000	1389.506836	275.789337
10588.826596	5166.485000	1388.425781	168.229385
10588.826596	5166.485000	1387.343750	110.328018
10588.826596	5166.485000	1386.261719	153.383942
10588.826596	5166.485000	1385.178711	225.299713
10588.826596	5166.485000	1384.096680	193.444916
10588.826596	5166.485000	1383.013672	37.296612
10588.826596	5166.485000	1381.930664	130.534164
10588.826596	5166.485000	1380.846680	89.320084
10588.826596	5166.485000	1379.763672	155.878006
10588.826596	5166.485000	1378.679688	215.451996
10588.826596	5166.485000	1377.595703	174.215317
10588.826596	5166.485000	1376.511719	72.384697
10588.826596	5166.485000	1375.427734	167.666061
10588.826596	5166.485000	1374.342773	204.699738
10588.826596	5166.485000	1373.257813	339.652924
10588.826596	5166.485000	1372.172852	298.522552
10588.826596	5166.485000	1371.087891	337.331940
10588.826596	5166.485000	1370.001953	378.527283
10588.826596	5166.485000	1368.916992	172.983475
10588.826596	5166.485000	1367.831055	200.910400
10588.826596	5166.485000	1366.744141	303.517029
10588.826596	5166.485000	1365.658203	114.482681
10588.826596	5166.485000	1364.571289	290.240173
10588.826596	5166.485000	1363.484375	315.392700
10588.826596	5166.485000	1362.397461	258.973297
10588.826596	5166.485000	1361.310547	142.015045
10588.826596	5166.485000	1360.222656	227.172455
10588.826596	5166.485000	1359.135742	163.714111
10588.826596	5166.485000	1358.047852	248.611420
10588.826596	5166.485000	1356.958984	141.356522
10588.826596	5166.485000	1355.871094	102.835854
10588.826596	5166.485000	1354.782227	-31.546288
10588.826596	5166.485000	1353.693359	91.678078
10588.826596	5166.485000	1352.604492	90.142540
10588.826596	5166.485000	1351.515625	8.831269
10588.826596	5166.485000	1350.425781	50.901142
10588.826596	5166.485000	1349.335938	115.934196
10588.826596	5166.485000	1348.246094	135.500519
10588.826596	5166.485000	1347.156250	223.053024
10588.826596	5166.485000	1346.066406	68.865860
10588.826596	5166.485000	1344.975586	285.569763
10588.826596	5166.485000	1343.884766	339.157684
10588.826596	5166.485000	1342.793945	218.622482
10588.826596	5166.485000	1341.702148	309.609680
10588.826596	5166.485000	1340.611328	252.159592
10588.826596	5166.485000	1339.519531	345.385773
10588.826596	5166.485000	1338.427734	310.270142
10588.826596	5166.485000	1337.334961	329.876312
10588.826596	5166.485000	1336.243164	525.442505
10588.826596	5166.485000	1335.150391	391.361847
10588.826596	5166.485000	1334.057617	217.982300
10588.826596	5166.485000	1332.964844	322.862183
10588.826596	5166.485000	1331.871094	317.770355
10588.826596	5166.485000	1330.778320	410.489502
10588.826596	5166.485000	1329.684570	284.087036
10588.826596	5166.485000	1328.590820	355.732880
10588.826596	5166.485000	1327.496094	388.059418
10588.826596	5166.485000	1326.402344	319.874329
10588.826596	5166.485000	1325.307617	267.947479
10588.826596	5166.485000	1324.212891	256.723053
10588.826596	5166.485000	1323.117188	260.143097
10588.826596	5166.485000	1322.022461	196.645813
10588.826596	5166.485000	1320.926758	51.646927
10588.826596	5166.485000	1319.831055	62.733974
10588.826596	5166.485000	1318.735352	73.866585
10588.826596	5166.485000	1317.638672	195.002594
10588.826596	5166.485000	1316.542969	155.348358
10588.826596	5166.485000	1315.446289	147.761353
10588.826596	5166.485000	1314.349609	161.015427
10588.826596	5166.485000	1313.251953	171.578369
10588.826596	5166.485000	1312.155273	261.028229
10588.826596	5166.485000	1311.057617	110.626114
10588.826596	5166.485000	1309.959961	157.342987
10588.826596	5166.485000	1308.862305	3.905034
10588.826596	5166.485000	1307.763672	103.351456
10588.826596	5166.485000	1306.665039	47.240982
10588.826596	5166.485000	1305.566406	-25.897484
10588.826596	5166.485000	1304.467773	-99.553589
10588.826596	5166.485000	1303.369141	-142.177933
10588.826596	5166.485000	1302.269531	89.553040
10588.826596	5166.485000	1301.169922	23.524994
10588.826596	5166.485000	1300.070313	5.180891
10588.826596	5166.485000	1298.970703	-50.235546
10588.826596	5166.485000	1297.870117	-29.429943
10588.826596	5166.485000	1296.769531	-14.584159
10588.826596	5166.485000	1295.668945	-50.367561
10588.826596	5166.485000	1294.568359	38.942081
10588.826596	5166.485000	1293.466797	-50.668362
10588.826596	5166.485000	1292.366211	-43.377014
10588.826596	5166.485000	1291.264648	-57.008507
10588.826596	5166.485000	1290.162109	-37.346390
10588.826596	5166.485000	1289.060547	-7.659800
10588.826596	5166.485000	1287.958008	40.407463
10588.826596	5166.485000	1286.855469	6.360728
10588.826596	5166.485000	1285.752930	-22.469402
10588.826596	5166.485000	1284.650391	91.568962
10588.826596	5166.485000	1283.546875	73.622116
10588.826596	5166.485000	1282.444336	148.905899
10588.826596	5166.485000	1281.339844	54.658031
10588.826596	5166.485000	1280.236328	80.397675
10588.826596	5166.485000	1279.132813	154.540680
10588.826596	5166.485000	1278.028320	8.422906
10588.826596	5166.485000	1276.923828	-4.947670
10588.826596	5166.485000	1275.819336	101.473396
10588.826596	5166.485000	1274.713867	107.495682
10588.826596	5166.485000	1273.608398	96.507919
10588.826596	5166.485000	1272.503906	186.338211
10588.826596	5166.485000	1271.397461	196.575531
10588.826596	5166.485000	1270.291992	149.065491
10588.826596	5166.485000	1269.185547	-69.470581
10588.826596	5166.485000	1268.080078	64.183426
10588.826596	5166.485000	1266.972656	-8.904721
10588.826596	5166.485000	1265.866211	74.675728
10588.826596	5166.485000	1264.759766	65.253006
10588.826596	5166.485000	1263.652344	53.424992
10588.826596	5166.485000	1262.544922	-20.432537
10588.826596	5166.485000	1261.436523	35.534180
10588.826596	5166.485000	1260.329102	30.161074
10588.826596	5166.485000	1259.220703	8.496984
10588.826596	5166.485000	1258.112305	64.862930
10588.826596	5166.485000	1257.003906	-63.479870
10588.826596	5166.485000	1255.895508	-31.319040
10588.826596	5166.485000	1254.786133	-112.350533
10588.826596	5166.485000	1253.676758	-118.960434
10588.826596	5166.485000	1252.567383	-18.581882
10588.826596	5166.485000	1251.458008	53.572697
10588.826596	5166.485000	1250.347656	-33.495319
10588.826596	5166.485000	1249.237305	-68.708229
10588.826596	5166.485000	1248.126953	-169.416168
10588.826596	5166.485000	1247.016602	-145.530777
10588.826596	5166.485000	1245.905273	71.140762
10588.826596	5166.485000	1244.793945	9.357737
10588.826596	5166.485000	1243.682617	-122.239754
10588.826596	5166.485000	1242.571289	-2.790895
10588.826596	5166.485000	1241.459961	-19.733723
10588.826596	5166.485000	1240.347656	71.771141
10588.826596	5166.485000	1239.235352	137.030762
10588.826596	5166.485000	1238.123047	29.554375
10588.826596	5166.485000	1237.009766	137.369858
10588.826596	5166.485000	1235.897461	-65.933632
10588.826596	5166.485000	1234.784180	117.300797
10588.826596	5166.485000	1233.670898	6.509034
10588.826596	5166.485000	1232.556641	32.982677
10588.826596	5166.485000	1231.443359	-76.640366
10588.826596	5166.485000	1230.329102	-25.763687
10588.826596	5166.485000	1229.214844	-16.387947
10588.826596	5166.485000	1228.099609	-18.223478
10588.826596	5166.485000	1226.985352	-34.761341
10588.826596	5166.485000	1225.870117	48.138870
10588.826596	5166.485000	1224.754883	27.990149
10588.826596	5166.485000	1223.639648	119.233368
10588.826596	5166.485000	1222.523438	-5.553689
10588.826596	5166.485000	1221.408203	211.437668
10588.826596	5166.485000	1220.291992	114.198479
10588.826596	5166.485000	1219.174805	132.171570
10588.826596	5166.485000	1218.058594	203.753540
10588.826596	5166.485000	1216.941406	132.743042
10588.826596	5166.485000	1215.824219	208.182343
10588.826596	5166.485000	1214.707031	163.172485
10588.826596	5166.485000	1213.589844	176.497116
10588.826596	5166.485000	1212.471680	154.064102
10588.826596	5166.485000	1211.353516	192.948914
10588.826596	5166.485000	1210.235352	143.097321
10588.826596	5166.485000	1209.117188	74.735359
10588.826596	5166.485000	1207.998047	15.337309
10588.826596	5166.485000	1206.878906	100.631958
10588.826596	5166.485000	1205.759766	15.660774
10588.826596	5166.485000	1204.640625	46.833408
10588.826596	5166.485000	1203.520508	9.816504
10588.826596	5166.485000	1202.401367	123.838699
10588.826596	5166.485000	1201.281250	-50.469318
10588.826596	5166.485000	1200.160156	-39.760422
10588.826596	5166.485000	1199.040039	-18.335238
10588.826596	5166.485000	1197.918945	-110.066040
10588.826596	5166.485000	1196.797852	-33.771839
10588.826596	5166.485000	1195.676758	-21.829123
10588.826596	5166.485000	1194.555664	-3.336045
10588.826596	5166.485000	1193.433594	-188.896500
10588.826596	5166.485000	1192.311523	-72.169334
10588.826596	5166.485000	1191.189453	-97.100349
10588.826596	5166.485000	1190.066406	-26.797358
10588.826596	5166.485000	1188.944336	-68.619446
10588.826596	5166.485000	1187.821289	-95.512253
10588.826596	5166.485000	1186.698242	-95.197044
10588.826596	5166.485000	1185.574219	-147.075638
10588.826596	5166.485000	1184.451172	-201.453293
10588.826596	5166.485000	1183.327148	-162.926132
10588.826596	5166.485000	1182.203125	-158.493683
10588.826596	5166.485000	1181.078125	-37.111507
10588.826596	5166.485000	1179.954102	-12.617001
10588.826596	5166.485000	1178.829102	-99.337799
10588.826596	5166.485000	1177.704102	-22.129827
10588.826596	5166.485000	1176.579102	-13.807040
10588.826596	5166.485000	1175.453125	-46.437344
10588.826596	5166.485000	1174.327148	-168.067062
10588.826596	5166.485000	1173.201172	-52.557961
10588.826596	5166.485000	1172.075195	-70.808952
10588.826596	5166.485000	1170.949219	-25.446447
10588.826596	5166.485000	1169.822266	-54.533550
10588.826596	5166.485000	1168.695313	-75.660423
10588.826596	5166.485000	1167.568359	50.712517
10588.826596	5166.485000	1166.440430	-41.614571
10588.826596	5166.485000	1165.313477	-61.447411
10588.826596	5166.485000	1164.185547	41.891865
10588.826596	5166.485000	1163.057617	26.657909
10588.826596	5166.485000	1161.928711	-15.562086
10588.826596	5166.485000	1160.800781	37.016167
10588.826596	5166.485000	1159.671875	122.039146
10588.826596	5166.485000	1158.541992	132.368683
10588.826596	5166.485000	1157.413086	-94.589706
10588.826596	5166.485000	1156.283203	-29.112516
10588.826596	5166.485000	1155.154297	60.105274
10588.826596	5166.485000	1154.023438	25.285706
10588.826596	5166.485000	1152.893555	112.081917
10588.826596	5166.485000	1151.763672	21.852503
10588.826596	5166.485000	1150.632813	136.318268
10588.826596	5166.485000	1149.501953	69.778091
10588.826596	5166.485000	1148.370117	211.666626
10588.826596	5166.485000	1147.239258	93.036270
10588.826596	5166.485000	1146.107422	-19.036289
10588.826596	5166.485000	1144.975586	107.702042
10588.826596	5166.485000	1143.843750	53.837803
10588.826596	5166.485000	1142.710938	-115.873169
10588.826596	5166.485000	1141.578125	48.155304
10588.826596	5166.485000	1140.445313	148.209015
10588.826596	5166.485000	1139.312500	-3.541492
10588.826596	5166.485000	1138.178711	53.378281
10588.826596	5166.485000	1137.045898	44.396233
10588.826596	5166.485000	1135.912109	78.842537
10588.826596	5166.485000	1134.777344	131.695282
10588.826596	5166.485000	1133.643555	152.849365
10588.826596	5166.485000	1132.508789	51.884804
10588.826596	5166.485000	1131.374023	191.589203
10588.826596	5166.485000	1130.239258	91.857796
10588.826596	5166.485000	1129.104492	231.921692
10588.826596	5166.485000	1127.968750	143.286453
10588.826596	5166.485000	1126.833008	108.020096
10588.826596	5166.485000	1125.697266	282.051056
10588.826596	5166.485000	1124.560547	108.447273
10588.826596	5166.485000	1123.424805	69.208687
10588.826596	5166.485000	1122.288086	119.093544
10588.826596	5166.485000	1121.151367	70.299942
10588.826596	5166.485000	1120.013672	109.217995
10588.826596	5166.485000	1118.876953	-96.656990
10588.826596	5166.485000	1117.739258	86.010162
10588.826596	5166.485000	1116.601563	64.115929
10588.826596	5166.485000	1115.462891	-53.478970
10588.826596	5166.485000	1114.324219	42.456974
10588.826596	5166.485000	1113.186523	126.349724
10588.826596	5166.485000	1112.046875	-178.087845
10588.826596	5166.485000	1110.908203	100.570580
10588.826596	5166.485000	1109.769531	-26.605803
10588.826596	5166.485000	1108.629883	-22.262772
10588.826596	5166.485000	1107.490234	66.760101
10588.826596	5166.485000	1106.349609	-131.335358
10588.826596	5166.485000	1105.209961	4.974803
10588.826596	5166.485000	1104.069336	-123.362144
10588.826596	5166.485000	1102.928711	41.831470
10588.826596	5166.485000	1101.787109	0.502971
10588.826596	5166.485000	1100.646484	50.198563
10588.826596	5166.485000	1099.504883	73.226120
10588.826596	5166.485000	1098.363281	3.804981
10588.826596	5166.485000	1097.221680	-73.022537
10588.826596	5166.485000	1096.079102	16.245913
10588.826596	5166.485000	1094.936523	277.270721
10588.826596	5166.485000	1093.793945	18.328556
10588.826596	5166.485000	1092.651367	130.503311
10588.826596	5166.485000	1091.507813	108.900230
10588.826596	5166.485000	1090.364258	-0.080893
10588.826596	5166.485000	1089.220703	151.109131
10588.826596	5166.485000	1088.077148	112.432602
10588.826596	5166.485000	1086.933594	184.781494
10588.826596	5166.485000	1085.789063	126.240410
10588.826596	5166.485000	1084.644531	116.158081
10588.826596	5166.485000	1083.499023	26.122473
10588.826596	5166.485000	1082.354492	56.290844
10588.826596	5166.485000	1081.208984	60.635582
10588.826596	5166.485000	1080.063477	-4.184864
10588.826596	5166.485000	1078.917969	-15.174461
10588.826596	5166.485000	1077.771484	-25.428989
10588.826596	5166.485000	1076.625977	71.846893
10588.826596	5166.485000	1075.479492	76.869392
10588.826596	5166.485000	1074.332031	-142.994461
10588.826596	5166.485000	1073.185547	-80.460327
10588.826596	5166.485000	1072.038086	130.765442
10588.826596	5166.485000	1070.890625	38.221996
10588.826596	5166.485000	1069.743164	204.939102
10588.826596	5166.485000	1068.594727	95.953064
10588.826596	5166.485000	1067.447266	0.316680
10588.826596	5166.485000	1066.298828	195.624527
10588.826596	5166.485000	1065.149414	125.347206
10588.826596	5166.485000	1064.000977	322.511871
10588.826596	5166.485000	1062.851563	52.038090
10588.826596	5166.485000	1061.702148	-118.610329
10588.826596	5166.485000	1060.552734	144.859116
10588.826596	5166.485000	1059.402344	130.740799
10588.826596	5166.485000	1058.252930	257.277588
10588.826596	5166.485000	1057.102539	70.126022
10588.826596	5166.485000	1055.951172	82.792885
10588.826596	5166.485000	1054.800781	210.866501
10588.826596	5166.485000	1053.649414	207.522263
10588.826596	5166.485000	1052.498047	205.674973
10588.826596	5166.485000	1051.346680	-48.213364
10588.826596	5166.485000	1050.194336	225.112793
10588.826596	5166.485000	1049.042969	293.629852
10588.826596	5166.485000	1047.890625	103.166199
10588.826596	5166.485000	1046.738281	24.195927
10588.826596	5166.485000	1045.584961	145.331406
10588.826596	5166.485000	1044.431641	161.286102
10588.826596	5166.485000	1043.278320	149.921921
10588.826596	5166.485000	1042.125000	-52.305450
10588.826596	5166.485000	1040.971680	135.344833
10588.826596	5166.485000	1039.817383	69.138794
10588.826596	5166.485000	1038.663086	80.490280
10588.826596	5166.485000	1037.508789	134.072769
10588.826596	5166.485000	1036.353516	308.481293
10588.826596	5166.485000	1035.198242	255.505798
10588.826596	5166.485000	1034.042969	281.420380
10588.826596	5166.485000	1032.887695	248.753479
10588.826596	5166.485000	1031.732422	313.601959
10588.826596	5166.485000	1030.576172	459.897644
10588.826596	5166.485000	1029.419922	322.842773
10588.826596	5166.485000	1028.263672	432.308594
10588.826596	5166.485000	1027.106445	443.407501
10588.826596	5166.485000	1025.949219	288.800903
10588.826596	5166.485000	1024.792969	190.700500
10588.826596	5166.485000	1023.634766	216.989349
10588.826596	5166.485000	1022.477539	263.570953
10588.826596	5166.485000	1021.319336	176.265427
10588.826596	5166.485000	1020.161133	207.807526
10588.826596	5166.485000	1019.002930	122.603256
10588.826596	5166.485000	1017.843750	81.354614
10588.826596	5166.485000	1016.684570	140.744736
10588.826596	5166.485000	1015.525391	122.644943
10588.826596	5166.485000	1014.366211	217.081848
10588.826596	5166.485000	1013.207031	-45.010715
10588.826596	5166.485000	1012.046875	100.820580
10588.826596	5166.485000	1010.886719	-49.954319
10588.826596	5166.485000	1009.726563	-0.298532
10588.826596	5166.485000	1008.565430	105.047836
10588.826596	5166.485000	1007.404297	-15.596535
10588.826596	5166.485000	1006.243164	103.701729
10588.826596	5166.485000	1005.082031	91.968292
10588.826596	5166.485000	1003.920898	7.579887
10588.826596	5166.485000	1002.758789	58.897850
10588.826596	5166.485000	1001.596680	239.609207
10588.826596	5166.485000	1000.433594	62.834988
10588.826596	5166.485000	999.271484	18.565388
10588.826596	5166.485000	998.108398	177.738968
10588.826596	5166.485000	996.945313	240.420334
10588.826596	5166.485000	995.782227	195.937408
10588.826596	5166.485000	994.618164	210.623047
10588.826596	5166.485000	993.454102	255.441833
10588.826596	5166.485000	992.290039	285.035187
10588.826596	5166.485000	991.125977	204.587509
10588.826596	5166.485000	989.960938	295.765533
10588.826596	5166.485000	988.796875	388.556061
10588.826596	5166.485000	987.630859	266.799408
10588.826596	5166.485000	986.465820	331.574402
10588.826596	5166.485000	985.300781	329.168304
10588.826596	5166.485000	984.134766	260.008514
10588.826596	5166.485000	982.968750	178.502274
10588.826596	5166.485000	981.801758	96.820541
10588.826596	5166.485000	980.635742	80.331871
10588.826596	5166.485000	979.468750	120.762108
10588.826596	5166.485000	978.301758	111.797905
10588.826596	5166.485000	977.133789	179.480270
10588.826596	5166.485000	975.966797	57.948437
10588.826596	5166.485000	974.798828	191.010605
10588.826596	5166.485000	973.630859	6.973670
10588.826596	5166.485000	972.461914	-134.011124
10588.826596	5166.485000	971.293945	106.439827
10588.826596	5166.485000	970.125000	68.935799
10588.826596	5166.485000	968.956055	-13.696206
10588.826596	5166.485000	967.786133	137.911316
10588.826596	5166.485000	966.617188	-55.158169
10588.826596	5166.485000	965.447266	-97.034782
10588.826596	5166.485000	964.276367	-52.379845
10588.826596	5166.485000	963.106445	5.391723
10588.826596	5166.485000	961.935547	-116.878166
10588.826596	5166.485000	960.764648	146.354935
10588.826596	5166.485000	959.593750	35.329685
10588.826596	5166.485000	958.422852	98.798424
10588.826596	5166.485000	957.250977	116.451729
10588.826596	5166.485000	956.079102	-10.669769
10588.826596	5166.485000	954.907227	-0.836201
10588.826596	5166.485000	953.734375	-94.250587
10588.826596	5166.485000	952.562500	-13.448603
10588.826596	5166.485000	951.389648	-114.329865
10588.826596	5166.485000	950.215820	30.370617
10588.826596	5166.485000	949.042969	-90.670326
10588.826596	5166.485000	947.869141	132.443970
10588.826596	5166.485000	946.695313	108.176170
10588.826596	5166.485000	945.521484	163.860138
10588.826596	5166.485000	944.346680	171.297638
10588.826596	5166.485000	943.172852	156.170990
10588.826596	5166.485000	941.998047	25.606739
10588.826596	5166.485000	940.822266	113.660393
10588.826596	5166.485000	939.647461	-7.242447
10588.826596	5166.485000	938.471680	65.750725
10588.826596	5166.485000	937.295898	75.235970
10588.826596	5166.485000	936.119141	-45.412800
10588.826596	5166.485000	934.943359	-16.378279
10588.826596	5166.485000	933.766602	2.751987
10588.826596	5166.485000	932.589844	24.382706
10588.826596	5166.485000	931.413086	-96.430557
10588.826596	5166.485000	930.235352	65.101082
10588.826596	5166.485000	929.057617	155.339401
10588.826596	5166.485000	927.879883	2.641228
10588.826596	5166.485000	926.702148	311.206665
10588.826596	5166.485000	925.523438	80.064766
10588.826596	5166.485000	924.344727	-13.691186
10588.826596	5166.485000	923.166016	39.677460
10588.826596	5166.485000	921.987305	-44.258602
10588.826596	5166.485000	920.807617	214.977905
10588.826596	5166.485000	919.627930	215.965134
10588.826596	5166.485000	919.497070	11.060429
10588.826596	5166.485000	918.331055	-80.203308
10588.826596	5166.485000	917.165039	4.927751
10588.826596	5166.485000	915.999023	-59.376122
10588.826596	5166.485000	914.833008	-202.015930
10588.826596	5166.485000	913.666016	-41.047688
10588.826596	5166.485000	912.499023	-36.795544
10588.826596	5166.485000	911.332031	-181.822632
10588.826596	5166.485000	910.165039	-11.192562
10588.826596	5166.485000	908.997070	-33.876408
10588.826596	5166.485000	907.830078	-17.429052
10588.826596	5166.485000	906.661133	-8.328862
10588.826596	5166.485000	905.493164	110.766983
10588.826596	5166.485000	904.325195	14.731144
10588.826596	5166.485000	903.156250	-108.149178
10588.826596	5166.485000	901.987305	27.980583
10588.826596	5166.485000	900.818359	-151.040863
10588.826596	5166.485000	899.648438	70.506767
10588.826596	5166.485000	898.478516	125.933601
10588.826596	5166.485000	897.308594	-33.480728
10588.826596	5166.485000	896.138672	104.917397
10588.826596	5166.485000	894.968750	77.330933
10588.826596	5166.485000	893.797852	-84.423683
10588.826596	5166.485000	892.626953	22.184883
10588.826596	5166.485000	891.456055	-15.128716
10588.826596	5166.485000	890.284180	76.790817
10588.826596	5166.485000	889.113281	-53.150417
10588.826596	5166.485000	887.941406	219.081512
10588.826596	5166.485000	886.768555	286.527893
10588.826596	5166.485000	885.596680	-62.626850
10588.826596	5166.485000	884.423828	-70.654961
10588.826596	5166.485000	883.250977	181.876236
10588.826596	5166.485000	882.078125	156.759476
10588.826596	5166.485000	880.905273	107.312408
10588.826596	5166.485000	879.731445	53.019390
10588.826596	5166.485000	878.557617	71.743256
10588.826596	5166.485000	877.383789	277.772339
10588.826596	5166.485000	876.209961	43.504826
10588.826596	5166.485000	875.035156	18.455338
10588.826596	5166.485000	873.860352	5.573593
10588.826596	5166.485000	872.685547	58.326130
10588.826596	5166.485000	871.510742	-83.350800
10588.826596	5166.485000	870.334961	115.181442
10588.826596	5166.485000	869.159180	-24.013685
10588.826596	5166.485000	867.983398	91.857964
10588.826596	5166.485000	866.807617	-1.134560
10588.826596	5166.485000	865.630859	56.428616
10588.826596	5166.485000	864.454102	-123.887619
10588.826596	5166.485000	863.277344	161.789474
10588.826596	5166.485000	862.100586	-40.302116
10588.826596	5166.485000	860.922852	-72.510620
10588.826596	5166.485000	859.745117	-87.725266
10588.826596	5166.485000	858.567383	44.974510
10588.826596	5166.485000	857.389648	5.509274
10588.826596	5166.485000	856.210938	29.081102
10588.826596	5166.485000	855.032227	-112.126534
10588.826596	5166.485000	853.853516	15.644312
10588.826596	5166.485000	852.674805	41.637421
10588.826596	5166.485000	851.495117	-80.096504
10588.826596	5166.485000	850.315430	-148.508804
10588.826596	5166.485000	849.135742	39.704353
10588.826596	5166.485000	847.956055	77.794525
10588.826596	5166.485000	846.775391	77.161034
10588.826596	5166.485000	845.595703	221.683731
10588.826596	5166.485000	844.415039	126.703667
10588.826596	5166.485000	843.233398	19.678925
10588.826596	5166.485000	842.052734	14.246132
10588.826596	5166.485000	840.871094	-49.189690
10588.826596	5166.485000	839.689453	75.909264
10588.826596	5166.485000	838.506836	51.159122
10588.826596	5166.485000	837.325195	-31.552107
10588.826596	5166.485000	836.142578	-68.332573
10588.826596	5166.485000	834.959961	-3.674294
10588.826596	5166.485000	833.777344	39.235729
10588.826596	5166.485000	832.593750	-77.169006
10588.826596	5166.485000	831.410156	76.760544
10588.826596	5166.485000	830.226563	-15.464396
10588.826596	5166.485000	829.042969	73.271889
10588.826596	5166.485000	827.858398	0.393120
10588.826596	5166.485000	826.673828	-173.720261
10588.826596	5166.485000	825.489258	129.568909
10588.826596	5166.485000	824.304688	10.948581
10588.826596	5166.485000	823.120117	32.148197
10588.826596	5166.485000	821.934570	-93.617523
10588.826596	5166.485000	820.749023	-118.157646
10588.826596	5166.485000	819.562500	167.983261
10588.826596	5166.485000	818.376953	-126.256798
10588.826596	5166.485000	817.190430	-170.014221
10588.826596	5166.485000	816.003906	-71.749023
10588.826596	5166.485000	814.817383	-96.237686
10588.826596	5166.485000	813.629883	-212.128769
10588.826596	5166.485000	812.442383	-60.981956
10588.826596	5166.485000	811.254883	-34.939930
10588.826596	5166.485000	810.067383	-42.563389
10588.826596	5166.485000	808.878906	-33.351017
10588.826596	5166.485000	807.690430	-149.108124
10588.826596	5166.485000	806.501953	64.368736
10588.826596	5166.485000	805.313477	85.579391
10588.826596	5166.485000	804.124023	-169.419205
10588.826596	5166.485000	802.934570	-8.884540
10588.826596	5166.485000	801.745117	-16.467707
10588.826596	5166.485000	800.555664	-81.650841
10588.826596	5166.485000	799.365234	-65.209030
10588.826596	5166.485000	798.175781	-29.577583
10588.826596	5166.485000	796.985352	75.609024
10588.826596	5166.485000	795.793945	12.874993
10588.826596	5166.485000	794.603516	17.306934
10588.826596	5166.485000	793.412109	-21.410774
10588.826596	5166.485000	792.220703	138.825592
10588.826596	5166.485000	791.028320	160.011871
10588.826596	5166.485000	789.836914	47.024212
10588.826596	5166.485000	788.644531	68.223717
10588.826596	5166.485000	787.452148	55.888386
10588.826596	5166.485000	786.258789	22.011116
10588.826596	5166.485000	785.066406	81.507057
10588.826596	5166.485000	783.873047	11.739244
10588.826596	5166.485000	782.679688	140.606735
10588.826596	5166.485000	781.485352	34.970570
10588.826596	5166.485000	780.291992	15.483645
10588.826596	5166.485000	779.097656	-82.909973
10588.826596	5166.485000	777.903320	122.374779
10588.826596	5166.485000	776.708008	107.660316
10588.826596	5166.485000	775.512695	78.610298
10588.826596	5166.485000	774.318359	35.232616
10588.826596	5166.485000	773.122070	89.816040
10588.826596	5166.485000	771.926758	173.032944
10588.826596	5166.485000	770.730469	206.067535
10588.826596	5166.485000	769.534180	212.822220
10588.826596	5166.485000	768.337891	28.618839
10588.826596	5166.485000	767.141602	-7.556692
10588.826596	5166.485000	765.944336	202.025665
10588.826596	5166.485000	764.747070	280.318115
10588.826596	5166.485000	763.549805	480.201508
10588.826596	5166.485000	762.351563	336.641754
10588.826596	5166.485000	761.154297	376.694519
10588.826596	5166.485000	759.956055	314.236786
10588.826596	5166.485000	758.757813	401.920868
10588.826596	5166.485000	757.558594	265.613007
10588.826596	5166.485000	756.359375	160.317596
10588.826596	5166.485000	755.160156	74.107880
10588.826596	5166.485000	753.960938	295.064392
10588.826596	5166.485000	752.761719	373.091919
10588.826596	5166.485000	751.561523	134.544373
10588.826596	5166.485000	750.361328	471.910522
10588.826596	5166.485000	749.160156	188.218582
10588.826596	5166.485000	747.959961	104.421303
10588.826596	5166.485000	746.758789	206.127335
10588.826596	5166.485000	745.557617	260.227814
10588.826596	5166.485000	744.356445	155.034225
10588.826596	5166.485000	743.154297	280.388153
10588.826596	5166.485000	741.952148	44.525932
10588.826596	5166.485000	740.750000	89.052513
10588.826596	5166.485000	739.547852	-39.829575
10588.826596	5166.485000	738.344727	280.102509
10588.826596	5166.485000	737.142578	227.166504
10588.826596	5166.485000	735.939453	79.294922
10588.826596	5166.485000	734.735352	356.233246
10588.826596	5166.485000	733.532227	241.572205
10588.826596	5166.485000	732.328125	217.076279
10588.826596	5166.485000	731.124023	135.652817
10588.826596	5166.485000	729.918945	149.083145
10588.826596	5166.485000	728.714844	186.190018
10588.826596	5166.485000	727.509766	178.228470
10588.826596	5166.485000	726.303711	231.855087
10588.826596	5166.485000	725.098633	105.388329
10588.826596	5166.485000	723.892578	125.798943
10588.826596	5166.485000	722.686523	86.974854
10588.826596	5166.485000	721.480469	81.286041
10588.826596	5166.485000	720.274414	165.520920
10588.826596	5166.485000	719.067383	-5.893935
10588.826596	5166.485000	717.860352	9.652630
10588.826596	5166.485000	716.653320	233.333786
10588.826596	5166.485000	715.445313	83.211296
10588.826596	5166.485000	714.238281	67.901833
10588.826596	5166.485000	713.030273	33.655521
10588.826596	5166.485000	711.821289	41.936962
10588.826596	5166.485000	710.613281	-65.608711
10588.826596	5166.485000	709.404297	-47.924896
10588.826596	5166.485000	708.195313	-9.023322
10588.826596	5166.485000	706.986328	6.211061
10588.826596	5166.485000	705.776367	-51.789120
10588.826596	5166.485000	704.566406	-10.655640
10588.826596	5166.485000	703.356445	2.102525
10588.826596	5166.485000	702.146484	132.799149
10588.826596	5166.485000	700.935547	157.243225
10588.826596	5166.485000	699.724609	80.217117
10588.826596	5166.485000	698.513672	19.690880
10588.826596	5166.485000	697.302734	-57.353264
10588.826596	5166.485000	696.090820	42.379372
10588.826596	5166.485000	694.878906	73.686440
10588.826596	5166.485000	693.666992	-142.457138
10588.826596	5166.485000	692.455078	-167.745407
10588.826596	5166.485000	691.242188	9.477520
10588.826596	5166.485000	690.029297	7.626618
10588.826596	5166.485000	688.816406	83.419968
10588.826596	5166.485000	687.602539	-22.097982
10588.826596	5166.485000	686.389648	-33.490334
10588.826596	5166.485000	685.175781	131.526291
10588.826596	5166.485000	683.960938	171.759232
10588.826596	5166.485000	682.747070	164.893158
10588.826596	5166.485000	681.532227	96.849434
10588.826596	5166.485000	680.317383	-51.139778
10588.826596	5166.485000	679.102539	-15.800713
10588.826596	5166.485000	677.886719	52.367821
10588.826596	5166.485000	676.670898	38.232887
10588.826596	5166.485000	675.455078	-1.784763
10588.826596	5166.485000	674.239258	-119.330299
10588.826596	5166.485000	673.022461	49.542633
10588.826596	5166.485000	671.805664	-98.587303
10588.826596	5166.485000	670.588867	51.326160
10588.826596	5166.485000	669.372070	81.462082
10588.826596	5166.485000	668.154297	52.883842
10588.826596	5166.485000	666.936523	7.843162
10588.826596	5166.485000	665.718750	7.314537
10588.826596	5166.485000	664.500977	210.679214
10588.826596	5166.485000	663.282227	62.330956
10588.826596	5166.485000	662.063477	35.836159
10588.826596	5166.485000	660.844727	49.120026
10588.826596	5166.485000	659.625000	202.873077
10588.826596	5166.485000	658.405273	59.091068
10588.826596	5166.485000	657.185547	-28.500984
10588.826596	5166.485000	655.965820	204.571472
10588.826596	5166.485000	654.745117	217.491470
10588.826596	5166.485000	653.525391	211.624680
10588.826596	5166.485000	652.303711	317.980133
10588.826596	5166.485000	651.083008	50.014076
10588.826596	5166.485000	649.861328	72.047958
10588.826596	5166.485000	648.640625	192.196899
10588.826596	5166.485000	647.417969	242.104156
10588.826596	5166.485000	646.196289	-18.876940
10588.826596	5166.485000	644.973633	-8.799304
10588.826596	5166.485000	643.750977	5.876960
10588.826596	5166.485000	642.528320	67.185585
10588.826596	5166.485000	641.305664	11.654928
10588.826596	5166.485000	640.082031	189.513916
10588.826596	5166.485000	638.858398	124.502876
10588.826596	5166.485000	637.634766	194.785477
10588.826596	5166.485000	636.410156	325.620270
10588.826596	5166.485000	635.185547	169.441650
10588.826596	5166.485000	633.960938	174.158432
10588.826596	5166.485000	632.736328	57.567120
10588.826596	5166.485000	631.510742	-175.596359
10588.826596	5166.485000	630.285156	141.247177
10588.826596	5166.485000	629.059570	103.731689
10588.826596	5166.485000	627.833984	-45.654858
10588.826596	5166.485000	626.607422	165.931198
10588.826596	5166.485000	625.380859	60.683090
10588.826596	5166.485000	624.154297	141.641083
10588.826596	5166.485000	622.927734	73.531464
10588.826596	5166.485000	621.700195	-1.608919
10588.826596	5166.485000	620.472656	13.938847
10588.826596	5166.485000	619.245117	27.077379
10588.826596	5166.485000	618.016602	40.130970
10588.826596	5166.485000	616.788086	87.976479
10588.826596	5166.485000	615.559570	131.075638
10588.826596	5166.485000	614.331055	-62.970135
10588.826596	5166.485000	613.101563	-38.603825
10588.826596	5166.485000	611.872070	104.148407
10588.826596	5166.485000	610.642578	186.376282
10588.826596	5166.485000	609.413086	191.863907
10588.826596	5166.485000	608.182617	-104.534050
10588.826596	5166.485000	606.952148	-10.947442
10588.826596	5166.485000	605.721680	-14.942720
10588.826596	5166.485000	604.491211	212.991791
10588.826596	5166.485000	603.259766	99.769226
10588.826596	5166.485000	602.028320	-6.526610
10588.826596	5166.485000	600.796875	-219.510941
10588.826596	5166.485000	599.564453	49.675529
10588.826596	5166.485000	598.332031	-47.512074
10588.826596	5166.485000	597.099609	-28.881784
10588.826596	5166.485000	595.867188	35.993732
10588.826596	5166.485000	594.633789	17.378366
10588.826596	5166.485000	593.400391	68.160675
10588.826596	5166.485000	592.166992	74.854950
10588.826596	5166.485000	590.933594	14.343683
10588.826596	5166.485000	589.699219	-16.141153
10588.826596	5166.485000	588.464844	-37.437252
10588.826596	5166.485000	587.230469	24.471716
10588.826596	5166.485000	585.995117	-73.302513
10588.826596	5166.485000	584.760742	187.278931
10588.826596	5166.485000	583.525391	-74.773598
10588.826596	5166.485000	582.289063	-96.433151
10588.826596	5166.485000	581.053711	168.370819
10588.826596	5166.485000	579.817383	215.820709
10588.826596	5166.485000	578.581055	110.732269
10588.826596	5166.485000	577.343750	81.811691
10588.826596	5166.485000	576.107422	36.671066
10588.826596	5166.485000	574.870117	-22.380642
10588.826596	5166.485000	573.631836	24.668520
10588.826596	5166.485000	572.394531	80.856339
10588.826596	5166.485000	571.156250	-1.465061
10588.826596	5166.485000	569.917969	-69.988663
10588.826596	5166.485000	568.679688	27.459354
10588.826596	5166.485000	567.440430	34.880756
10588.826596	5166.485000	566.202148	26.097675
10588.826596	5166.485000	564.961914	10.321821
10588.826596	5166.485000	563.722656	111.980255
10588.826596	5166.485000	562.482422	-5.296732
10588.826596	5166.485000	561.243164	-0.539543
10588.826596	5166.485000	560.001953	-78.749924
10588.826596	5166.485000	558.761719	29.457411
10588.826596	5166.485000	557.520508	-7.441411
10588.826596	5166.485000	556.279297	3.924885
10588.826596	5166.485000	555.038086	35.920734
10588.826596	5166.485000	553.795898	8.033356
10588.826596	5166.485000	552.554688	-123.375214
10588.826596	5166.485000	551.311523	92.325630
10588.826596	5166.485000	550.069336	103.317757
10588.826596	5166.485000	548.826172	82.063034
10588.826596	5166.485000	547.583984	-134.519424
10588.826596	5166.485000	546.339844	2.638957
10588.826596	5166.485000	545.096680	-18.770540
10588.826596	5166.485000	543.852539	14.863044
10588.826596	5166.485000	542.608398	62.193424
10588.826596	5166.485000	541.364258	68.134026
10588.826596	5166.485000	540.119141	147.428055
10588.826596	5166.485000	538.875000	-0.466060
10588.826596	5166.485000	537.628906	92.446640
10588.826596	5166.485000	536.383789	43.103104
10588.826596	5166.485000	535.137695	-45.253929
10588.826596	5166.485000	533.892578	-94.658325
10588.826596	5166.485000	532.645508	-199.106293
10588.826596	5166.485000	531.399414	-168.385956
10588.826596	5166.485000	530.152344	121.089874
10588.826596	5166.485000	528.905273	-175.858490
10588.826596	5166.485000	527.658203	-163.642700
10588.826596	5166.485000	526.410156	-204.138062
10588.826596	5166.485000	525.163086	-59.284580
10588.826596	5166.485000	523.914063	-95.313599
10588.826596	5166.485000	522.666016	-62.740421
10588.826596	5166.485000	521.416992	-169.747864
10588.826596	5166.485000	520.167969	-59.528023
10588.826596	5166.485000	518.918945	-125.430527
10588.826596	5166.485000	517.669922	-102.209785
10588.826596	5166.485000	516.419922	-58.483032
10588.826596	5166.485000	515.169922	-39.949059
10588.826596	5166.485000	513.919922	-103.692368
10588.826596	5166.485000	512.668945	-94.379097
10588.826596	5166.485000	511.417969	-110.224571
10588.826596	5166.485000	510.166992	-59.904606
10588.826596	5166.485000	508.916016	-41.593563
10588.826596	5166.485000	507.664063	58.805969
10588.826596	5166.485000	506.412109	26.817032
10588.826596	5166.485000	505.160156	-59.930565
10588.826596	5166.485000	503.907227	110.983253
10588.826596	5166.485000	502.655273	12.789367
10588.826596	5166.485000	501.402344	5.767399
10588.826596	5166.485000	500.148438	-103.834785
10588.826596	5166.485000	498.895508	98.708908
10588.826596	5166.485000	497.641602	48.296097
10588.826596	5166.485000	496.387695	-65.888985
10588.826596	5166.485000	495.132813	6.636961
10588.826596	5166.485000	493.878906	88.215340
10588.826596	5166.485000	492.624023	-167.093369
10588.826596	5166.485000	491.368164	107.820862
10588.826596	5166.485000	490.113281	118.720383
10588.826596	5166.485000	488.857422	200.086380
10588.826596	5166.485000	487.601563	163.152847
10588.826596	5166.485000	486.344727	158.031723
10588.826596	5166.485000	485.088867	157.443329
10588.826596	5166.485000	483.832031	188.637192
10588.826596	5166.485000	482.575195	-27.839314
10588.826596	5166.485000	481.317383	105.542557
10588.826596	5166.485000	480.059570	43.547916
10588.826596	5166.485000	478.801758	-50.226151
10588.826596	5166.485000	477.543945	207.858398
10588.826596	5166.485000	476.285156	-85.669952
10588.826596	5166.485000	475.027344	99.663910
10588.826596	5166.485000	473.767578	107.942780
10588.826596	5166.485000	472.508789	129.814682
10588.826596	5166.485000	471.249023	-34.284061
10588.826596	5166.485000	469.989258	10.231695
10588.826596	5166.485000	468.729492	104.571892
10588.826596	5166.485000	467.469727	162.594864
10588.826596	5166.485000	466.208984	37.058037
10588.826596	5166.485000	464.948242	95.023926
10588.826596	5166.485000	463.686523	98.586723
10588.826596	5166.485000	462.425781	161.000473
10588.826596	5166.485000	461.164063	26.428299
10588.826596	5166.485000	459.901367	70.668510
10588.826596	5166.485000	458.639648	33.421272
10588.826596	5166.485000	457.376953	32.353313
10588.826596	5166.485000	456.114258	19.953426
10588.826596	5166.485000	454.851563	73.107498
10588.826596	5166.485000	453.587891	184.981247
10588.826596	5166.485000	452.324219	95.627693
10588.826596	5166.485000	451.060547	94.411919
10588.826596	5166.485000	449.796875	233.236038
10588.826596	5166.485000	448.532227	292.907867
10588.826596	5166.485000	447.267578	47.665649
10588.826596	5166.485000	446.002930	57.618172
10588.826596	5166.485000	444.737305	275.186157
10588.826596	5166.485000	443.471680	124.777466
10588.826596	5166.485000	442.206055	69.156799
10588.826596	5166.485000	440.940430	306.766479
10588.826596	5166.485000	439.673828	165.339142
10588.826596	5166.485000	438.407227	-5.383813
10588.826596	5166.485000	437.140625	220.673340
10588.826596	5166.485000	435.873047	171.610886
10588.826596	5166.485000	434.605469	104.490204
10588.826596	5166.485000	433.337891	-66.287224
10588.826596	5166.485000	432.070313	141.342972
10588.826596	5166.485000	430.801758	191.182449
10588.826596	5166.485000	429.533203	-42.735203
10588.826596	5166.485000	428.264648	263.588501
10588.826596	5166.485000	426.996094	151.135254
10588.826596	5166.485000	425.726563	88.143341
10588.826596	5166.485000	424.457031	119.573586
10588.826596	5166.485000	423.186523	200.372757
10588.826596	5166.485000	421.916992	92.188210
10588.826596	5166.485000	420.646484	199.750244
10588.826596	5166.485000	419.375977	266.712494
10588.826596	5166.485000	418.104492	212.196457
10588.826596	5166.485000	416.833008	202.524429
10588.826596	5166.485000	415.561523	248.892212
10588.826596	5166.485000	414.290039	279.400604
10588.826596	5166.485000	413.017578	222.204056
10588.826596	5166.485000	411.746094	146.954376
10588.826596	5166.485000	410.472656	69.333801
10588.826596	5166.485000	409.200195	171.097427
10588.826596	5166.485000	407.926758	142.555557
10588.826596	5166.485000	406.653320	273.089874
10588.826596	5166.485000	405.379883	60.359127
10588.826596	5166.485000	404.105469	-74.007294
10588.826596	5166.485000	402.831055	-76.271683
10588.826596	5166.485000	401.556641	-85.449020
10588.826596	5166.485000	400.282227	68.710091
10588.826596	5166.485000	399.006836	83.723022
10588.826596	5166.485000	397.731445	53.729183
10588.826596	5166.485000	396.456055	52.623554
10588.826596	5166.485000	395.179688	22.173038
10588.826596	5166.485000	393.903320	-104.733421
10588.826596	5166.485000	392.626953	52.286476
10588.826596	5166.485000	391.350586	137.393997
10588.826596	5166.485000	390.073242	-34.997646
10588.826596	5166.485000	388.795898	105.403206
10588.826596	5166.485000	387.518555	-47.383862
10588.826596	5166.485000	386.240234	244.293823
10588.826596	5166.485000	384.961914	142.277237
10588.826596	5166.485000	383.683594	187.395386
10588.826596	5166.485000	382.405273	-60.428341
10588.826596	5166.485000	381.125977	55.429737
10588.826596	5166.485000	379.846680	211.037567
10588.826596	5166.485000	378.567383	-247.589966
10588.826596	5166.485000	377.287109	-90.578346
10588.826596	5166.485000	376.006836	43.628178
10588.826596	5166.485000	374.726563	-5.563221
10588.826596	5166.485000	373.446289	49.612576
10588.826596	5166.485000	372.165039	3.945836
10588.826596	5166.485000	370.883789	107.144150
10588.826596	5166.485000	369.602539	154.071808
10588.826596	5166.485000	368.320313	75.662941
10588.826596	5166.485000	367.039063	-101.256653
10588.826596	5166.485000	365.755859	21.944115
10588.826596	5166.485000	364.473633	102.214691
10588.826596	5166.485000	363.190430	-83.080437
10588.826596	5166.485000	361.907227	69.360222
10588.826596	5166.485000	360.624023	-112.683731
10588.826596	5166.485000	359.340820	-106.231071
10588.826596	5166.485000	358.056641	59.635487
10588.826596	5166.485000	356.772461	-71.036835
10588.826596	5166.485000	355.487305	-9.006869
10588.826596	5166.485000	354.202148	-187.823288
10588.826596	5166.485000	352.916992	12.634686
10588.826596	5166.485000	351.631836	-5.544022
10588.826596	5166.485000	350.346680	22.081421
10588.826596	5166.485000	349.060547	-24.491369
10588.826596	5166.485000	347.774414	-49.744907
10588.826596	5166.485000	346.487305	66.116432
10588.826596	5166.485000	345.200195	94.411812
10588.826596	5166.485000	343.913086	92.856949
10588.826596	5166.485000	342.625977	10.418827
10588.826596	5166.485000	341.338867	60.031494
10588.826596	5166.485000	340.050781	-126.535408
10588.826596	5166.485000	338.762695	-8.214651
10588.826596	5166.485000	337.473633	115.515984
10588.826596	5166.485000	336.184570	171.523560
10588.826596	5166.485000	334.895508	13.601499
10588.826596	5166.485000	333.606445	-94.572792
10588.826596	5166.485000	332.317383	168.028854
10588.826596	5166.485000	331.027344	167.893463
10588.826596	5166.485000	329.736328	-30.657719
10588.826596	5166.485000	328.446289	85.956123
10588.826596	5166.485000	327.155273	-31.293842
10588.826596	5166.485000	325.864258	-6.211675
10588.826596	5166.485000	324.573242	-46.818478
10588.826596	5166.485000	323.281250	52.470051
10588.826596	5166.485000	321.989258	181.029037
10588.826596	5166.485000	320.697266	84.634315
10588.826596	5166.485000	319.405273	-48.796673
10588.826596	5166.485000	318.112305	-106.672050
10588.826596	5166.485000	316.819336	-40.450760
10588.826596	5166.485000	315.526367	15.036446
10588.826596	5166.485000	314.232422	33.201229
10588.826596	5166.485000	312.938477	-197.826645
10588.826596	5166.485000	311.644531	-97.567673
10588.826596	5166.485000	310.349609	53.456123
10588.826596	5166.485000	309.054688	-0.656707
10588.826596	5166.485000	307.759766	73.167564
10588.826596	5166.485000	306.464844	-27.268959
10588.826596	5166.485000	305.168945	15.445711
10588.826596	5166.485000	303.873047	187.994781
10588.826596	5166.485000	302.577148	342.607361
10588.826596	5166.485000	301.281250	463.813110
10588.826596	5166.485000	299.984375	240.960938
