#X		#Y		#Wave		#Intensity
9541.547872	4845.450000	1999.946289	195.517899
9541.547872	4845.450000	1998.981445	198.390747
9541.547872	4845.450000	1998.017578	212.630890
9541.547872	4845.450000	1997.052734	-53.143654
9541.547872	4845.450000	1996.088867	-31.390608
9541.547872	4845.450000	1995.124023	-7.150113
9541.547872	4845.450000	1994.159180	-25.003542
9541.547872	4845.450000	1993.193359	-114.644218
9541.547872	4845.450000	1992.228516	50.779041
9541.547872	4845.450000	1991.262695	-1.672217
9541.547872	4845.450000	1990.296875	-16.960827
9541.547872	4845.450000	1989.331055	4.893214
9541.547872	4845.450000	1988.365234	-5.402068
9541.547872	4845.450000	1987.398438	65.950317
9541.547872	4845.450000	1986.432617	110.095200
9541.547872	4845.450000	1985.465820	35.556740
9541.547872	4845.450000	1984.499023	40.174652
9541.547872	4845.450000	1983.532227	-143.036926
9541.547872	4845.450000	1982.565430	-37.026733
9541.547872	4845.450000	1981.597656	76.374847
9541.547872	4845.450000	1980.629883	-32.573135
9541.547872	4845.450000	1979.662109	66.006714
9541.547872	4845.450000	1978.694336	1.589919
9541.547872	4845.450000	1977.726563	-126.974945
9541.547872	4845.450000	1976.758789	-60.462845
9541.547872	4845.450000	1975.790039	-1.361289
9541.547872	4845.450000	1974.821289	-28.625759
9541.547872	4845.450000	1973.852539	126.704597
9541.547872	4845.450000	1972.883789	173.464645
9541.547872	4845.450000	1971.915039	62.391117
9541.547872	4845.450000	1970.945313	-23.965843
9541.547872	4845.450000	1969.975586	106.672539
9541.547872	4845.450000	1969.005859	-88.073257
9541.547872	4845.450000	1968.036133	52.424095
9541.547872	4845.450000	1967.066406	15.488196
9541.547872	4845.450000	1966.096680	146.098404
9541.547872	4845.450000	1965.125977	143.677048
9541.547872	4845.450000	1964.155273	64.936806
9541.547872	4845.450000	1963.184570	37.947853
9541.547872	4845.450000	1962.213867	20.834051
9541.547872	4845.450000	1961.242188	126.800499
9541.547872	4845.450000	1960.271484	-64.996078
9541.547872	4845.450000	1959.299805	-84.488579
9541.547872	4845.450000	1958.328125	-17.863869
9541.547872	4845.450000	1957.356445	46.294369
9541.547872	4845.450000	1956.384766	48.974728
9541.547872	4845.450000	1955.412109	-127.792908
9541.547872	4845.450000	1954.439453	10.138966
9541.547872	4845.450000	1953.467773	155.410461
9541.547872	4845.450000	1952.495117	47.569378
9541.547872	4845.450000	1951.521484	121.570145
9541.547872	4845.450000	1950.548828	-30.402105
9541.547872	4845.450000	1949.575195	53.441238
9541.547872	4845.450000	1948.601563	53.791985
9541.547872	4845.450000	1947.627930	2.608905
9541.547872	4845.450000	1946.654297	115.898125
9541.547872	4845.450000	1945.680664	59.845943
9541.547872	4845.450000	1944.706055	57.802696
9541.547872	4845.450000	1943.732422	-3.093603
9541.547872	4845.450000	1942.757813	48.859421
9541.547872	4845.450000	1941.783203	64.027763
9541.547872	4845.450000	1940.807617	-45.825104
9541.547872	4845.450000	1939.833008	42.916233
9541.547872	4845.450000	1938.857422	4.204261
9541.547872	4845.450000	1937.881836	-29.579475
9541.547872	4845.450000	1936.906250	-16.792648
9541.547872	4845.450000	1935.930664	54.785191
9541.547872	4845.450000	1934.955078	126.349098
9541.547872	4845.450000	1933.978516	-10.211880
9541.547872	4845.450000	1933.001953	-19.419121
9541.547872	4845.450000	1932.025391	-97.139587
9541.547872	4845.450000	1931.048828	-42.681641
9541.547872	4845.450000	1930.072266	-68.967926
9541.547872	4845.450000	1929.094727	-14.513637
9541.547872	4845.450000	1928.118164	76.616600
9541.547872	4845.450000	1927.140625	47.909729
9541.547872	4845.450000	1926.163086	-5.223092
9541.547872	4845.450000	1925.184570	-21.662762
9541.547872	4845.450000	1924.207031	86.547974
9541.547872	4845.450000	1923.228516	-132.680511
9541.547872	4845.450000	1922.250000	-4.927839
9541.547872	4845.450000	1921.271484	54.398472
9541.547872	4845.450000	1920.292969	20.915817
9541.547872	4845.450000	1919.314453	-0.337516
9541.547872	4845.450000	1918.334961	34.568672
9541.547872	4845.450000	1917.355469	27.979507
9541.547872	4845.450000	1916.375977	62.883465
9541.547872	4845.450000	1915.396484	14.832016
9541.547872	4845.450000	1914.416992	115.599281
9541.547872	4845.450000	1913.436523	9.038349
9541.547872	4845.450000	1912.457031	-124.297569
9541.547872	4845.450000	1911.476563	-91.802101
9541.547872	4845.450000	1910.496094	47.933777
9541.547872	4845.450000	1909.515625	85.270607
9541.547872	4845.450000	1908.534180	-8.973645
9541.547872	4845.450000	1907.552734	79.527008
9541.547872	4845.450000	1906.572266	24.299709
9541.547872	4845.450000	1905.590820	-26.032984
9541.547872	4845.450000	1904.608398	21.044270
9541.547872	4845.450000	1903.626953	9.687113
9541.547872	4845.450000	1902.644531	95.688538
9541.547872	4845.450000	1901.663086	-49.504330
9541.547872	4845.450000	1900.680664	65.676422
9541.547872	4845.450000	1899.698242	-42.964737
9541.547872	4845.450000	1898.714844	40.561085
9541.547872	4845.450000	1897.732422	-33.989433
9541.547872	4845.450000	1896.749023	-28.285669
9541.547872	4845.450000	1895.765625	-44.458221
9541.547872	4845.450000	1894.782227	29.291933
9541.547872	4845.450000	1893.798828	-45.195663
9541.547872	4845.450000	1892.814453	9.094758
9541.547872	4845.450000	1891.831055	5.074632
9541.547872	4845.450000	1890.846680	-117.932228
9541.547872	4845.450000	1889.862305	-10.245393
9541.547872	4845.450000	1888.877930	-48.244553
9541.547872	4845.450000	1887.892578	39.971313
9541.547872	4845.450000	1886.908203	-68.393387
9541.547872	4845.450000	1885.922852	53.755676
9541.547872	4845.450000	1884.937500	-13.339552
9541.547872	4845.450000	1883.952148	43.271324
9541.547872	4845.450000	1882.965820	-4.404226
9541.547872	4845.450000	1881.980469	175.815262
9541.547872	4845.450000	1880.994141	60.261421
9541.547872	4845.450000	1880.007813	-127.951721
9541.547872	4845.450000	1879.021484	18.259531
9541.547872	4845.450000	1878.035156	14.221561
9541.547872	4845.450000	1877.047852	114.325615
9541.547872	4845.450000	1876.061523	-66.507057
9541.547872	4845.450000	1875.074219	81.986778
9541.547872	4845.450000	1874.086914	-64.893265
9541.547872	4845.450000	1873.098633	-68.935638
9541.547872	4845.450000	1872.111328	9.289236
9541.547872	4845.450000	1871.123047	99.574364
9541.547872	4845.450000	1870.135742	68.881096
9541.547872	4845.450000	1869.147461	21.263639
9541.547872	4845.450000	1868.158203	-28.760225
9541.547872	4845.450000	1867.169922	54.186913
9541.547872	4845.450000	1866.180664	-3.089306
9541.547872	4845.450000	1865.192383	74.974594
9541.547872	4845.450000	1864.203125	75.687157
9541.547872	4845.450000	1863.213867	-39.558193
9541.547872	4845.450000	1862.223633	-12.274562
9541.547872	4845.450000	1861.234375	-52.620583
9541.547872	4845.450000	1860.244141	-51.918133
9541.547872	4845.450000	1859.253906	-19.845522
9541.547872	4845.450000	1858.263672	84.606766
9541.547872	4845.450000	1857.273438	-54.692379
9541.547872	4845.450000	1856.282227	-39.552982
9541.547872	4845.450000	1855.291992	45.519268
9541.547872	4845.450000	1854.300781	99.198990
9541.547872	4845.450000	1853.309570	-42.449883
9541.547872	4845.450000	1852.317383	-15.312595
9541.547872	4845.450000	1851.326172	132.313248
9541.547872	4845.450000	1850.333984	-47.850914
9541.547872	4845.450000	1849.342773	-44.853134
9541.547872	4845.450000	1848.350586	-29.824558
9541.547872	4845.450000	1847.357422	2.044123
9541.547872	4845.450000	1846.365234	2.587272
9541.547872	4845.450000	1845.372070	-28.180330
9541.547872	4845.450000	1844.379883	25.297409
9541.547872	4845.450000	1843.386719	-89.717216
9541.547872	4845.450000	1842.393555	64.781776
9541.547872	4845.450000	1841.399414	-18.950340
9541.547872	4845.450000	1840.406250	-59.370560
9541.547872	4845.450000	1839.412109	-46.885124
9541.547872	4845.450000	1838.417969	93.009552
9541.547872	4845.450000	1837.423828	54.952930
9541.547872	4845.450000	1836.429688	115.435524
9541.547872	4845.450000	1835.434570	-57.204445
9541.547872	4845.450000	1834.440430	-64.021935
9541.547872	4845.450000	1833.445313	-42.028316
9541.547872	4845.450000	1832.450195	114.430489
9541.547872	4845.450000	1831.454102	76.322533
9541.547872	4845.450000	1830.458984	2.204799
9541.547872	4845.450000	1829.462891	91.313377
9541.547872	4845.450000	1828.466797	93.981117
9541.547872	4845.450000	1827.470703	-112.109047
9541.547872	4845.450000	1826.474609	63.281971
9541.547872	4845.450000	1825.478516	-125.968063
9541.547872	4845.450000	1824.481445	87.693298
9541.547872	4845.450000	1823.484375	-48.779427
9541.547872	4845.450000	1822.487305	-110.908371
9541.547872	4845.450000	1821.490234	85.802406
9541.547872	4845.450000	1820.493164	54.787327
9541.547872	4845.450000	1819.495117	93.240364
9541.547872	4845.450000	1818.498047	102.920074
9541.547872	4845.450000	1817.500000	57.496784
9541.547872	4845.450000	1816.500977	74.324303
9541.547872	4845.450000	1815.502930	7.342929
9541.547872	4845.450000	1814.504883	-121.860794
9541.547872	4845.450000	1813.505859	103.126755
9541.547872	4845.450000	1812.506836	55.261784
9541.547872	4845.450000	1811.507813	-26.092562
9541.547872	4845.450000	1810.508789	-57.210812
9541.547872	4845.450000	1809.508789	24.048624
9541.547872	4845.450000	1808.508789	-74.046936
9541.547872	4845.450000	1807.508789	81.245071
9541.547872	4845.450000	1806.508789	143.256073
9541.547872	4845.450000	1805.508789	164.605118
9541.547872	4845.450000	1804.508789	135.759369
9541.547872	4845.450000	1803.507813	16.141588
9541.547872	4845.450000	1802.506836	11.174006
9541.547872	4845.450000	1801.505859	132.730057
9541.547872	4845.450000	1800.504883	34.605076
9541.547872	4845.450000	1799.502930	31.962463
9541.547872	4845.450000	1798.501953	34.075211
9541.547872	4845.450000	1797.500000	7.535851
9541.547872	4845.450000	1796.498047	85.940079
9541.547872	4845.450000	1795.496094	164.294174
9541.547872	4845.450000	1794.493164	49.459698
9541.547872	4845.450000	1793.491211	27.623924
9541.547872	4845.450000	1792.488281	-10.910346
9541.547872	4845.450000	1791.485352	31.573299
9541.547872	4845.450000	1790.482422	-52.258209
9541.547872	4845.450000	1789.478516	-36.029694
9541.547872	4845.450000	1788.475586	32.570816
9541.547872	4845.450000	1787.471680	20.159914
9541.547872	4845.450000	1786.467773	69.633812
9541.547872	4845.450000	1785.463867	123.827927
9541.547872	4845.450000	1784.459961	20.908220
9541.547872	4845.450000	1783.455078	-41.545635
9541.547872	4845.450000	1782.450195	100.596550
9541.547872	4845.450000	1781.445313	-30.868389
9541.547872	4845.450000	1780.440430	-71.938026
9541.547872	4845.450000	1779.435547	139.016510
9541.547872	4845.450000	1778.429688	169.201767
9541.547872	4845.450000	1777.424805	156.574219
9541.547872	4845.450000	1776.418945	72.640205
9541.547872	4845.450000	1775.413086	71.870415
9541.547872	4845.450000	1774.406250	4.566514
9541.547872	4845.450000	1773.400391	-31.856823
9541.547872	4845.450000	1772.393555	-23.175148
9541.547872	4845.450000	1771.386719	132.671677
9541.547872	4845.450000	1770.379883	34.464882
9541.547872	4845.450000	1769.373047	21.705969
9541.547872	4845.450000	1768.365234	32.655491
9541.547872	4845.450000	1767.358398	-63.169094
9541.547872	4845.450000	1766.350586	130.375885
9541.547872	4845.450000	1765.342773	93.806755
9541.547872	4845.450000	1764.334961	9.812981
9541.547872	4845.450000	1763.326172	68.052513
9541.547872	4845.450000	1762.318359	-75.196724
9541.547872	4845.450000	1761.309570	129.903580
9541.547872	4845.450000	1760.300781	143.010498
9541.547872	4845.450000	1759.291016	2.128077
9541.547872	4845.450000	1758.282227	-72.411377
9541.547872	4845.450000	1757.272461	42.471027
9541.547872	4845.450000	1756.262695	-60.499695
9541.547872	4845.450000	1755.252930	-21.444094
9541.547872	4845.450000	1754.243164	180.855164
9541.547872	4845.450000	1753.233398	184.318573
9541.547872	4845.450000	1752.222656	81.311378
9541.547872	4845.450000	1751.211914	89.478172
9541.547872	4845.450000	1750.201172	142.547043
9541.547872	4845.450000	1749.190430	93.917480
9541.547872	4845.450000	1748.179688	132.741394
9541.547872	4845.450000	1747.167969	-38.799091
9541.547872	4845.450000	1746.156250	-51.989979
9541.547872	4845.450000	1745.144531	29.295771
9541.547872	4845.450000	1744.132813	44.398087
9541.547872	4845.450000	1743.121094	-25.537441
9541.547872	4845.450000	1742.108398	-34.084156
9541.547872	4845.450000	1741.095703	-7.240832
9541.547872	4845.450000	1740.083008	-13.468796
9541.547872	4845.450000	1739.070313	-85.784065
9541.547872	4845.450000	1738.057617	106.133781
9541.547872	4845.450000	1737.043945	78.595581
9541.547872	4845.450000	1736.030273	15.673972
9541.547872	4845.450000	1735.016602	-9.518637
9541.547872	4845.450000	1734.002930	2.995896
9541.547872	4845.450000	1732.989258	86.193268
9541.547872	4845.450000	1731.974609	-92.230484
9541.547872	4845.450000	1730.959961	28.607426
9541.547872	4845.450000	1729.945313	50.445885
9541.547872	4845.450000	1728.930664	248.889999
9541.547872	4845.450000	1727.916016	42.237762
9541.547872	4845.450000	1726.900391	177.002502
9541.547872	4845.450000	1725.885742	285.808319
9541.547872	4845.450000	1724.870117	98.034264
9541.547872	4845.450000	1723.853516	279.708282
9541.547872	4845.450000	1722.837891	164.894028
9541.547872	4845.450000	1721.822266	92.440742
9541.547872	4845.450000	1720.805664	196.356323
9541.547872	4845.450000	1719.789063	46.299637
9541.547872	4845.450000	1718.772461	-21.445946
9541.547872	4845.450000	1717.754883	-13.981960
9541.547872	4845.450000	1716.738281	-44.130779
9541.547872	4845.450000	1715.720703	-156.513107
9541.547872	4845.450000	1714.703125	-99.755608
9541.547872	4845.450000	1713.685547	97.864044
9541.547872	4845.450000	1712.667969	-117.840996
9541.547872	4845.450000	1711.649414	-25.966478
9541.547872	4845.450000	1710.630859	124.530922
9541.547872	4845.450000	1709.612305	63.763687
9541.547872	4845.450000	1708.593750	68.694382
9541.547872	4845.450000	1707.575195	73.606407
9541.547872	4845.450000	1706.555664	-57.524780
9541.547872	4845.450000	1705.536133	-94.831535
9541.547872	4845.450000	1704.516602	22.584265
9541.547872	4845.450000	1703.497070	-101.477875
9541.547872	4845.450000	1702.477539	-70.842964
9541.547872	4845.450000	1701.457031	-84.754807
9541.547872	4845.450000	1700.437500	-145.523575
9541.547872	4845.450000	1699.416992	60.707165
9541.547872	4845.450000	1698.395508	102.928284
9541.547872	4845.450000	1697.375000	35.087517
9541.547872	4845.450000	1696.354492	-35.082882
9541.547872	4845.450000	1695.333008	-194.173477
9541.547872	4845.450000	1694.311523	-142.634323
9541.547872	4845.450000	1693.290039	-107.504311
9541.547872	4845.450000	1692.267578	-23.288063
9541.547872	4845.450000	1691.246094	-53.698338
9541.547872	4845.450000	1690.223633	-39.691906
9541.547872	4845.450000	1689.201172	-39.729034
9541.547872	4845.450000	1688.178711	-46.790466
9541.547872	4845.450000	1687.155273	91.007782
9541.547872	4845.450000	1686.132813	-30.575729
9541.547872	4845.450000	1685.109375	-156.799637
9541.547872	4845.450000	1684.085938	-107.838486
9541.547872	4845.450000	1683.062500	74.179520
9541.547872	4845.450000	1682.039063	53.021202
9541.547872	4845.450000	1681.014648	-73.172173
9541.547872	4845.450000	1679.990234	-17.313889
9541.547872	4845.450000	1678.965820	40.845306
9541.547872	4845.450000	1677.941406	31.325174
9541.547872	4845.450000	1676.916992	-13.184110
9541.547872	4845.450000	1675.891602	-20.383121
9541.547872	4845.450000	1674.866211	154.249969
9541.547872	4845.450000	1673.840820	121.362854
9541.547872	4845.450000	1672.815430	128.095428
9541.547872	4845.450000	1671.790039	50.938164
9541.547872	4845.450000	1670.763672	34.364769
9541.547872	4845.450000	1669.737305	55.052879
9541.547872	4845.450000	1668.710938	5.867487
9541.547872	4845.450000	1667.684570	73.098877
9541.547872	4845.450000	1666.658203	-27.296656
9541.547872	4845.450000	1665.630859	-71.811729
9541.547872	4845.450000	1664.603516	0.021372
9541.547872	4845.450000	1663.576172	41.577404
9541.547872	4845.450000	1662.548828	20.311213
9541.547872	4845.450000	1661.520508	-14.909979
9541.547872	4845.450000	1660.493164	84.728462
9541.547872	4845.450000	1659.464844	-117.870796
9541.547872	4845.450000	1658.436523	0.325415
9541.547872	4845.450000	1657.408203	-55.802761
9541.547872	4845.450000	1656.378906	32.118725
9541.547872	4845.450000	1655.350586	78.195076
9541.547872	4845.450000	1654.321289	35.998356
9541.547872	4845.450000	1653.291992	42.571041
9541.547872	4845.450000	1652.261719	7.348212
9541.547872	4845.450000	1651.232422	67.296432
9541.547872	4845.450000	1650.202148	-5.053773
9541.547872	4845.450000	1649.171875	124.463150
9541.547872	4845.450000	1648.141602	137.946579
9541.547872	4845.450000	1647.111328	70.251770
9541.547872	4845.450000	1646.080078	51.268364
9541.547872	4845.450000	1645.049805	180.661209
9541.547872	4845.450000	1644.018555	73.582390
9541.547872	4845.450000	1642.987305	56.919151
9541.547872	4845.450000	1641.955078	93.545044
9541.547872	4845.450000	1640.923828	199.652237
9541.547872	4845.450000	1639.891602	189.912872
9541.547872	4845.450000	1638.859375	159.336243
9541.547872	4845.450000	1637.827148	82.468529
9541.547872	4845.450000	1636.794922	93.586357
9541.547872	4845.450000	1635.761719	162.550583
9541.547872	4845.450000	1634.729492	162.079254
9541.547872	4845.450000	1633.696289	277.269348
9541.547872	4845.450000	1632.662109	114.869125
9541.547872	4845.450000	1631.628906	77.405754
9541.547872	4845.450000	1630.594727	35.330677
9541.547872	4845.450000	1629.561523	108.851669
9541.547872	4845.450000	1628.527344	159.231216
9541.547872	4845.450000	1627.493164	168.002060
9541.547872	4845.450000	1626.458008	202.179382
9541.547872	4845.450000	1625.423828	63.120831
9541.547872	4845.450000	1624.388672	235.866272
9541.547872	4845.450000	1623.353516	66.842003
9541.547872	4845.450000	1622.318359	262.608826
9541.547872	4845.450000	1621.282227	123.650665
9541.547872	4845.450000	1620.247070	123.202133
9541.547872	4845.450000	1619.210938	240.412003
9541.547872	4845.450000	1618.174805	320.675293
9541.547872	4845.450000	1617.137695	227.948624
9541.547872	4845.450000	1616.101563	202.131058
9541.547872	4845.450000	1615.064453	328.469604
9541.547872	4845.450000	1614.027344	291.125336
9541.547872	4845.450000	1612.990234	313.713287
9541.547872	4845.450000	1611.953125	147.380203
9541.547872	4845.450000	1610.916016	142.357803
9541.547872	4845.450000	1609.877930	153.461136
9541.547872	4845.450000	1608.839844	353.374725
9541.547872	4845.450000	1607.801758	293.081268
9541.547872	4845.450000	1606.763672	340.995544
9541.547872	4845.450000	1605.724609	241.618729
9541.547872	4845.450000	1604.685547	383.865753
9541.547872	4845.450000	1603.646484	309.838409
9541.547872	4845.450000	1602.607422	447.433502
9541.547872	4845.450000	1601.568359	421.725952
9541.547872	4845.450000	1600.528320	382.240417
9541.547872	4845.450000	1599.489258	568.035400
9541.547872	4845.450000	1598.449219	535.448853
9541.547872	4845.450000	1597.408203	684.391357
9541.547872	4845.450000	1596.368164	729.917358
9541.547872	4845.450000	1595.327148	736.388367
9541.547872	4845.450000	1594.287109	685.463928
9541.547872	4845.450000	1593.246094	845.781006
9541.547872	4845.450000	1592.204102	916.523438
9541.547872	4845.450000	1591.163086	1017.086975
9541.547872	4845.450000	1590.121094	901.939758
9541.547872	4845.450000	1589.079102	864.846069
9541.547872	4845.450000	1588.037109	834.658752
9541.547872	4845.450000	1586.995117	921.444458
9541.547872	4845.450000	1585.953125	643.675171
9541.547872	4845.450000	1584.910156	854.265259
9541.547872	4845.450000	1583.867188	725.605103
9541.547872	4845.450000	1582.824219	693.243652
9541.547872	4845.450000	1581.781250	736.506409
9541.547872	4845.450000	1580.737305	628.595520
9541.547872	4845.450000	1579.693359	646.689209
9541.547872	4845.450000	1578.649414	625.868347
9541.547872	4845.450000	1577.605469	579.889954
9541.547872	4845.450000	1576.561523	721.611755
9541.547872	4845.450000	1575.516602	584.132385
9541.547872	4845.450000	1574.472656	666.347046
9541.547872	4845.450000	1573.427734	663.912354
9541.547872	4845.450000	1572.381836	538.002319
9541.547872	4845.450000	1571.336914	592.785583
9541.547872	4845.450000	1570.291016	558.408508
9541.547872	4845.450000	1569.246094	551.490784
9541.547872	4845.450000	1568.200195	718.252136
9541.547872	4845.450000	1567.153320	498.866089
9541.547872	4845.450000	1566.107422	583.377075
9541.547872	4845.450000	1565.060547	738.664551
9541.547872	4845.450000	1564.013672	711.248901
9541.547872	4845.450000	1562.966797	597.115112
9541.547872	4845.450000	1561.919922	633.679932
9541.547872	4845.450000	1560.872070	640.580872
9541.547872	4845.450000	1559.825195	624.686279
9541.547872	4845.450000	1558.777344	672.681946
9541.547872	4845.450000	1557.729492	535.952881
9541.547872	4845.450000	1556.680664	643.265442
9541.547872	4845.450000	1555.632813	650.253479
9541.547872	4845.450000	1554.583984	584.320740
9541.547872	4845.450000	1553.535156	548.057739
9541.547872	4845.450000	1552.486328	491.324921
9541.547872	4845.450000	1551.436523	662.418701
9541.547872	4845.450000	1550.387695	530.571228
9541.547872	4845.450000	1549.337891	565.013672
9541.547872	4845.450000	1548.288086	544.826538
9541.547872	4845.450000	1547.238281	602.055481
9541.547872	4845.450000	1546.187500	525.018860
9541.547872	4845.450000	1545.136719	361.577423
9541.547872	4845.450000	1544.086914	425.697876
9541.547872	4845.450000	1543.035156	603.524475
9541.547872	4845.450000	1541.984375	422.040253
9541.547872	4845.450000	1540.933594	395.240417
9541.547872	4845.450000	1539.881836	361.652374
9541.547872	4845.450000	1538.830078	423.545532
9541.547872	4845.450000	1537.778320	187.799881
9541.547872	4845.450000	1536.725586	254.290176
9541.547872	4845.450000	1535.673828	323.051727
9541.547872	4845.450000	1534.621094	162.466614
9541.547872	4845.450000	1533.568359	138.184387
9541.547872	4845.450000	1532.515625	116.205231
9541.547872	4845.450000	1531.461914	69.294601
9541.547872	4845.450000	1530.409180	-70.596436
9541.547872	4845.450000	1529.355469	93.564346
9541.547872	4845.450000	1528.301758	155.624619
9541.547872	4845.450000	1527.247070	-6.805354
9541.547872	4845.450000	1526.193359	14.492395
9541.547872	4845.450000	1525.138672	-79.794456
9541.547872	4845.450000	1524.083984	82.063988
9541.547872	4845.450000	1523.029297	166.848145
9541.547872	4845.450000	1521.974609	22.827713
9541.547872	4845.450000	1520.918945	114.434868
9541.547872	4845.450000	1519.863281	-20.410183
9541.547872	4845.450000	1518.807617	109.710197
9541.547872	4845.450000	1517.751953	187.744385
9541.547872	4845.450000	1516.696289	161.672989
9541.547872	4845.450000	1515.639648	58.707130
9541.547872	4845.450000	1514.583008	136.784454
9541.547872	4845.450000	1513.526367	-52.027042
9541.547872	4845.450000	1512.469727	136.899246
9541.547872	4845.450000	1511.412109	13.779898
9541.547872	4845.450000	1510.355469	-39.188442
9541.547872	4845.450000	1509.297852	-177.987274
9541.547872	4845.450000	1508.240234	-22.968666
9541.547872	4845.450000	1507.181641	-245.246506
9541.547872	4845.450000	1506.124023	-76.667343
9541.547872	4845.450000	1505.065430	-39.101147
9541.547872	4845.450000	1504.006836	21.055470
9541.547872	4845.450000	1502.948242	76.702515
9541.547872	4845.450000	1501.888672	-16.594576
9541.547872	4845.450000	1500.830078	-109.824242
9541.547872	4845.450000	1499.770508	9.067170
9541.547872	4845.450000	1498.710938	53.510025
9541.547872	4845.450000	1497.650391	-71.163048
9541.547872	4845.450000	1496.590820	7.155476
9541.547872	4845.450000	1495.530273	-101.621178
9541.547872	4845.450000	1494.469727	51.102295
9541.547872	4845.450000	1493.409180	68.600876
9541.547872	4845.450000	1492.348633	158.211075
9541.547872	4845.450000	1491.287109	54.114307
9541.547872	4845.450000	1490.225586	213.559555
9541.547872	4845.450000	1489.164063	147.827667
9541.547872	4845.450000	1488.102539	131.674072
9541.547872	4845.450000	1487.041016	189.825912
9541.547872	4845.450000	1485.978516	160.229843
9541.547872	4845.450000	1484.916016	315.120087
9541.547872	4845.450000	1483.853516	119.158272
9541.547872	4845.450000	1482.791016	278.578857
9541.547872	4845.450000	1481.727539	316.555237
9541.547872	4845.450000	1480.664063	282.609009
9541.547872	4845.450000	1479.600586	462.192871
9541.547872	4845.450000	1478.537109	453.003174
9541.547872	4845.450000	1477.473633	302.336365
9541.547872	4845.450000	1476.409180	369.629578
9541.547872	4845.450000	1475.344727	248.278839
9541.547872	4845.450000	1474.280273	403.151367
9541.547872	4845.450000	1473.215820	250.470322
9541.547872	4845.450000	1472.151367	358.201599
9541.547872	4845.450000	1471.085938	416.514374
9541.547872	4845.450000	1470.020508	405.325531
9541.547872	4845.450000	1468.955078	255.218109
9541.547872	4845.450000	1467.888672	327.047424
9541.547872	4845.450000	1466.823242	219.790878
9541.547872	4845.450000	1465.756836	300.538574
9541.547872	4845.450000	1464.690430	318.583649
9541.547872	4845.450000	1463.624023	401.456360
9541.547872	4845.450000	1462.556641	307.903351
9541.547872	4845.450000	1461.490234	295.117981
9541.547872	4845.450000	1460.422852	507.691132
9541.547872	4845.450000	1459.355469	452.047607
9541.547872	4845.450000	1458.287109	438.934570
9541.547872	4845.450000	1457.219727	370.306946
9541.547872	4845.450000	1456.151367	444.459900
9541.547872	4845.450000	1455.083008	460.836639
9541.547872	4845.450000	1454.014648	458.770691
9541.547872	4845.450000	1452.945313	255.895584
9541.547872	4845.450000	1451.876953	379.200073
9541.547872	4845.450000	1450.807617	348.450806
9541.547872	4845.450000	1449.738281	420.154846
9541.547872	4845.450000	1448.668945	292.152496
9541.547872	4845.450000	1447.598633	229.645294
9541.547872	4845.450000	1446.528320	248.712494
9541.547872	4845.450000	1445.458008	226.793488
9541.547872	4845.450000	1444.387695	138.040100
9541.547872	4845.450000	1443.317383	163.397141
9541.547872	4845.450000	1442.246094	160.786011
9541.547872	4845.450000	1441.174805	166.136368
9541.547872	4845.450000	1440.103516	61.416908
9541.547872	4845.450000	1439.032227	340.175934
9541.547872	4845.450000	1437.960938	266.567657
9541.547872	4845.450000	1436.888672	119.116249
9541.547872	4845.450000	1435.816406	256.585114
9541.547872	4845.450000	1434.744141	157.342361
9541.547872	4845.450000	1433.670898	261.578217
9541.547872	4845.450000	1432.598633	249.226089
9541.547872	4845.450000	1431.525391	327.960388
9541.547872	4845.450000	1430.452148	172.153824
9541.547872	4845.450000	1429.378906	342.890747
9541.547872	4845.450000	1428.304688	327.381073
9541.547872	4845.450000	1427.231445	369.110138
9541.547872	4845.450000	1426.157227	265.720886
9541.547872	4845.450000	1425.083008	346.901306
9541.547872	4845.450000	1424.007813	454.210968
9541.547872	4845.450000	1422.933594	452.890320
9541.547872	4845.450000	1421.858398	286.801361
9541.547872	4845.450000	1420.783203	242.879898
9541.547872	4845.450000	1419.708008	469.403198
9541.547872	4845.450000	1418.631836	352.222504
9541.547872	4845.450000	1417.555664	390.771149
9541.547872	4845.450000	1416.479492	424.444489
9541.547872	4845.450000	1415.403320	451.652100
9541.547872	4845.450000	1414.327148	386.695190
9541.547872	4845.450000	1413.250000	328.634094
9541.547872	4845.450000	1412.173828	207.867828
9541.547872	4845.450000	1411.096680	311.178833
9541.547872	4845.450000	1410.018555	86.593491
9541.547872	4845.450000	1408.941406	109.522346
9541.547872	4845.450000	1407.863281	18.468235
9541.547872	4845.450000	1406.785156	46.788956
9541.547872	4845.450000	1405.707031	-22.926254
9541.547872	4845.450000	1404.628906	32.959690
9541.547872	4845.450000	1403.549805	29.551790
9541.547872	4845.450000	1402.470703	182.631073
9541.547872	4845.450000	1401.391602	-62.747398
9541.547872	4845.450000	1400.312500	32.130096
9541.547872	4845.450000	1399.233398	20.788818
9541.547872	4845.450000	1398.153320	-116.545502
9541.547872	4845.450000	1397.073242	-97.708672
9541.547872	4845.450000	1395.993164	-54.553871
9541.547872	4845.450000	1394.913086	82.519836
9541.547872	4845.450000	1393.832031	-73.022949
9541.547872	4845.450000	1392.750977	-87.586998
9541.547872	4845.450000	1391.669922	36.374397
9541.547872	4845.450000	1390.588867	75.104263
9541.547872	4845.450000	1389.506836	5.756745
9541.547872	4845.450000	1388.425781	52.250160
9541.547872	4845.450000	1387.343750	185.868088
9541.547872	4845.450000	1386.261719	209.595688
9541.547872	4845.450000	1385.178711	244.960281
9541.547872	4845.450000	1384.096680	151.753983
9541.547872	4845.450000	1383.013672	315.921692
9541.547872	4845.450000	1381.930664	375.668671
9541.547872	4845.450000	1380.846680	319.029694
9541.547872	4845.450000	1379.763672	414.595459
9541.547872	4845.450000	1378.679688	330.944336
9541.547872	4845.450000	1377.595703	265.209808
9541.547872	4845.450000	1376.511719	324.311554
9541.547872	4845.450000	1375.427734	320.670288
9541.547872	4845.450000	1374.342773	218.142685
9541.547872	4845.450000	1373.257813	386.850281
9541.547872	4845.450000	1372.172852	213.987732
9541.547872	4845.450000	1371.087891	288.953766
9541.547872	4845.450000	1370.001953	371.981567
9541.547872	4845.450000	1368.916992	453.339142
9541.547872	4845.450000	1367.831055	473.294220
9541.547872	4845.450000	1366.744141	444.506439
9541.547872	4845.450000	1365.658203	413.036560
9541.547872	4845.450000	1364.571289	358.763367
9541.547872	4845.450000	1363.484375	322.567505
9541.547872	4845.450000	1362.397461	239.546432
9541.547872	4845.450000	1361.310547	271.447998
9541.547872	4845.450000	1360.222656	172.160797
9541.547872	4845.450000	1359.135742	93.853310
9541.547872	4845.450000	1358.047852	111.557396
9541.547872	4845.450000	1356.958984	239.931595
9541.547872	4845.450000	1355.871094	102.962112
9541.547872	4845.450000	1354.782227	130.098877
9541.547872	4845.450000	1353.693359	75.147148
9541.547872	4845.450000	1352.604492	192.551514
9541.547872	4845.450000	1351.515625	174.514893
9541.547872	4845.450000	1350.425781	205.051071
9541.547872	4845.450000	1349.335938	122.748413
9541.547872	4845.450000	1348.246094	154.400635
9541.547872	4845.450000	1347.156250	273.727722
9541.547872	4845.450000	1346.066406	148.391098
9541.547872	4845.450000	1344.975586	190.165863
9541.547872	4845.450000	1343.884766	130.103622
9541.547872	4845.450000	1342.793945	150.433670
9541.547872	4845.450000	1341.702148	82.042480
9541.547872	4845.450000	1340.611328	17.009434
9541.547872	4845.450000	1339.519531	-6.548978
9541.547872	4845.450000	1338.427734	120.580879
9541.547872	4845.450000	1337.334961	113.892494
9541.547872	4845.450000	1336.243164	129.517349
9541.547872	4845.450000	1335.150391	25.031536
9541.547872	4845.450000	1334.057617	-5.187322
9541.547872	4845.450000	1332.964844	60.312199
9541.547872	4845.450000	1331.871094	-98.810806
9541.547872	4845.450000	1330.778320	-2.999743
9541.547872	4845.450000	1329.684570	14.614132
9541.547872	4845.450000	1328.590820	-15.749855
9541.547872	4845.450000	1327.496094	62.291088
9541.547872	4845.450000	1326.402344	16.361780
9541.547872	4845.450000	1325.307617	129.516144
9541.547872	4845.450000	1324.212891	153.854294
9541.547872	4845.450000	1323.117188	201.429993
9541.547872	4845.450000	1322.022461	281.593994
9541.547872	4845.450000	1320.926758	452.390106
9541.547872	4845.450000	1319.831055	375.761597
9541.547872	4845.450000	1318.735352	370.833252
9541.547872	4845.450000	1317.638672	648.190125
9541.547872	4845.450000	1316.542969	571.445557
9541.547872	4845.450000	1315.446289	582.028259
9541.547872	4845.450000	1314.349609	431.005890
9541.547872	4845.450000	1313.251953	415.437286
9541.547872	4845.450000	1312.155273	407.058136
9541.547872	4845.450000	1311.057617	232.004349
9541.547872	4845.450000	1309.959961	179.030563
9541.547872	4845.450000	1308.862305	402.546234
9541.547872	4845.450000	1307.763672	92.719528
9541.547872	4845.450000	1306.665039	176.681091
9541.547872	4845.450000	1305.566406	139.229004
9541.547872	4845.450000	1304.467773	35.230694
9541.547872	4845.450000	1303.369141	153.391953
9541.547872	4845.450000	1302.269531	87.061684
9541.547872	4845.450000	1301.169922	-21.335590
9541.547872	4845.450000	1300.070313	43.556324
9541.547872	4845.450000	1298.970703	123.089218
9541.547872	4845.450000	1297.870117	22.365934
9541.547872	4845.450000	1296.769531	65.580002
9541.547872	4845.450000	1295.668945	3.593961
9541.547872	4845.450000	1294.568359	173.066727
9541.547872	4845.450000	1293.466797	15.394632
9541.547872	4845.450000	1292.366211	59.398502
9541.547872	4845.450000	1291.264648	11.053881
9541.547872	4845.450000	1290.162109	14.406917
9541.547872	4845.450000	1289.060547	-20.382740
9541.547872	4845.450000	1287.958008	-78.332672
9541.547872	4845.450000	1286.855469	-13.051167
9541.547872	4845.450000	1285.752930	-137.793869
9541.547872	4845.450000	1284.650391	-38.096184
9541.547872	4845.450000	1283.546875	-57.972858
9541.547872	4845.450000	1282.444336	-65.812668
9541.547872	4845.450000	1281.339844	130.035538
9541.547872	4845.450000	1280.236328	59.426918
9541.547872	4845.450000	1279.132813	-123.568298
9541.547872	4845.450000	1278.028320	63.160191
9541.547872	4845.450000	1276.923828	6.960071
9541.547872	4845.450000	1275.819336	15.927765
9541.547872	4845.450000	1274.713867	-20.523687
9541.547872	4845.450000	1273.608398	53.460720
9541.547872	4845.450000	1272.503906	-25.529654
9541.547872	4845.450000	1271.397461	158.275131
9541.547872	4845.450000	1270.291992	88.803352
9541.547872	4845.450000	1269.185547	185.116730
9541.547872	4845.450000	1268.080078	162.839035
9541.547872	4845.450000	1266.972656	165.745178
9541.547872	4845.450000	1265.866211	55.467937
9541.547872	4845.450000	1264.759766	-9.161633
9541.547872	4845.450000	1263.652344	42.709000
9541.547872	4845.450000	1262.544922	86.386948
9541.547872	4845.450000	1261.436523	39.002583
9541.547872	4845.450000	1260.329102	24.081026
9541.547872	4845.450000	1259.220703	93.957489
9541.547872	4845.450000	1258.112305	-2.398805
9541.547872	4845.450000	1257.003906	57.165211
9541.547872	4845.450000	1255.895508	-128.432755
9541.547872	4845.450000	1254.786133	-94.877739
9541.547872	4845.450000	1253.676758	-31.898281
9541.547872	4845.450000	1252.567383	10.553700
9541.547872	4845.450000	1251.458008	72.215271
9541.547872	4845.450000	1250.347656	-59.026852
9541.547872	4845.450000	1249.237305	32.464531
9541.547872	4845.450000	1248.126953	3.471884
9541.547872	4845.450000	1247.016602	-64.014809
9541.547872	4845.450000	1245.905273	16.684160
9541.547872	4845.450000	1244.793945	-49.548420
9541.547872	4845.450000	1243.682617	-27.609272
9541.547872	4845.450000	1242.571289	49.548233
9541.547872	4845.450000	1241.459961	70.548851
9541.547872	4845.450000	1240.347656	-124.236794
9541.547872	4845.450000	1239.235352	-44.207638
9541.547872	4845.450000	1238.123047	-91.680817
9541.547872	4845.450000	1237.009766	-107.196358
9541.547872	4845.450000	1235.897461	-36.456165
9541.547872	4845.450000	1234.784180	44.687958
9541.547872	4845.450000	1233.670898	12.367867
9541.547872	4845.450000	1232.556641	-24.942818
9541.547872	4845.450000	1231.443359	-52.228668
9541.547872	4845.450000	1230.329102	57.818146
9541.547872	4845.450000	1229.214844	-96.816010
9541.547872	4845.450000	1228.099609	-45.829884
9541.547872	4845.450000	1226.985352	-15.952647
9541.547872	4845.450000	1225.870117	-47.808132
9541.547872	4845.450000	1224.754883	-56.252728
9541.547872	4845.450000	1223.639648	-157.468307
9541.547872	4845.450000	1222.523438	-78.750298
9541.547872	4845.450000	1221.408203	-40.389351
9541.547872	4845.450000	1220.291992	-14.112370
9541.547872	4845.450000	1219.174805	-78.419586
9541.547872	4845.450000	1218.058594	49.448692
9541.547872	4845.450000	1216.941406	-33.015224
9541.547872	4845.450000	1215.824219	89.483681
9541.547872	4845.450000	1214.707031	50.790424
9541.547872	4845.450000	1213.589844	15.296386
9541.547872	4845.450000	1212.471680	24.462915
9541.547872	4845.450000	1211.353516	90.517204
9541.547872	4845.450000	1210.235352	69.010315
9541.547872	4845.450000	1209.117188	-96.134621
9541.547872	4845.450000	1207.998047	-1.583721
9541.547872	4845.450000	1206.878906	98.763290
9541.547872	4845.450000	1205.759766	172.402786
9541.547872	4845.450000	1204.640625	93.018661
9541.547872	4845.450000	1203.520508	48.098087
9541.547872	4845.450000	1202.401367	-28.764545
9541.547872	4845.450000	1201.281250	69.528839
9541.547872	4845.450000	1200.160156	32.663567
9541.547872	4845.450000	1199.040039	45.404499
9541.547872	4845.450000	1197.918945	34.880428
9541.547872	4845.450000	1196.797852	24.465153
9541.547872	4845.450000	1195.676758	-36.086147
9541.547872	4845.450000	1194.555664	5.849401
9541.547872	4845.450000	1193.433594	0.674915
9541.547872	4845.450000	1192.311523	-49.824627
9541.547872	4845.450000	1191.189453	23.381845
9541.547872	4845.450000	1190.066406	-44.490067
9541.547872	4845.450000	1188.944336	-93.593285
9541.547872	4845.450000	1187.821289	-20.784037
9541.547872	4845.450000	1186.698242	-88.248489
9541.547872	4845.450000	1185.574219	-70.551834
9541.547872	4845.450000	1184.451172	-50.470921
9541.547872	4845.450000	1183.327148	58.229240
9541.547872	4845.450000	1182.203125	85.600830
9541.547872	4845.450000	1181.078125	146.241211
9541.547872	4845.450000	1179.954102	195.738861
9541.547872	4845.450000	1178.829102	249.614334
9541.547872	4845.450000	1177.704102	245.493118
9541.547872	4845.450000	1176.579102	220.862350
9541.547872	4845.450000	1175.453125	161.466309
9541.547872	4845.450000	1174.327148	79.365585
9541.547872	4845.450000	1173.201172	26.200655
9541.547872	4845.450000	1172.075195	137.810730
9541.547872	4845.450000	1170.949219	163.381195
9541.547872	4845.450000	1169.822266	52.112862
9541.547872	4845.450000	1168.695313	3.644474
9541.547872	4845.450000	1167.568359	80.471512
9541.547872	4845.450000	1166.440430	47.583286
9541.547872	4845.450000	1165.313477	11.899691
9541.547872	4845.450000	1164.185547	-72.854919
9541.547872	4845.450000	1163.057617	-69.596870
9541.547872	4845.450000	1161.928711	-62.492176
9541.547872	4845.450000	1160.800781	-36.573456
9541.547872	4845.450000	1159.671875	-63.264404
9541.547872	4845.450000	1158.541992	-10.608640
9541.547872	4845.450000	1157.413086	-52.186550
9541.547872	4845.450000	1156.283203	51.488735
9541.547872	4845.450000	1155.154297	-43.499531
9541.547872	4845.450000	1154.023438	-17.834423
9541.547872	4845.450000	1152.893555	-49.077225
9541.547872	4845.450000	1151.763672	70.498573
9541.547872	4845.450000	1150.632813	13.415319
9541.547872	4845.450000	1149.501953	11.737351
9541.547872	4845.450000	1148.370117	44.795586
9541.547872	4845.450000	1147.239258	14.101716
9541.547872	4845.450000	1146.107422	34.177525
9541.547872	4845.450000	1144.975586	73.698257
9541.547872	4845.450000	1143.843750	4.261483
9541.547872	4845.450000	1142.710938	-2.098330
9541.547872	4845.450000	1141.578125	-24.006668
9541.547872	4845.450000	1140.445313	-28.488024
9541.547872	4845.450000	1139.312500	47.762211
9541.547872	4845.450000	1138.178711	24.711559
9541.547872	4845.450000	1137.045898	-53.641666
9541.547872	4845.450000	1135.912109	-15.019588
9541.547872	4845.450000	1134.777344	-22.563431
9541.547872	4845.450000	1133.643555	-55.515507
9541.547872	4845.450000	1132.508789	-24.953489
9541.547872	4845.450000	1131.374023	38.368877
9541.547872	4845.450000	1130.239258	-26.765753
9541.547872	4845.450000	1129.104492	-19.716808
9541.547872	4845.450000	1127.968750	-68.377243
9541.547872	4845.450000	1126.833008	13.941660
9541.547872	4845.450000	1125.697266	60.098736
9541.547872	4845.450000	1124.560547	14.856260
9541.547872	4845.450000	1123.424805	-24.722584
9541.547872	4845.450000	1122.288086	114.087967
9541.547872	4845.450000	1121.151367	56.613926
9541.547872	4845.450000	1120.013672	46.385094
9541.547872	4845.450000	1118.876953	26.405220
9541.547872	4845.450000	1117.739258	-35.729446
9541.547872	4845.450000	1116.601563	46.375542
9541.547872	4845.450000	1115.462891	-15.465892
9541.547872	4845.450000	1114.324219	-50.015511
9541.547872	4845.450000	1113.186523	0.925924
9541.547872	4845.450000	1112.046875	60.356792
9541.547872	4845.450000	1110.908203	-103.207161
9541.547872	4845.450000	1109.769531	3.437120
9541.547872	4845.450000	1108.629883	-143.565948
9541.547872	4845.450000	1107.490234	-15.207520
9541.547872	4845.450000	1106.349609	-51.049755
9541.547872	4845.450000	1105.209961	29.027727
9541.547872	4845.450000	1104.069336	-44.002724
9541.547872	4845.450000	1102.928711	23.352196
9541.547872	4845.450000	1101.787109	70.241692
9541.547872	4845.450000	1100.646484	173.632477
9541.547872	4845.450000	1099.504883	108.779480
9541.547872	4845.450000	1098.363281	11.695144
9541.547872	4845.450000	1097.221680	-124.377365
9541.547872	4845.450000	1096.079102	96.750137
9541.547872	4845.450000	1094.936523	-25.767759
9541.547872	4845.450000	1093.793945	114.342384
9541.547872	4845.450000	1092.651367	23.607449
9541.547872	4845.450000	1091.507813	-14.066172
9541.547872	4845.450000	1090.364258	150.937607
9541.547872	4845.450000	1089.220703	-83.378288
9541.547872	4845.450000	1088.077148	48.987175
9541.547872	4845.450000	1086.933594	78.605309
9541.547872	4845.450000	1085.789063	-2.597062
9541.547872	4845.450000	1084.644531	-28.145365
9541.547872	4845.450000	1083.499023	-71.855957
9541.547872	4845.450000	1082.354492	-123.004723
9541.547872	4845.450000	1081.208984	42.417664
9541.547872	4845.450000	1080.063477	-40.037010
9541.547872	4845.450000	1078.917969	27.541458
9541.547872	4845.450000	1077.771484	105.201874
9541.547872	4845.450000	1076.625977	45.778877
9541.547872	4845.450000	1075.479492	135.090729
9541.547872	4845.450000	1074.332031	136.009506
9541.547872	4845.450000	1073.185547	28.060375
9541.547872	4845.450000	1072.038086	-73.893082
9541.547872	4845.450000	1070.890625	-52.658306
9541.547872	4845.450000	1069.743164	80.905876
9541.547872	4845.450000	1068.594727	133.503433
9541.547872	4845.450000	1067.447266	130.681686
9541.547872	4845.450000	1066.298828	-34.854153
9541.547872	4845.450000	1065.149414	-21.568407
9541.547872	4845.450000	1064.000977	73.585365
9541.547872	4845.450000	1062.851563	158.284470
9541.547872	4845.450000	1061.702148	114.343658
9541.547872	4845.450000	1060.552734	139.011078
9541.547872	4845.450000	1059.402344	101.916367
9541.547872	4845.450000	1058.252930	112.430336
9541.547872	4845.450000	1057.102539	23.444025
9541.547872	4845.450000	1055.951172	127.716743
9541.547872	4845.450000	1054.800781	39.997334
9541.547872	4845.450000	1053.649414	8.807611
9541.547872	4845.450000	1052.498047	78.940018
9541.547872	4845.450000	1051.346680	43.756947
9541.547872	4845.450000	1050.194336	85.312737
9541.547872	4845.450000	1049.042969	189.532669
9541.547872	4845.450000	1047.890625	34.186455
9541.547872	4845.450000	1046.738281	17.472868
9541.547872	4845.450000	1045.584961	-47.727142
9541.547872	4845.450000	1044.431641	-54.407631
9541.547872	4845.450000	1043.278320	9.968613
9541.547872	4845.450000	1042.125000	138.195145
9541.547872	4845.450000	1040.971680	-31.130257
9541.547872	4845.450000	1039.817383	12.028063
9541.547872	4845.450000	1038.663086	25.539898
9541.547872	4845.450000	1037.508789	64.782318
9541.547872	4845.450000	1036.353516	34.478931
9541.547872	4845.450000	1035.198242	94.493240
9541.547872	4845.450000	1034.042969	132.953293
9541.547872	4845.450000	1032.887695	270.192200
9541.547872	4845.450000	1031.732422	118.496216
9541.547872	4845.450000	1030.576172	133.920456
9541.547872	4845.450000	1029.419922	83.576996
9541.547872	4845.450000	1028.263672	134.779465
9541.547872	4845.450000	1027.106445	52.473042
9541.547872	4845.450000	1025.949219	-12.175431
9541.547872	4845.450000	1024.792969	152.294876
9541.547872	4845.450000	1023.634766	221.461456
9541.547872	4845.450000	1022.477539	218.708984
9541.547872	4845.450000	1021.319336	-4.413167
9541.547872	4845.450000	1020.161133	79.586632
9541.547872	4845.450000	1019.002930	81.655762
9541.547872	4845.450000	1017.843750	-39.944244
9541.547872	4845.450000	1016.684570	-91.960022
9541.547872	4845.450000	1015.525391	45.880527
9541.547872	4845.450000	1014.366211	129.512604
9541.547872	4845.450000	1013.207031	4.999344
9541.547872	4845.450000	1012.046875	68.443016
9541.547872	4845.450000	1010.886719	156.965714
9541.547872	4845.450000	1009.726563	43.297058
9541.547872	4845.450000	1008.565430	132.705811
9541.547872	4845.450000	1007.404297	39.129543
9541.547872	4845.450000	1006.243164	-27.605934
9541.547872	4845.450000	1005.082031	-55.900871
9541.547872	4845.450000	1003.920898	138.701904
9541.547872	4845.450000	1002.758789	134.260666
9541.547872	4845.450000	1001.596680	-10.064830
9541.547872	4845.450000	1000.433594	42.117657
9541.547872	4845.450000	999.271484	46.071465
9541.547872	4845.450000	998.108398	51.347485
9541.547872	4845.450000	996.945313	-60.150803
9541.547872	4845.450000	995.782227	-93.628815
9541.547872	4845.450000	994.618164	22.656200
9541.547872	4845.450000	993.454102	37.274754
9541.547872	4845.450000	992.290039	9.454532
9541.547872	4845.450000	991.125977	68.783081
9541.547872	4845.450000	989.960938	-6.783976
9541.547872	4845.450000	988.796875	106.706337
9541.547872	4845.450000	987.630859	12.502362
9541.547872	4845.450000	986.465820	83.171486
9541.547872	4845.450000	985.300781	73.148811
9541.547872	4845.450000	984.134766	134.374756
9541.547872	4845.450000	982.968750	9.769544
9541.547872	4845.450000	981.801758	32.777477
9541.547872	4845.450000	980.635742	18.940538
9541.547872	4845.450000	979.468750	44.584225
9541.547872	4845.450000	978.301758	-59.474255
9541.547872	4845.450000	977.133789	-113.798424
9541.547872	4845.450000	975.966797	53.567337
9541.547872	4845.450000	974.798828	-254.139923
9541.547872	4845.450000	973.630859	-9.687428
9541.547872	4845.450000	972.461914	-116.041084
9541.547872	4845.450000	971.293945	26.461826
9541.547872	4845.450000	970.125000	155.970886
9541.547872	4845.450000	968.956055	62.851707
9541.547872	4845.450000	967.786133	49.569519
9541.547872	4845.450000	966.617188	25.637671
9541.547872	4845.450000	965.447266	0.960578
9541.547872	4845.450000	964.276367	23.374794
9541.547872	4845.450000	963.106445	30.753576
9541.547872	4845.450000	961.935547	96.732742
9541.547872	4845.450000	960.764648	29.016811
9541.547872	4845.450000	959.593750	136.850082
9541.547872	4845.450000	958.422852	-61.099339
9541.547872	4845.450000	957.250977	-24.457098
9541.547872	4845.450000	956.079102	62.988182
9541.547872	4845.450000	954.907227	31.807453
9541.547872	4845.450000	953.734375	136.543488
9541.547872	4845.450000	952.562500	16.082357
9541.547872	4845.450000	951.389648	74.808777
9541.547872	4845.450000	950.215820	45.077370
9541.547872	4845.450000	949.042969	122.472458
9541.547872	4845.450000	947.869141	253.326019
9541.547872	4845.450000	946.695313	153.839691
9541.547872	4845.450000	945.521484	127.085884
9541.547872	4845.450000	944.346680	-8.488844
9541.547872	4845.450000	943.172852	91.882973
9541.547872	4845.450000	941.998047	-10.548788
9541.547872	4845.450000	940.822266	161.987000
9541.547872	4845.450000	939.647461	148.096695
9541.547872	4845.450000	938.471680	198.937851
9541.547872	4845.450000	937.295898	122.824493
9541.547872	4845.450000	936.119141	103.552711
9541.547872	4845.450000	934.943359	24.973051
9541.547872	4845.450000	933.766602	-22.736450
9541.547872	4845.450000	932.589844	-5.640695
9541.547872	4845.450000	931.413086	1.038273
9541.547872	4845.450000	930.235352	253.624374
9541.547872	4845.450000	929.057617	55.870117
9541.547872	4845.450000	927.879883	34.103241
9541.547872	4845.450000	926.702148	64.089012
9541.547872	4845.450000	925.523438	11.273895
9541.547872	4845.450000	924.344727	105.885971
9541.547872	4845.450000	923.166016	-117.584892
9541.547872	4845.450000	921.987305	15.789147
9541.547872	4845.450000	920.807617	48.299274
9541.547872	4845.450000	919.627930	48.355209
9541.547872	4845.450000	919.497070	124.731300
9541.547872	4845.450000	918.331055	87.439674
9541.547872	4845.450000	917.165039	-42.832695
9541.547872	4845.450000	915.999023	-2.602312
9541.547872	4845.450000	914.833008	55.683174
9541.547872	4845.450000	913.666016	59.729462
9541.547872	4845.450000	912.499023	-54.956554
9541.547872	4845.450000	911.332031	-99.925064
9541.547872	4845.450000	910.165039	27.982231
9541.547872	4845.450000	908.997070	50.076481
9541.547872	4845.450000	907.830078	-18.103210
9541.547872	4845.450000	906.661133	3.986776
9541.547872	4845.450000	905.493164	-69.316139
9541.547872	4845.450000	904.325195	61.020374
9541.547872	4845.450000	903.156250	10.923186
9541.547872	4845.450000	901.987305	53.591572
9541.547872	4845.450000	900.818359	-1.639424
9541.547872	4845.450000	899.648438	97.666328
9541.547872	4845.450000	898.478516	-19.348051
9541.547872	4845.450000	897.308594	105.659805
9541.547872	4845.450000	896.138672	-85.949196
9541.547872	4845.450000	894.968750	147.091141
9541.547872	4845.450000	893.797852	-116.484741
9541.547872	4845.450000	892.626953	5.862769
9541.547872	4845.450000	891.456055	89.585396
9541.547872	4845.450000	890.284180	73.001083
9541.547872	4845.450000	889.113281	-36.117184
9541.547872	4845.450000	887.941406	32.138885
9541.547872	4845.450000	886.768555	46.407032
9541.547872	4845.450000	885.596680	122.323532
9541.547872	4845.450000	884.423828	110.880630
9541.547872	4845.450000	883.250977	50.651627
9541.547872	4845.450000	882.078125	-40.362957
9541.547872	4845.450000	880.905273	-10.698225
9541.547872	4845.450000	879.731445	131.873413
9541.547872	4845.450000	878.557617	40.895927
9541.547872	4845.450000	877.383789	-11.565693
9541.547872	4845.450000	876.209961	53.972961
9541.547872	4845.450000	875.035156	-139.504669
9541.547872	4845.450000	873.860352	-68.840363
9541.547872	4845.450000	872.685547	-185.318756
9541.547872	4845.450000	871.510742	-27.544302
9541.547872	4845.450000	870.334961	58.424908
9541.547872	4845.450000	869.159180	-93.872040
9541.547872	4845.450000	867.983398	50.979912
9541.547872	4845.450000	866.807617	-55.164234
9541.547872	4845.450000	865.630859	-53.742943
9541.547872	4845.450000	864.454102	-16.489601
9541.547872	4845.450000	863.277344	-71.375877
9541.547872	4845.450000	862.100586	34.943939
9541.547872	4845.450000	860.922852	87.502571
9541.547872	4845.450000	859.745117	24.955780
9541.547872	4845.450000	858.567383	-129.614899
9541.547872	4845.450000	857.389648	-199.761703
9541.547872	4845.450000	856.210938	-1.515880
9541.547872	4845.450000	855.032227	102.101059
9541.547872	4845.450000	853.853516	31.948490
9541.547872	4845.450000	852.674805	-40.729954
9541.547872	4845.450000	851.495117	101.136032
9541.547872	4845.450000	850.315430	-88.976524
9541.547872	4845.450000	849.135742	47.735096
9541.547872	4845.450000	847.956055	-63.171520
9541.547872	4845.450000	846.775391	-38.795509
9541.547872	4845.450000	845.595703	-29.736525
9541.547872	4845.450000	844.415039	43.083057
9541.547872	4845.450000	843.233398	75.070419
9541.547872	4845.450000	842.052734	56.053165
9541.547872	4845.450000	840.871094	-115.898918
9541.547872	4845.450000	839.689453	-127.225327
9541.547872	4845.450000	838.506836	-62.107746
9541.547872	4845.450000	837.325195	25.908855
9541.547872	4845.450000	836.142578	-49.115021
9541.547872	4845.450000	834.959961	-78.274155
9541.547872	4845.450000	833.777344	-125.242920
9541.547872	4845.450000	832.593750	-85.651741
9541.547872	4845.450000	831.410156	-74.070503
9541.547872	4845.450000	830.226563	-16.698002
9541.547872	4845.450000	829.042969	-63.645622
9541.547872	4845.450000	827.858398	97.972794
9541.547872	4845.450000	826.673828	12.876897
9541.547872	4845.450000	825.489258	65.094948
9541.547872	4845.450000	824.304688	33.413483
9541.547872	4845.450000	823.120117	126.261139
9541.547872	4845.450000	821.934570	18.357561
9541.547872	4845.450000	820.749023	29.882355
9541.547872	4845.450000	819.562500	26.163553
9541.547872	4845.450000	818.376953	-142.596283
9541.547872	4845.450000	817.190430	82.187225
9541.547872	4845.450000	816.003906	-5.301455
9541.547872	4845.450000	814.817383	122.931732
9541.547872	4845.450000	813.629883	-30.495646
9541.547872	4845.450000	812.442383	168.705872
9541.547872	4845.450000	811.254883	-10.031699
9541.547872	4845.450000	810.067383	-44.179638
9541.547872	4845.450000	808.878906	91.520706
9541.547872	4845.450000	807.690430	-5.998629
9541.547872	4845.450000	806.501953	-118.683548
9541.547872	4845.450000	805.313477	34.672367
9541.547872	4845.450000	804.124023	63.855110
9541.547872	4845.450000	802.934570	42.377773
9541.547872	4845.450000	801.745117	-42.388187
9541.547872	4845.450000	800.555664	-51.186054
9541.547872	4845.450000	799.365234	-27.084845
9541.547872	4845.450000	798.175781	12.183461
9541.547872	4845.450000	796.985352	139.968750
9541.547872	4845.450000	795.793945	7.198116
9541.547872	4845.450000	794.603516	-31.963915
9541.547872	4845.450000	793.412109	-45.833508
9541.547872	4845.450000	792.220703	36.345116
9541.547872	4845.450000	791.028320	27.512177
9541.547872	4845.450000	789.836914	21.204765
9541.547872	4845.450000	788.644531	7.316651
9541.547872	4845.450000	787.452148	89.396576
9541.547872	4845.450000	786.258789	-65.906265
9541.547872	4845.450000	785.066406	43.912521
9541.547872	4845.450000	783.873047	32.533772
9541.547872	4845.450000	782.679688	132.182022
9541.547872	4845.450000	781.485352	45.093349
9541.547872	4845.450000	780.291992	144.685272
9541.547872	4845.450000	779.097656	92.922745
9541.547872	4845.450000	777.903320	-21.856392
9541.547872	4845.450000	776.708008	27.253345
9541.547872	4845.450000	775.512695	139.341736
9541.547872	4845.450000	774.318359	49.801327
9541.547872	4845.450000	773.122070	-77.496849
9541.547872	4845.450000	771.926758	-126.671242
9541.547872	4845.450000	770.730469	-24.745235
9541.547872	4845.450000	769.534180	107.342163
9541.547872	4845.450000	768.337891	78.273895
9541.547872	4845.450000	767.141602	-8.671423
9541.547872	4845.450000	765.944336	50.341328
9541.547872	4845.450000	764.747070	164.662216
9541.547872	4845.450000	763.549805	128.028381
9541.547872	4845.450000	762.351563	33.567852
9541.547872	4845.450000	761.154297	9.528389
9541.547872	4845.450000	759.956055	133.781006
9541.547872	4845.450000	758.757813	19.248560
9541.547872	4845.450000	757.558594	120.816879
9541.547872	4845.450000	756.359375	46.505028
9541.547872	4845.450000	755.160156	122.892891
9541.547872	4845.450000	753.960938	71.188286
9541.547872	4845.450000	752.761719	-3.097243
9541.547872	4845.450000	751.561523	90.791222
9541.547872	4845.450000	750.361328	-46.219509
9541.547872	4845.450000	749.160156	253.330063
9541.547872	4845.450000	747.959961	43.583839
9541.547872	4845.450000	746.758789	169.939514
9541.547872	4845.450000	745.557617	123.238464
9541.547872	4845.450000	744.356445	-48.784630
9541.547872	4845.450000	743.154297	74.969826
9541.547872	4845.450000	741.952148	-51.895531
9541.547872	4845.450000	740.750000	-50.963413
9541.547872	4845.450000	739.547852	42.623409
9541.547872	4845.450000	738.344727	108.613899
9541.547872	4845.450000	737.142578	-5.685289
9541.547872	4845.450000	735.939453	55.256187
9541.547872	4845.450000	734.735352	116.158318
9541.547872	4845.450000	733.532227	114.474792
9541.547872	4845.450000	732.328125	5.218312
9541.547872	4845.450000	731.124023	31.039942
9541.547872	4845.450000	729.918945	176.852646
9541.547872	4845.450000	728.714844	72.608711
9541.547872	4845.450000	727.509766	170.836411
9541.547872	4845.450000	726.303711	14.133631
9541.547872	4845.450000	725.098633	7.376598
9541.547872	4845.450000	723.892578	70.543190
9541.547872	4845.450000	722.686523	146.153687
9541.547872	4845.450000	721.480469	81.903229
9541.547872	4845.450000	720.274414	-64.708878
9541.547872	4845.450000	719.067383	33.296143
9541.547872	4845.450000	717.860352	-123.257652
9541.547872	4845.450000	716.653320	-75.205902
9541.547872	4845.450000	715.445313	-7.238324
9541.547872	4845.450000	714.238281	8.319851
9541.547872	4845.450000	713.030273	-55.922359
9541.547872	4845.450000	711.821289	-137.602875
9541.547872	4845.450000	710.613281	-7.448206
9541.547872	4845.450000	709.404297	115.159378
9541.547872	4845.450000	708.195313	25.969330
9541.547872	4845.450000	706.986328	101.165558
9541.547872	4845.450000	705.776367	-70.186874
9541.547872	4845.450000	704.566406	54.748451
9541.547872	4845.450000	703.356445	-61.804516
9541.547872	4845.450000	702.146484	-71.329834
9541.547872	4845.450000	700.935547	-1.261014
9541.547872	4845.450000	699.724609	175.712540
9541.547872	4845.450000	698.513672	-85.075851
9541.547872	4845.450000	697.302734	129.095840
9541.547872	4845.450000	696.090820	24.986895
9541.547872	4845.450000	694.878906	30.249790
9541.547872	4845.450000	693.666992	162.208588
9541.547872	4845.450000	692.455078	13.384621
9541.547872	4845.450000	691.242188	107.996124
9541.547872	4845.450000	690.029297	73.427071
9541.547872	4845.450000	688.816406	26.439035
9541.547872	4845.450000	687.602539	200.351288
9541.547872	4845.450000	686.389648	-42.725620
9541.547872	4845.450000	685.175781	207.997833
9541.547872	4845.450000	683.960938	237.830582
9541.547872	4845.450000	682.747070	198.191818
9541.547872	4845.450000	681.532227	240.368607
9541.547872	4845.450000	680.317383	193.265549
9541.547872	4845.450000	679.102539	104.027557
9541.547872	4845.450000	677.886719	247.724274
9541.547872	4845.450000	676.670898	180.763824
9541.547872	4845.450000	675.455078	89.041611
9541.547872	4845.450000	674.239258	69.148331
9541.547872	4845.450000	673.022461	88.852798
9541.547872	4845.450000	671.805664	138.229721
9541.547872	4845.450000	670.588867	115.795609
9541.547872	4845.450000	669.372070	48.812572
9541.547872	4845.450000	668.154297	-3.324171
9541.547872	4845.450000	666.936523	-3.525183
9541.547872	4845.450000	665.718750	107.520981
9541.547872	4845.450000	664.500977	-70.742889
9541.547872	4845.450000	663.282227	171.218521
9541.547872	4845.450000	662.063477	44.861908
9541.547872	4845.450000	660.844727	64.299034
9541.547872	4845.450000	659.625000	71.352753
9541.547872	4845.450000	658.405273	66.032585
9541.547872	4845.450000	657.185547	82.912682
9541.547872	4845.450000	655.965820	62.734226
9541.547872	4845.450000	654.745117	-6.820123
9541.547872	4845.450000	653.525391	59.342167
9541.547872	4845.450000	652.303711	-42.300186
9541.547872	4845.450000	651.083008	-13.203500
9541.547872	4845.450000	649.861328	72.571274
9541.547872	4845.450000	648.640625	116.376099
9541.547872	4845.450000	647.417969	189.713425
9541.547872	4845.450000	646.196289	46.137913
9541.547872	4845.450000	644.973633	-60.445698
9541.547872	4845.450000	643.750977	118.731659
9541.547872	4845.450000	642.528320	86.012268
9541.547872	4845.450000	641.305664	63.131981
9541.547872	4845.450000	640.082031	-63.155880
9541.547872	4845.450000	638.858398	19.786488
9541.547872	4845.450000	637.634766	-10.520866
9541.547872	4845.450000	636.410156	-21.160114
9541.547872	4845.450000	635.185547	69.026146
9541.547872	4845.450000	633.960938	-91.678337
9541.547872	4845.450000	632.736328	27.939850
9541.547872	4845.450000	631.510742	-54.078941
9541.547872	4845.450000	630.285156	70.346123
9541.547872	4845.450000	629.059570	66.929962
9541.547872	4845.450000	627.833984	-22.486055
9541.547872	4845.450000	626.607422	-55.402153
9541.547872	4845.450000	625.380859	130.208389
9541.547872	4845.450000	624.154297	126.686012
9541.547872	4845.450000	622.927734	74.053757
9541.547872	4845.450000	621.700195	92.581352
9541.547872	4845.450000	620.472656	37.476780
9541.547872	4845.450000	619.245117	-2.910719
9541.547872	4845.450000	618.016602	128.357498
9541.547872	4845.450000	616.788086	-24.863052
9541.547872	4845.450000	615.559570	-70.184547
9541.547872	4845.450000	614.331055	58.495205
9541.547872	4845.450000	613.101563	-48.128357
9541.547872	4845.450000	611.872070	139.238358
9541.547872	4845.450000	610.642578	172.203415
9541.547872	4845.450000	609.413086	-69.121201
9541.547872	4845.450000	608.182617	142.543884
9541.547872	4845.450000	606.952148	55.484066
9541.547872	4845.450000	605.721680	81.007614
9541.547872	4845.450000	604.491211	189.683578
9541.547872	4845.450000	603.259766	31.665787
9541.547872	4845.450000	602.028320	174.499496
9541.547872	4845.450000	600.796875	119.202003
9541.547872	4845.450000	599.564453	137.241577
9541.547872	4845.450000	598.332031	125.924248
9541.547872	4845.450000	597.099609	-44.235088
9541.547872	4845.450000	595.867188	274.251099
9541.547872	4845.450000	594.633789	-61.996155
9541.547872	4845.450000	593.400391	153.755585
9541.547872	4845.450000	592.166992	115.489471
9541.547872	4845.450000	590.933594	-8.210764
9541.547872	4845.450000	589.699219	7.221726
9541.547872	4845.450000	588.464844	161.700073
9541.547872	4845.450000	587.230469	91.675735
9541.547872	4845.450000	585.995117	-0.288880
9541.547872	4845.450000	584.760742	-33.710392
9541.547872	4845.450000	583.525391	-35.447128
9541.547872	4845.450000	582.289063	-10.393377
9541.547872	4845.450000	581.053711	-75.523674
9541.547872	4845.450000	579.817383	83.485229
9541.547872	4845.450000	578.581055	-98.586189
9541.547872	4845.450000	577.343750	65.195038
9541.547872	4845.450000	576.107422	219.154297
9541.547872	4845.450000	574.870117	156.392120
9541.547872	4845.450000	573.631836	103.373123
9541.547872	4845.450000	572.394531	135.522400
9541.547872	4845.450000	571.156250	138.450165
9541.547872	4845.450000	569.917969	204.595215
9541.547872	4845.450000	568.679688	214.772827
9541.547872	4845.450000	567.440430	57.189362
9541.547872	4845.450000	566.202148	135.420410
9541.547872	4845.450000	564.961914	9.482325
9541.547872	4845.450000	563.722656	68.226151
9541.547872	4845.450000	562.482422	102.640419
9541.547872	4845.450000	561.243164	64.178253
9541.547872	4845.450000	560.001953	117.975533
9541.547872	4845.450000	558.761719	-20.022343
9541.547872	4845.450000	557.520508	4.625265
9541.547872	4845.450000	556.279297	41.383640
9541.547872	4845.450000	555.038086	119.354713
9541.547872	4845.450000	553.795898	68.738945
9541.547872	4845.450000	552.554688	156.350388
9541.547872	4845.450000	551.311523	18.452757
9541.547872	4845.450000	550.069336	152.068253
9541.547872	4845.450000	548.826172	86.910370
9541.547872	4845.450000	547.583984	-14.565647
9541.547872	4845.450000	546.339844	247.317886
9541.547872	4845.450000	545.096680	29.592541
9541.547872	4845.450000	543.852539	56.487881
9541.547872	4845.450000	542.608398	112.412628
9541.547872	4845.450000	541.364258	69.082016
9541.547872	4845.450000	540.119141	16.083162
9541.547872	4845.450000	538.875000	57.448498
9541.547872	4845.450000	537.628906	98.785820
9541.547872	4845.450000	536.383789	-29.159872
9541.547872	4845.450000	535.137695	41.179325
9541.547872	4845.450000	533.892578	-50.452721
9541.547872	4845.450000	532.645508	48.848625
9541.547872	4845.450000	531.399414	-40.339592
9541.547872	4845.450000	530.152344	25.093962
9541.547872	4845.450000	528.905273	-35.079681
9541.547872	4845.450000	527.658203	-119.374329
9541.547872	4845.450000	526.410156	-10.524683
9541.547872	4845.450000	525.163086	-82.724884
9541.547872	4845.450000	523.914063	-60.798843
9541.547872	4845.450000	522.666016	-231.868286
9541.547872	4845.450000	521.416992	-86.917603
9541.547872	4845.450000	520.167969	-173.515656
9541.547872	4845.450000	518.918945	-166.055679
9541.547872	4845.450000	517.669922	-221.265915
9541.547872	4845.450000	516.419922	-230.668686
9541.547872	4845.450000	515.169922	-8.779186
9541.547872	4845.450000	513.919922	-51.943810
9541.547872	4845.450000	512.668945	-136.030624
9541.547872	4845.450000	511.417969	44.765953
9541.547872	4845.450000	510.166992	-85.038208
9541.547872	4845.450000	508.916016	59.574196
9541.547872	4845.450000	507.664063	-58.145290
9541.547872	4845.450000	506.412109	-43.501984
9541.547872	4845.450000	505.160156	-12.026949
9541.547872	4845.450000	503.907227	2.603099
9541.547872	4845.450000	502.655273	-129.416092
9541.547872	4845.450000	501.402344	96.751762
9541.547872	4845.450000	500.148438	15.234266
9541.547872	4845.450000	498.895508	-116.694794
9541.547872	4845.450000	497.641602	70.899986
9541.547872	4845.450000	496.387695	-84.994385
9541.547872	4845.450000	495.132813	44.894020
9541.547872	4845.450000	493.878906	100.319359
9541.547872	4845.450000	492.624023	-125.070602
9541.547872	4845.450000	491.368164	40.742695
9541.547872	4845.450000	490.113281	19.377092
9541.547872	4845.450000	488.857422	2.818203
9541.547872	4845.450000	487.601563	34.227180
9541.547872	4845.450000	486.344727	-1.501613
9541.547872	4845.450000	485.088867	-3.653788
9541.547872	4845.450000	483.832031	70.877785
9541.547872	4845.450000	482.575195	78.298096
9541.547872	4845.450000	481.317383	-2.909731
9541.547872	4845.450000	480.059570	129.054443
9541.547872	4845.450000	478.801758	-71.836967
9541.547872	4845.450000	477.543945	50.514359
9541.547872	4845.450000	476.285156	-64.116051
9541.547872	4845.450000	475.027344	-4.025819
9541.547872	4845.450000	473.767578	20.151730
9541.547872	4845.450000	472.508789	-25.036329
9541.547872	4845.450000	471.249023	-36.731155
9541.547872	4845.450000	469.989258	-34.077240
9541.547872	4845.450000	468.729492	90.471283
9541.547872	4845.450000	467.469727	-7.269271
9541.547872	4845.450000	466.208984	71.821075
9541.547872	4845.450000	464.948242	150.874527
9541.547872	4845.450000	463.686523	-28.022257
9541.547872	4845.450000	462.425781	96.374718
9541.547872	4845.450000	461.164063	141.938614
9541.547872	4845.450000	459.901367	46.670555
9541.547872	4845.450000	458.639648	230.601013
9541.547872	4845.450000	457.376953	-7.787613
9541.547872	4845.450000	456.114258	161.747406
9541.547872	4845.450000	454.851563	80.832481
9541.547872	4845.450000	453.587891	38.082218
9541.547872	4845.450000	452.324219	193.163025
9541.547872	4845.450000	451.060547	71.746597
9541.547872	4845.450000	449.796875	21.840965
9541.547872	4845.450000	448.532227	62.449623
9541.547872	4845.450000	447.267578	26.820824
9541.547872	4845.450000	446.002930	-46.903770
9541.547872	4845.450000	444.737305	131.695618
9541.547872	4845.450000	443.471680	43.657597
9541.547872	4845.450000	442.206055	12.738408
9541.547872	4845.450000	440.940430	36.519875
9541.547872	4845.450000	439.673828	-39.624462
9541.547872	4845.450000	438.407227	112.500069
9541.547872	4845.450000	437.140625	50.577141
9541.547872	4845.450000	435.873047	76.585976
9541.547872	4845.450000	434.605469	21.757698
9541.547872	4845.450000	433.337891	-2.198359
9541.547872	4845.450000	432.070313	75.950493
9541.547872	4845.450000	430.801758	173.019485
9541.547872	4845.450000	429.533203	-7.772207
9541.547872	4845.450000	428.264648	93.931900
9541.547872	4845.450000	426.996094	46.037010
9541.547872	4845.450000	425.726563	-9.007852
9541.547872	4845.450000	424.457031	147.034348
9541.547872	4845.450000	423.186523	148.796463
9541.547872	4845.450000	421.916992	67.515091
9541.547872	4845.450000	420.646484	50.208447
9541.547872	4845.450000	419.375977	39.954666
9541.547872	4845.450000	418.104492	58.068134
9541.547872	4845.450000	416.833008	168.493561
9541.547872	4845.450000	415.561523	143.791550
9541.547872	4845.450000	414.290039	-44.369484
9541.547872	4845.450000	413.017578	39.725052
9541.547872	4845.450000	411.746094	-4.115441
9541.547872	4845.450000	410.472656	34.791817
9541.547872	4845.450000	409.200195	14.443828
9541.547872	4845.450000	407.926758	133.562134
9541.547872	4845.450000	406.653320	94.078331
9541.547872	4845.450000	405.379883	-47.163708
9541.547872	4845.450000	404.105469	159.030716
9541.547872	4845.450000	402.831055	71.962212
9541.547872	4845.450000	401.556641	91.139763
9541.547872	4845.450000	400.282227	-81.165535
9541.547872	4845.450000	399.006836	93.657127
9541.547872	4845.450000	397.731445	65.195740
9541.547872	4845.450000	396.456055	187.697037
9541.547872	4845.450000	395.179688	114.089943
9541.547872	4845.450000	393.903320	130.034576
9541.547872	4845.450000	392.626953	228.388550
9541.547872	4845.450000	391.350586	126.042587
9541.547872	4845.450000	390.073242	117.895172
9541.547872	4845.450000	388.795898	-36.602695
9541.547872	4845.450000	387.518555	164.721909
9541.547872	4845.450000	386.240234	174.872543
9541.547872	4845.450000	384.961914	109.424622
9541.547872	4845.450000	383.683594	232.256592
9541.547872	4845.450000	382.405273	121.663788
9541.547872	4845.450000	381.125977	201.622559
9541.547872	4845.450000	379.846680	344.883484
9541.547872	4845.450000	378.567383	261.901978
9541.547872	4845.450000	377.287109	185.769043
9541.547872	4845.450000	376.006836	262.339661
9541.547872	4845.450000	374.726563	157.509628
9541.547872	4845.450000	373.446289	198.257462
9541.547872	4845.450000	372.165039	182.281525
9541.547872	4845.450000	370.883789	34.398647
9541.547872	4845.450000	369.602539	60.191288
9541.547872	4845.450000	368.320313	1.080604
9541.547872	4845.450000	367.039063	-107.636391
9541.547872	4845.450000	365.755859	-108.611862
9541.547872	4845.450000	364.473633	-37.120609
9541.547872	4845.450000	363.190430	144.320908
9541.547872	4845.450000	361.907227	24.920223
9541.547872	4845.450000	360.624023	-12.664660
9541.547872	4845.450000	359.340820	47.924259
9541.547872	4845.450000	358.056641	42.420113
9541.547872	4845.450000	356.772461	170.183823
9541.547872	4845.450000	355.487305	41.932278
9541.547872	4845.450000	354.202148	-70.275795
9541.547872	4845.450000	352.916992	77.249817
9541.547872	4845.450000	351.631836	46.207851
9541.547872	4845.450000	350.346680	28.776781
9541.547872	4845.450000	349.060547	31.947824
9541.547872	4845.450000	347.774414	-12.193661
9541.547872	4845.450000	346.487305	-75.552780
9541.547872	4845.450000	345.200195	-174.501587
9541.547872	4845.450000	343.913086	23.224350
9541.547872	4845.450000	342.625977	-44.018047
9541.547872	4845.450000	341.338867	-57.994232
9541.547872	4845.450000	340.050781	126.205040
9541.547872	4845.450000	338.762695	5.826322
9541.547872	4845.450000	337.473633	134.970184
9541.547872	4845.450000	336.184570	109.211990
9541.547872	4845.450000	334.895508	-99.396957
9541.547872	4845.450000	333.606445	76.830070
9541.547872	4845.450000	332.317383	-16.240374
9541.547872	4845.450000	331.027344	-74.954201
9541.547872	4845.450000	329.736328	-115.693214
9541.547872	4845.450000	328.446289	34.245068
9541.547872	4845.450000	327.155273	-49.963348
9541.547872	4845.450000	325.864258	47.052467
9541.547872	4845.450000	324.573242	-150.608215
9541.547872	4845.450000	323.281250	-141.487366
9541.547872	4845.450000	321.989258	-86.568970
9541.547872	4845.450000	320.697266	58.378857
9541.547872	4845.450000	319.405273	13.659413
9541.547872	4845.450000	318.112305	119.476608
9541.547872	4845.450000	316.819336	40.340443
9541.547872	4845.450000	315.526367	172.212646
9541.547872	4845.450000	314.232422	279.768402
9541.547872	4845.450000	312.938477	104.662941
9541.547872	4845.450000	311.644531	-10.861536
9541.547872	4845.450000	310.349609	2.900254
9541.547872	4845.450000	309.054688	-79.760849
9541.547872	4845.450000	307.759766	90.025375
9541.547872	4845.450000	306.464844	51.709740
9541.547872	4845.450000	305.168945	154.050079
9541.547872	4845.450000	303.873047	145.964462
9541.547872	4845.450000	302.577148	222.672775
9541.547872	4845.450000	301.281250	230.774323
9541.547872	4845.450000	299.984375	246.892029
