#X		#Y		#Wave		#Intensity
9302.947340	4992.350000	1999.946289	13.218297
9302.947340	4992.350000	1998.981445	-8.251088
9302.947340	4992.350000	1998.017578	-122.158165
9302.947340	4992.350000	1997.052734	61.322498
9302.947340	4992.350000	1996.088867	66.314621
9302.947340	4992.350000	1995.124023	-3.037888
9302.947340	4992.350000	1994.159180	-77.345383
9302.947340	4992.350000	1993.193359	86.070572
9302.947340	4992.350000	1992.228516	61.236973
9302.947340	4992.350000	1991.262695	-30.447151
9302.947340	4992.350000	1990.296875	6.571753
9302.947340	4992.350000	1989.331055	21.281977
9302.947340	4992.350000	1988.365234	-6.095037
9302.947340	4992.350000	1987.398438	25.878967
9302.947340	4992.350000	1986.432617	-102.932083
9302.947340	4992.350000	1985.465820	-58.635586
9302.947340	4992.350000	1984.499023	7.871186
9302.947340	4992.350000	1983.532227	27.368973
9302.947340	4992.350000	1982.565430	36.952957
9302.947340	4992.350000	1981.597656	-2.902885
9302.947340	4992.350000	1980.629883	102.983353
9302.947340	4992.350000	1979.662109	26.040813
9302.947340	4992.350000	1978.694336	87.392982
9302.947340	4992.350000	1977.726563	12.911133
9302.947340	4992.350000	1976.758789	22.366194
9302.947340	4992.350000	1975.790039	103.371391
9302.947340	4992.350000	1974.821289	-13.076592
9302.947340	4992.350000	1973.852539	28.395212
9302.947340	4992.350000	1972.883789	25.434418
9302.947340	4992.350000	1971.915039	0.261626
9302.947340	4992.350000	1970.945313	-32.315472
9302.947340	4992.350000	1969.975586	-32.848709
9302.947340	4992.350000	1969.005859	-8.749823
9302.947340	4992.350000	1968.036133	0.538199
9302.947340	4992.350000	1967.066406	103.435150
9302.947340	4992.350000	1966.096680	21.521219
9302.947340	4992.350000	1965.125977	99.716515
9302.947340	4992.350000	1964.155273	116.305214
9302.947340	4992.350000	1963.184570	46.701466
9302.947340	4992.350000	1962.213867	48.496429
9302.947340	4992.350000	1961.242188	111.805939
9302.947340	4992.350000	1960.271484	-29.158821
9302.947340	4992.350000	1959.299805	-51.992695
9302.947340	4992.350000	1958.328125	55.537502
9302.947340	4992.350000	1957.356445	113.829063
9302.947340	4992.350000	1956.384766	147.498489
9302.947340	4992.350000	1955.412109	-5.695187
9302.947340	4992.350000	1954.439453	113.988838
9302.947340	4992.350000	1953.467773	27.188129
9302.947340	4992.350000	1952.495117	136.971191
9302.947340	4992.350000	1951.521484	118.961075
9302.947340	4992.350000	1950.548828	93.578873
9302.947340	4992.350000	1949.575195	-39.853081
9302.947340	4992.350000	1948.601563	37.902390
9302.947340	4992.350000	1947.627930	49.341137
9302.947340	4992.350000	1946.654297	-0.590781
9302.947340	4992.350000	1945.680664	-94.682434
9302.947340	4992.350000	1944.706055	7.522085
9302.947340	4992.350000	1943.732422	99.868515
9302.947340	4992.350000	1942.757813	155.385086
9302.947340	4992.350000	1941.783203	90.724297
9302.947340	4992.350000	1940.807617	-47.467102
9302.947340	4992.350000	1939.833008	47.239445
9302.947340	4992.350000	1938.857422	56.130394
9302.947340	4992.350000	1937.881836	155.667557
9302.947340	4992.350000	1936.906250	117.975914
9302.947340	4992.350000	1935.930664	41.103001
9302.947340	4992.350000	1934.955078	71.999702
9302.947340	4992.350000	1933.978516	-68.506882
9302.947340	4992.350000	1933.001953	33.374435
9302.947340	4992.350000	1932.025391	-14.082250
9302.947340	4992.350000	1931.048828	-68.868462
9302.947340	4992.350000	1930.072266	50.063580
9302.947340	4992.350000	1929.094727	105.347321
9302.947340	4992.350000	1928.118164	160.605026
9302.947340	4992.350000	1927.140625	17.778227
9302.947340	4992.350000	1926.163086	156.140762
9302.947340	4992.350000	1925.184570	50.021118
9302.947340	4992.350000	1924.207031	66.126053
9302.947340	4992.350000	1923.228516	70.003235
9302.947340	4992.350000	1922.250000	-21.398428
9302.947340	4992.350000	1921.271484	-34.612740
9302.947340	4992.350000	1920.292969	10.780837
9302.947340	4992.350000	1919.314453	-19.533976
9302.947340	4992.350000	1918.334961	-22.990477
9302.947340	4992.350000	1917.355469	-31.330919
9302.947340	4992.350000	1916.375977	6.690417
9302.947340	4992.350000	1915.396484	81.289459
9302.947340	4992.350000	1914.416992	97.314705
9302.947340	4992.350000	1913.436523	40.166561
9302.947340	4992.350000	1912.457031	-19.401777
9302.947340	4992.350000	1911.476563	52.693352
9302.947340	4992.350000	1910.496094	41.885963
9302.947340	4992.350000	1909.515625	67.633659
9302.947340	4992.350000	1908.534180	-142.973236
9302.947340	4992.350000	1907.552734	102.037621
9302.947340	4992.350000	1906.572266	-11.079193
9302.947340	4992.350000	1905.590820	9.776037
9302.947340	4992.350000	1904.608398	-81.375870
9302.947340	4992.350000	1903.626953	-48.350063
9302.947340	4992.350000	1902.644531	-5.604456
9302.947340	4992.350000	1901.663086	-1.810639
9302.947340	4992.350000	1900.680664	-129.396515
9302.947340	4992.350000	1899.698242	-69.641228
9302.947340	4992.350000	1898.714844	58.183678
9302.947340	4992.350000	1897.732422	30.342175
9302.947340	4992.350000	1896.749023	-12.078061
9302.947340	4992.350000	1895.765625	-13.164749
9302.947340	4992.350000	1894.782227	14.908078
9302.947340	4992.350000	1893.798828	103.710281
9302.947340	4992.350000	1892.814453	46.722469
9302.947340	4992.350000	1891.831055	-109.826042
9302.947340	4992.350000	1890.846680	27.508577
9302.947340	4992.350000	1889.862305	-82.853088
9302.947340	4992.350000	1888.877930	-23.256725
9302.947340	4992.350000	1887.892578	-19.505432
9302.947340	4992.350000	1886.908203	-122.523705
9302.947340	4992.350000	1885.922852	41.359798
9302.947340	4992.350000	1884.937500	166.370102
9302.947340	4992.350000	1883.952148	46.391735
9302.947340	4992.350000	1882.965820	103.458237
9302.947340	4992.350000	1881.980469	0.501815
9302.947340	4992.350000	1880.994141	154.502625
9302.947340	4992.350000	1880.007813	87.920288
9302.947340	4992.350000	1879.021484	74.663994
9302.947340	4992.350000	1878.035156	22.651705
9302.947340	4992.350000	1877.047852	38.471138
9302.947340	4992.350000	1876.061523	126.928520
9302.947340	4992.350000	1875.074219	24.086262
9302.947340	4992.350000	1874.086914	56.834400
9302.947340	4992.350000	1873.098633	116.189102
9302.947340	4992.350000	1872.111328	100.509109
9302.947340	4992.350000	1871.123047	-16.776270
9302.947340	4992.350000	1870.135742	-59.036816
9302.947340	4992.350000	1869.147461	104.274460
9302.947340	4992.350000	1868.158203	81.344528
9302.947340	4992.350000	1867.169922	104.352203
9302.947340	4992.350000	1866.180664	-44.256870
9302.947340	4992.350000	1865.192383	-76.819016
9302.947340	4992.350000	1864.203125	95.993973
9302.947340	4992.350000	1863.213867	-9.056276
9302.947340	4992.350000	1862.223633	-29.539331
9302.947340	4992.350000	1861.234375	58.645020
9302.947340	4992.350000	1860.244141	-43.933105
9302.947340	4992.350000	1859.253906	3.180315
9302.947340	4992.350000	1858.263672	28.553352
9302.947340	4992.350000	1857.273438	82.868584
9302.947340	4992.350000	1856.282227	110.623558
9302.947340	4992.350000	1855.291992	-25.650106
9302.947340	4992.350000	1854.300781	117.862801
9302.947340	4992.350000	1853.309570	78.076263
9302.947340	4992.350000	1852.317383	91.335220
9302.947340	4992.350000	1851.326172	111.816818
9302.947340	4992.350000	1850.333984	-24.344910
9302.947340	4992.350000	1849.342773	220.207123
9302.947340	4992.350000	1848.350586	86.478500
9302.947340	4992.350000	1847.357422	65.989677
9302.947340	4992.350000	1846.365234	11.795015
9302.947340	4992.350000	1845.372070	-54.420708
9302.947340	4992.350000	1844.379883	158.598785
9302.947340	4992.350000	1843.386719	114.032646
9302.947340	4992.350000	1842.393555	-7.515931
9302.947340	4992.350000	1841.399414	48.995476
9302.947340	4992.350000	1840.406250	52.568039
9302.947340	4992.350000	1839.412109	51.325211
9302.947340	4992.350000	1838.417969	30.845062
9302.947340	4992.350000	1837.423828	-92.996742
9302.947340	4992.350000	1836.429688	4.315854
9302.947340	4992.350000	1835.434570	118.407753
9302.947340	4992.350000	1834.440430	25.839729
9302.947340	4992.350000	1833.445313	113.453949
9302.947340	4992.350000	1832.450195	85.755249
9302.947340	4992.350000	1831.454102	106.084595
9302.947340	4992.350000	1830.458984	11.170015
9302.947340	4992.350000	1829.462891	-50.110714
9302.947340	4992.350000	1828.466797	-32.180466
9302.947340	4992.350000	1827.470703	33.724846
9302.947340	4992.350000	1826.474609	61.218678
9302.947340	4992.350000	1825.478516	136.665710
9302.947340	4992.350000	1824.481445	120.956161
9302.947340	4992.350000	1823.484375	30.925013
9302.947340	4992.350000	1822.487305	60.775791
9302.947340	4992.350000	1821.490234	90.609993
9302.947340	4992.350000	1820.493164	24.581835
9302.947340	4992.350000	1819.495117	-29.448734
9302.947340	4992.350000	1818.498047	115.341888
9302.947340	4992.350000	1817.500000	58.909233
9302.947340	4992.350000	1816.500977	-4.691357
9302.947340	4992.350000	1815.502930	22.695044
9302.947340	4992.350000	1814.504883	28.524557
9302.947340	4992.350000	1813.505859	46.310658
9302.947340	4992.350000	1812.506836	80.831947
9302.947340	4992.350000	1811.507813	29.219221
9302.947340	4992.350000	1810.508789	70.893784
9302.947340	4992.350000	1809.508789	-62.010052
9302.947340	4992.350000	1808.508789	-1.220745
9302.947340	4992.350000	1807.508789	121.686440
9302.947340	4992.350000	1806.508789	158.507568
9302.947340	4992.350000	1805.508789	114.069481
9302.947340	4992.350000	1804.508789	-66.526581
9302.947340	4992.350000	1803.507813	-108.530136
9302.947340	4992.350000	1802.506836	28.576984
9302.947340	4992.350000	1801.505859	105.936546
9302.947340	4992.350000	1800.504883	102.098045
9302.947340	4992.350000	1799.502930	-13.919506
9302.947340	4992.350000	1798.501953	15.659859
9302.947340	4992.350000	1797.500000	64.306358
9302.947340	4992.350000	1796.498047	34.212265
9302.947340	4992.350000	1795.496094	42.280102
9302.947340	4992.350000	1794.493164	12.186804
9302.947340	4992.350000	1793.491211	51.232826
9302.947340	4992.350000	1792.488281	83.105850
9302.947340	4992.350000	1791.485352	17.254042
9302.947340	4992.350000	1790.482422	-81.936432
9302.947340	4992.350000	1789.478516	-42.932945
9302.947340	4992.350000	1788.475586	-46.821705
9302.947340	4992.350000	1787.471680	111.207710
9302.947340	4992.350000	1786.467773	-49.857422
9302.947340	4992.350000	1785.463867	-3.779138
9302.947340	4992.350000	1784.459961	18.474974
9302.947340	4992.350000	1783.455078	-109.192871
9302.947340	4992.350000	1782.450195	12.973659
9302.947340	4992.350000	1781.445313	146.978424
9302.947340	4992.350000	1780.440430	-4.446233
9302.947340	4992.350000	1779.435547	1.102478
9302.947340	4992.350000	1778.429688	-81.315796
9302.947340	4992.350000	1777.424805	47.819099
9302.947340	4992.350000	1776.418945	-8.454278
9302.947340	4992.350000	1775.413086	25.566751
9302.947340	4992.350000	1774.406250	33.436440
9302.947340	4992.350000	1773.400391	65.044647
9302.947340	4992.350000	1772.393555	65.763351
9302.947340	4992.350000	1771.386719	49.854843
9302.947340	4992.350000	1770.379883	109.898178
9302.947340	4992.350000	1769.373047	-53.164074
9302.947340	4992.350000	1768.365234	137.354630
9302.947340	4992.350000	1767.358398	19.403563
9302.947340	4992.350000	1766.350586	15.332897
9302.947340	4992.350000	1765.342773	-33.800594
9302.947340	4992.350000	1764.334961	54.586300
9302.947340	4992.350000	1763.326172	24.408342
9302.947340	4992.350000	1762.318359	58.223064
9302.947340	4992.350000	1761.309570	84.905937
9302.947340	4992.350000	1760.300781	45.235714
9302.947340	4992.350000	1759.291016	-86.805969
9302.947340	4992.350000	1758.282227	63.006443
9302.947340	4992.350000	1757.272461	42.275673
9302.947340	4992.350000	1756.262695	38.114235
9302.947340	4992.350000	1755.252930	93.115120
9302.947340	4992.350000	1754.243164	117.322960
9302.947340	4992.350000	1753.233398	87.096130
9302.947340	4992.350000	1752.222656	85.255562
9302.947340	4992.350000	1751.211914	38.470711
9302.947340	4992.350000	1750.201172	17.704449
9302.947340	4992.350000	1749.190430	84.408401
9302.947340	4992.350000	1748.179688	35.257584
9302.947340	4992.350000	1747.167969	120.818024
9302.947340	4992.350000	1746.156250	-1.587215
9302.947340	4992.350000	1745.144531	-31.825338
9302.947340	4992.350000	1744.132813	152.867538
9302.947340	4992.350000	1743.121094	127.314407
9302.947340	4992.350000	1742.108398	-6.844057
9302.947340	4992.350000	1741.095703	-48.901672
9302.947340	4992.350000	1740.083008	-102.753235
9302.947340	4992.350000	1739.070313	107.681816
9302.947340	4992.350000	1738.057617	86.828987
9302.947340	4992.350000	1737.043945	-37.810223
9302.947340	4992.350000	1736.030273	59.264359
9302.947340	4992.350000	1735.016602	-81.846939
9302.947340	4992.350000	1734.002930	62.325848
9302.947340	4992.350000	1732.989258	50.877678
9302.947340	4992.350000	1731.974609	46.491890
9302.947340	4992.350000	1730.959961	-42.718742
9302.947340	4992.350000	1729.945313	-2.349927
9302.947340	4992.350000	1728.930664	42.703560
9302.947340	4992.350000	1727.916016	10.026184
9302.947340	4992.350000	1726.900391	-79.151146
9302.947340	4992.350000	1725.885742	-50.615688
9302.947340	4992.350000	1724.870117	72.029663
9302.947340	4992.350000	1723.853516	-83.020294
9302.947340	4992.350000	1722.837891	79.554916
9302.947340	4992.350000	1721.822266	4.510100
9302.947340	4992.350000	1720.805664	68.221390
9302.947340	4992.350000	1719.789063	-37.378021
9302.947340	4992.350000	1718.772461	-88.883080
9302.947340	4992.350000	1717.754883	42.931908
9302.947340	4992.350000	1716.738281	101.847008
9302.947340	4992.350000	1715.720703	8.026023
9302.947340	4992.350000	1714.703125	-62.280903
9302.947340	4992.350000	1713.685547	38.858868
9302.947340	4992.350000	1712.667969	57.772991
9302.947340	4992.350000	1711.649414	-94.696175
9302.947340	4992.350000	1710.630859	22.788973
9302.947340	4992.350000	1709.612305	-49.852116
9302.947340	4992.350000	1708.593750	25.329073
9302.947340	4992.350000	1707.575195	-12.120071
9302.947340	4992.350000	1706.555664	11.408888
9302.947340	4992.350000	1705.536133	65.400818
9302.947340	4992.350000	1704.516602	-61.149632
9302.947340	4992.350000	1703.497070	-68.124985
9302.947340	4992.350000	1702.477539	-96.198067
9302.947340	4992.350000	1701.457031	98.309105
9302.947340	4992.350000	1700.437500	63.167377
9302.947340	4992.350000	1699.416992	21.001465
9302.947340	4992.350000	1698.395508	37.380722
9302.947340	4992.350000	1697.375000	-9.465944
9302.947340	4992.350000	1696.354492	-11.830779
9302.947340	4992.350000	1695.333008	58.341843
9302.947340	4992.350000	1694.311523	102.740021
9302.947340	4992.350000	1693.290039	25.464872
9302.947340	4992.350000	1692.267578	-12.030533
9302.947340	4992.350000	1691.246094	-26.134855
9302.947340	4992.350000	1690.223633	-30.892948
9302.947340	4992.350000	1689.201172	-2.932581
9302.947340	4992.350000	1688.178711	-26.408972
9302.947340	4992.350000	1687.155273	-3.154248
9302.947340	4992.350000	1686.132813	3.730375
9302.947340	4992.350000	1685.109375	-29.106424
9302.947340	4992.350000	1684.085938	-80.622452
9302.947340	4992.350000	1683.062500	-17.719490
9302.947340	4992.350000	1682.039063	108.179169
9302.947340	4992.350000	1681.014648	-39.055016
9302.947340	4992.350000	1679.990234	82.112617
9302.947340	4992.350000	1678.965820	-2.085193
9302.947340	4992.350000	1677.941406	14.043022
9302.947340	4992.350000	1676.916992	-28.148176
9302.947340	4992.350000	1675.891602	15.940171
9302.947340	4992.350000	1674.866211	148.591309
9302.947340	4992.350000	1673.840820	164.641251
9302.947340	4992.350000	1672.815430	-50.030281
9302.947340	4992.350000	1671.790039	-10.665901
9302.947340	4992.350000	1670.763672	-13.257499
9302.947340	4992.350000	1669.737305	-32.159721
9302.947340	4992.350000	1668.710938	-6.819994
9302.947340	4992.350000	1667.684570	-11.763877
9302.947340	4992.350000	1666.658203	4.235034
9302.947340	4992.350000	1665.630859	43.490479
9302.947340	4992.350000	1664.603516	36.186920
9302.947340	4992.350000	1663.576172	24.225561
9302.947340	4992.350000	1662.548828	-27.278763
9302.947340	4992.350000	1661.520508	139.817505
9302.947340	4992.350000	1660.493164	-4.703886
9302.947340	4992.350000	1659.464844	69.326897
9302.947340	4992.350000	1658.436523	71.275269
9302.947340	4992.350000	1657.408203	19.771940
9302.947340	4992.350000	1656.378906	-10.812025
9302.947340	4992.350000	1655.350586	-8.871319
9302.947340	4992.350000	1654.321289	90.595383
9302.947340	4992.350000	1653.291992	138.936676
9302.947340	4992.350000	1652.261719	229.034851
9302.947340	4992.350000	1651.232422	172.874649
9302.947340	4992.350000	1650.202148	135.290863
9302.947340	4992.350000	1649.171875	158.036407
9302.947340	4992.350000	1648.141602	9.116765
9302.947340	4992.350000	1647.111328	143.183395
9302.947340	4992.350000	1646.080078	200.673019
9302.947340	4992.350000	1645.049805	149.178833
9302.947340	4992.350000	1644.018555	93.060966
9302.947340	4992.350000	1642.987305	92.574821
9302.947340	4992.350000	1641.955078	168.538437
9302.947340	4992.350000	1640.923828	119.380997
9302.947340	4992.350000	1639.891602	86.446480
9302.947340	4992.350000	1638.859375	148.457108
9302.947340	4992.350000	1637.827148	101.627846
9302.947340	4992.350000	1636.794922	77.958313
9302.947340	4992.350000	1635.761719	248.683517
9302.947340	4992.350000	1634.729492	208.787903
9302.947340	4992.350000	1633.696289	122.634415
9302.947340	4992.350000	1632.662109	196.094757
9302.947340	4992.350000	1631.628906	209.400940
9302.947340	4992.350000	1630.594727	97.849510
9302.947340	4992.350000	1629.561523	351.557251
9302.947340	4992.350000	1628.527344	110.593163
9302.947340	4992.350000	1627.493164	149.302078
9302.947340	4992.350000	1626.458008	164.888229
9302.947340	4992.350000	1625.423828	233.589539
9302.947340	4992.350000	1624.388672	166.011566
9302.947340	4992.350000	1623.353516	186.191101
9302.947340	4992.350000	1622.318359	190.200516
9302.947340	4992.350000	1621.282227	180.355347
9302.947340	4992.350000	1620.247070	278.963409
9302.947340	4992.350000	1619.210938	165.282059
9302.947340	4992.350000	1618.174805	284.604950
9302.947340	4992.350000	1617.137695	161.733948
9302.947340	4992.350000	1616.101563	292.533478
9302.947340	4992.350000	1615.064453	284.964050
9302.947340	4992.350000	1614.027344	254.347153
9302.947340	4992.350000	1612.990234	267.521271
9302.947340	4992.350000	1611.953125	365.931885
9302.947340	4992.350000	1610.916016	176.373032
9302.947340	4992.350000	1609.877930	214.878540
9302.947340	4992.350000	1608.839844	389.217133
9302.947340	4992.350000	1607.801758	326.370850
9302.947340	4992.350000	1606.763672	353.311066
9302.947340	4992.350000	1605.724609	288.189697
9302.947340	4992.350000	1604.685547	220.791138
9302.947340	4992.350000	1603.646484	167.220001
9302.947340	4992.350000	1602.607422	288.455902
9302.947340	4992.350000	1601.568359	405.044922
9302.947340	4992.350000	1600.528320	284.793793
9302.947340	4992.350000	1599.489258	433.515228
9302.947340	4992.350000	1598.449219	471.869934
9302.947340	4992.350000	1597.408203	337.886871
9302.947340	4992.350000	1596.368164	378.541321
9302.947340	4992.350000	1595.327148	407.694275
9302.947340	4992.350000	1594.287109	457.503601
9302.947340	4992.350000	1593.246094	332.810699
9302.947340	4992.350000	1592.204102	249.481445
9302.947340	4992.350000	1591.163086	274.047302
9302.947340	4992.350000	1590.121094	266.480042
9302.947340	4992.350000	1589.079102	428.672882
9302.947340	4992.350000	1588.037109	439.428223
9302.947340	4992.350000	1586.995117	330.938141
9302.947340	4992.350000	1585.953125	174.345825
9302.947340	4992.350000	1584.910156	295.172394
9302.947340	4992.350000	1583.867188	232.611404
9302.947340	4992.350000	1582.824219	241.107315
9302.947340	4992.350000	1581.781250	405.380981
9302.947340	4992.350000	1580.737305	285.578094
9302.947340	4992.350000	1579.693359	259.712921
9302.947340	4992.350000	1578.649414	334.599121
9302.947340	4992.350000	1577.605469	242.355469
9302.947340	4992.350000	1576.561523	184.480179
9302.947340	4992.350000	1575.516602	197.561813
9302.947340	4992.350000	1574.472656	208.355347
9302.947340	4992.350000	1573.427734	262.603668
9302.947340	4992.350000	1572.381836	259.661407
9302.947340	4992.350000	1571.336914	281.875854
9302.947340	4992.350000	1570.291016	217.216919
9302.947340	4992.350000	1569.246094	145.732559
9302.947340	4992.350000	1568.200195	250.226212
9302.947340	4992.350000	1567.153320	187.905579
9302.947340	4992.350000	1566.107422	194.139832
9302.947340	4992.350000	1565.060547	184.387741
9302.947340	4992.350000	1564.013672	179.210449
9302.947340	4992.350000	1562.966797	199.150085
9302.947340	4992.350000	1561.919922	305.816650
9302.947340	4992.350000	1560.872070	316.603485
9302.947340	4992.350000	1559.825195	201.913376
9302.947340	4992.350000	1558.777344	365.554291
9302.947340	4992.350000	1557.729492	203.016495
9302.947340	4992.350000	1556.680664	179.632294
9302.947340	4992.350000	1555.632813	101.553497
9302.947340	4992.350000	1554.583984	167.099319
9302.947340	4992.350000	1553.535156	152.868423
9302.947340	4992.350000	1552.486328	213.833633
9302.947340	4992.350000	1551.436523	101.661232
9302.947340	4992.350000	1550.387695	219.560593
9302.947340	4992.350000	1549.337891	300.986725
9302.947340	4992.350000	1548.288086	343.686707
9302.947340	4992.350000	1547.238281	365.892151
9302.947340	4992.350000	1546.187500	324.375793
9302.947340	4992.350000	1545.136719	317.011230
9302.947340	4992.350000	1544.086914	200.471222
9302.947340	4992.350000	1543.035156	204.517715
9302.947340	4992.350000	1541.984375	376.835846
9302.947340	4992.350000	1540.933594	299.021667
9302.947340	4992.350000	1539.881836	459.902679
9302.947340	4992.350000	1538.830078	450.291321
9302.947340	4992.350000	1537.778320	338.449951
9302.947340	4992.350000	1536.725586	440.188995
9302.947340	4992.350000	1535.673828	405.629730
9302.947340	4992.350000	1534.621094	239.390457
9302.947340	4992.350000	1533.568359	286.628815
9302.947340	4992.350000	1532.515625	213.557800
9302.947340	4992.350000	1531.461914	244.913696
9302.947340	4992.350000	1530.409180	230.889938
9302.947340	4992.350000	1529.355469	126.141045
9302.947340	4992.350000	1528.301758	164.328018
9302.947340	4992.350000	1527.247070	150.353653
9302.947340	4992.350000	1526.193359	174.937180
9302.947340	4992.350000	1525.138672	49.919250
9302.947340	4992.350000	1524.083984	137.985703
9302.947340	4992.350000	1523.029297	214.698685
9302.947340	4992.350000	1521.974609	12.757062
9302.947340	4992.350000	1520.918945	5.683833
9302.947340	4992.350000	1519.863281	98.258545
9302.947340	4992.350000	1518.807617	129.680054
9302.947340	4992.350000	1517.751953	29.815207
9302.947340	4992.350000	1516.696289	81.627502
9302.947340	4992.350000	1515.639648	94.964706
9302.947340	4992.350000	1514.583008	20.082365
9302.947340	4992.350000	1513.526367	108.086578
9302.947340	4992.350000	1512.469727	128.228943
9302.947340	4992.350000	1511.412109	51.157532
9302.947340	4992.350000	1510.355469	93.930588
9302.947340	4992.350000	1509.297852	-3.419021
9302.947340	4992.350000	1508.240234	-71.344307
9302.947340	4992.350000	1507.181641	-19.501814
9302.947340	4992.350000	1506.124023	52.661205
9302.947340	4992.350000	1505.065430	61.578602
9302.947340	4992.350000	1504.006836	11.805125
9302.947340	4992.350000	1502.948242	41.067951
9302.947340	4992.350000	1501.888672	74.844856
9302.947340	4992.350000	1500.830078	-10.964843
9302.947340	4992.350000	1499.770508	76.977600
9302.947340	4992.350000	1498.710938	67.913391
9302.947340	4992.350000	1497.650391	56.609425
9302.947340	4992.350000	1496.590820	31.797909
9302.947340	4992.350000	1495.530273	187.339188
9302.947340	4992.350000	1494.469727	2.526641
9302.947340	4992.350000	1493.409180	11.579639
9302.947340	4992.350000	1492.348633	99.490967
9302.947340	4992.350000	1491.287109	18.454832
9302.947340	4992.350000	1490.225586	-24.252508
9302.947340	4992.350000	1489.164063	5.118076
9302.947340	4992.350000	1488.102539	-51.046101
9302.947340	4992.350000	1487.041016	-5.898738
9302.947340	4992.350000	1485.978516	-32.758739
9302.947340	4992.350000	1484.916016	43.903488
9302.947340	4992.350000	1483.853516	-5.428557
9302.947340	4992.350000	1482.791016	-47.966194
9302.947340	4992.350000	1481.727539	-50.003372
9302.947340	4992.350000	1480.664063	8.665223
9302.947340	4992.350000	1479.600586	87.547501
9302.947340	4992.350000	1478.537109	-38.039547
9302.947340	4992.350000	1477.473633	29.621460
9302.947340	4992.350000	1476.409180	-147.475266
9302.947340	4992.350000	1475.344727	-30.384745
9302.947340	4992.350000	1474.280273	-117.654747
9302.947340	4992.350000	1473.215820	-23.014660
9302.947340	4992.350000	1472.151367	-74.227585
9302.947340	4992.350000	1471.085938	-89.592209
9302.947340	4992.350000	1470.020508	-12.866273
9302.947340	4992.350000	1468.955078	41.288197
9302.947340	4992.350000	1467.888672	39.512989
9302.947340	4992.350000	1466.823242	-2.746197
9302.947340	4992.350000	1465.756836	107.479691
9302.947340	4992.350000	1464.690430	-59.771286
9302.947340	4992.350000	1463.624023	36.766582
9302.947340	4992.350000	1462.556641	-9.706246
9302.947340	4992.350000	1461.490234	100.259659
9302.947340	4992.350000	1460.422852	-1.782510
9302.947340	4992.350000	1459.355469	110.356598
9302.947340	4992.350000	1458.287109	48.373096
9302.947340	4992.350000	1457.219727	44.424297
9302.947340	4992.350000	1456.151367	154.409714
9302.947340	4992.350000	1455.083008	201.485413
9302.947340	4992.350000	1454.014648	-53.499912
9302.947340	4992.350000	1452.945313	-37.446243
9302.947340	4992.350000	1451.876953	139.278152
9302.947340	4992.350000	1450.807617	55.044155
9302.947340	4992.350000	1449.738281	31.132721
9302.947340	4992.350000	1448.668945	69.049294
9302.947340	4992.350000	1447.598633	59.868568
9302.947340	4992.350000	1446.528320	138.709366
9302.947340	4992.350000	1445.458008	52.335880
9302.947340	4992.350000	1444.387695	72.679825
9302.947340	4992.350000	1443.317383	72.085983
9302.947340	4992.350000	1442.246094	-13.914829
9302.947340	4992.350000	1441.174805	66.766335
9302.947340	4992.350000	1440.103516	-12.306522
9302.947340	4992.350000	1439.032227	43.229935
9302.947340	4992.350000	1437.960938	118.215111
9302.947340	4992.350000	1436.888672	58.908909
9302.947340	4992.350000	1435.816406	14.914828
9302.947340	4992.350000	1434.744141	21.052729
9302.947340	4992.350000	1433.670898	42.706112
9302.947340	4992.350000	1432.598633	5.369340
9302.947340	4992.350000	1431.525391	84.423164
9302.947340	4992.350000	1430.452148	-117.568588
9302.947340	4992.350000	1429.378906	-88.884682
9302.947340	4992.350000	1428.304688	0.886788
9302.947340	4992.350000	1427.231445	-91.716553
9302.947340	4992.350000	1426.157227	-104.814278
9302.947340	4992.350000	1425.083008	3.385883
9302.947340	4992.350000	1424.007813	-25.882330
9302.947340	4992.350000	1422.933594	88.417091
9302.947340	4992.350000	1421.858398	-1.483704
9302.947340	4992.350000	1420.783203	-57.612865
9302.947340	4992.350000	1419.708008	-138.077789
9302.947340	4992.350000	1418.631836	-51.462513
9302.947340	4992.350000	1417.555664	17.293627
9302.947340	4992.350000	1416.479492	-83.434837
9302.947340	4992.350000	1415.403320	11.893606
9302.947340	4992.350000	1414.327148	26.044598
9302.947340	4992.350000	1413.250000	1.778906
9302.947340	4992.350000	1412.173828	-96.224770
9302.947340	4992.350000	1411.096680	-25.950258
9302.947340	4992.350000	1410.018555	-53.603546
9302.947340	4992.350000	1408.941406	38.176075
9302.947340	4992.350000	1407.863281	-26.920311
9302.947340	4992.350000	1406.785156	-53.221878
9302.947340	4992.350000	1405.707031	-6.752066
9302.947340	4992.350000	1404.628906	-36.728653
9302.947340	4992.350000	1403.549805	14.423250
9302.947340	4992.350000	1402.470703	10.391963
9302.947340	4992.350000	1401.391602	39.190174
9302.947340	4992.350000	1400.312500	34.287594
9302.947340	4992.350000	1399.233398	77.026505
9302.947340	4992.350000	1398.153320	-19.070866
9302.947340	4992.350000	1397.073242	99.994743
9302.947340	4992.350000	1395.993164	103.784355
9302.947340	4992.350000	1394.913086	142.588470
9302.947340	4992.350000	1393.832031	101.338570
9302.947340	4992.350000	1392.750977	69.291168
9302.947340	4992.350000	1391.669922	66.352966
9302.947340	4992.350000	1390.588867	130.281769
9302.947340	4992.350000	1389.506836	206.951492
9302.947340	4992.350000	1388.425781	123.669868
9302.947340	4992.350000	1387.343750	67.163818
9302.947340	4992.350000	1386.261719	144.448517
9302.947340	4992.350000	1385.178711	3.033214
9302.947340	4992.350000	1384.096680	65.483299
9302.947340	4992.350000	1383.013672	-17.018118
9302.947340	4992.350000	1381.930664	-26.378311
9302.947340	4992.350000	1380.846680	-27.319403
9302.947340	4992.350000	1379.763672	97.951874
9302.947340	4992.350000	1378.679688	90.378525
9302.947340	4992.350000	1377.595703	60.540516
9302.947340	4992.350000	1376.511719	85.274704
9302.947340	4992.350000	1375.427734	74.951164
9302.947340	4992.350000	1374.342773	115.812706
9302.947340	4992.350000	1373.257813	39.370369
9302.947340	4992.350000	1372.172852	-113.602959
9302.947340	4992.350000	1371.087891	-52.714264
9302.947340	4992.350000	1370.001953	62.883827
9302.947340	4992.350000	1368.916992	12.425621
9302.947340	4992.350000	1367.831055	37.125465
9302.947340	4992.350000	1366.744141	136.503860
9302.947340	4992.350000	1365.658203	146.829666
9302.947340	4992.350000	1364.571289	82.472603
9302.947340	4992.350000	1363.484375	105.663254
9302.947340	4992.350000	1362.397461	-19.328432
9302.947340	4992.350000	1361.310547	111.601486
9302.947340	4992.350000	1360.222656	107.044182
9302.947340	4992.350000	1359.135742	97.216034
9302.947340	4992.350000	1358.047852	75.665695
9302.947340	4992.350000	1356.958984	33.838455
9302.947340	4992.350000	1355.871094	26.817287
9302.947340	4992.350000	1354.782227	16.419977
9302.947340	4992.350000	1353.693359	43.515114
9302.947340	4992.350000	1352.604492	64.408279
9302.947340	4992.350000	1351.515625	195.748810
9302.947340	4992.350000	1350.425781	-5.955956
9302.947340	4992.350000	1349.335938	175.814819
9302.947340	4992.350000	1348.246094	59.915565
9302.947340	4992.350000	1347.156250	104.715813
9302.947340	4992.350000	1346.066406	64.715958
9302.947340	4992.350000	1344.975586	159.003983
9302.947340	4992.350000	1343.884766	166.120667
9302.947340	4992.350000	1342.793945	126.801765
9302.947340	4992.350000	1341.702148	132.937042
9302.947340	4992.350000	1340.611328	62.208611
9302.947340	4992.350000	1339.519531	24.509886
9302.947340	4992.350000	1338.427734	57.842995
9302.947340	4992.350000	1337.334961	80.049431
9302.947340	4992.350000	1336.243164	88.442993
9302.947340	4992.350000	1335.150391	158.281494
9302.947340	4992.350000	1334.057617	41.223724
9302.947340	4992.350000	1332.964844	191.504929
9302.947340	4992.350000	1331.871094	168.033066
9302.947340	4992.350000	1330.778320	141.185287
9302.947340	4992.350000	1329.684570	183.996368
9302.947340	4992.350000	1328.590820	91.730988
9302.947340	4992.350000	1327.496094	159.171188
9302.947340	4992.350000	1326.402344	72.291145
9302.947340	4992.350000	1325.307617	-2.263396
9302.947340	4992.350000	1324.212891	61.644245
9302.947340	4992.350000	1323.117188	38.358662
9302.947340	4992.350000	1322.022461	89.264061
9302.947340	4992.350000	1320.926758	41.739708
9302.947340	4992.350000	1319.831055	25.372408
9302.947340	4992.350000	1318.735352	157.945251
9302.947340	4992.350000	1317.638672	111.627586
9302.947340	4992.350000	1316.542969	118.970970
9302.947340	4992.350000	1315.446289	52.930481
9302.947340	4992.350000	1314.349609	136.077713
9302.947340	4992.350000	1313.251953	103.147011
9302.947340	4992.350000	1312.155273	99.153694
9302.947340	4992.350000	1311.057617	105.647163
9302.947340	4992.350000	1309.959961	44.943592
9302.947340	4992.350000	1308.862305	46.244026
9302.947340	4992.350000	1307.763672	129.683762
9302.947340	4992.350000	1306.665039	-20.865423
9302.947340	4992.350000	1305.566406	113.050453
9302.947340	4992.350000	1304.467773	-84.542381
9302.947340	4992.350000	1303.369141	-42.459492
9302.947340	4992.350000	1302.269531	-24.748137
9302.947340	4992.350000	1301.169922	33.322777
9302.947340	4992.350000	1300.070313	-72.274239
9302.947340	4992.350000	1298.970703	-48.535404
9302.947340	4992.350000	1297.870117	53.792347
9302.947340	4992.350000	1296.769531	88.698845
9302.947340	4992.350000	1295.668945	54.295773
9302.947340	4992.350000	1294.568359	39.945286
9302.947340	4992.350000	1293.466797	7.312126
9302.947340	4992.350000	1292.366211	14.424789
9302.947340	4992.350000	1291.264648	62.460079
9302.947340	4992.350000	1290.162109	-19.987391
9302.947340	4992.350000	1289.060547	58.745575
9302.947340	4992.350000	1287.958008	83.991112
9302.947340	4992.350000	1286.855469	44.619308
9302.947340	4992.350000	1285.752930	-42.581406
9302.947340	4992.350000	1284.650391	-40.820656
9302.947340	4992.350000	1283.546875	35.451157
9302.947340	4992.350000	1282.444336	16.879511
9302.947340	4992.350000	1281.339844	26.531984
9302.947340	4992.350000	1280.236328	47.755245
9302.947340	4992.350000	1279.132813	6.945091
9302.947340	4992.350000	1278.028320	56.181923
9302.947340	4992.350000	1276.923828	40.454384
9302.947340	4992.350000	1275.819336	-5.441784
9302.947340	4992.350000	1274.713867	-12.292360
9302.947340	4992.350000	1273.608398	30.953276
9302.947340	4992.350000	1272.503906	28.324718
9302.947340	4992.350000	1271.397461	44.028461
9302.947340	4992.350000	1270.291992	117.230736
9302.947340	4992.350000	1269.185547	-100.176422
9302.947340	4992.350000	1268.080078	-24.531668
9302.947340	4992.350000	1266.972656	-13.828606
9302.947340	4992.350000	1265.866211	53.669697
9302.947340	4992.350000	1264.759766	44.024189
9302.947340	4992.350000	1263.652344	60.877872
9302.947340	4992.350000	1262.544922	-43.646450
9302.947340	4992.350000	1261.436523	-71.352043
9302.947340	4992.350000	1260.329102	-80.486870
9302.947340	4992.350000	1259.220703	-71.789604
9302.947340	4992.350000	1258.112305	-26.757124
9302.947340	4992.350000	1257.003906	-58.536068
9302.947340	4992.350000	1255.895508	-15.059218
9302.947340	4992.350000	1254.786133	-33.994553
9302.947340	4992.350000	1253.676758	-193.725677
9302.947340	4992.350000	1252.567383	-111.511559
9302.947340	4992.350000	1251.458008	-54.352837
9302.947340	4992.350000	1250.347656	-103.033188
9302.947340	4992.350000	1249.237305	-87.862526
9302.947340	4992.350000	1248.126953	-67.029984
9302.947340	4992.350000	1247.016602	-151.142899
9302.947340	4992.350000	1245.905273	-64.691704
9302.947340	4992.350000	1244.793945	-149.346451
9302.947340	4992.350000	1243.682617	-92.213272
9302.947340	4992.350000	1242.571289	-85.434647
9302.947340	4992.350000	1241.459961	-7.269299
9302.947340	4992.350000	1240.347656	-10.295532
9302.947340	4992.350000	1239.235352	54.594173
9302.947340	4992.350000	1238.123047	-22.114019
9302.947340	4992.350000	1237.009766	12.183479
9302.947340	4992.350000	1235.897461	-18.937811
9302.947340	4992.350000	1234.784180	-92.640648
9302.947340	4992.350000	1233.670898	50.986172
9302.947340	4992.350000	1232.556641	65.372925
9302.947340	4992.350000	1231.443359	68.337273
9302.947340	4992.350000	1230.329102	139.613968
9302.947340	4992.350000	1229.214844	94.960365
9302.947340	4992.350000	1228.099609	66.916153
9302.947340	4992.350000	1226.985352	33.576298
9302.947340	4992.350000	1225.870117	58.434853
9302.947340	4992.350000	1224.754883	46.429352
9302.947340	4992.350000	1223.639648	64.909241
9302.947340	4992.350000	1222.523438	57.169571
9302.947340	4992.350000	1221.408203	54.415157
9302.947340	4992.350000	1220.291992	20.610771
9302.947340	4992.350000	1219.174805	46.496490
9302.947340	4992.350000	1218.058594	79.062767
9302.947340	4992.350000	1216.941406	-16.908724
9302.947340	4992.350000	1215.824219	-7.023907
9302.947340	4992.350000	1214.707031	5.248300
9302.947340	4992.350000	1213.589844	65.562027
9302.947340	4992.350000	1212.471680	61.658630
9302.947340	4992.350000	1211.353516	84.138222
9302.947340	4992.350000	1210.235352	-38.863861
9302.947340	4992.350000	1209.117188	10.067502
9302.947340	4992.350000	1207.998047	61.244709
9302.947340	4992.350000	1206.878906	32.077206
9302.947340	4992.350000	1205.759766	75.764534
9302.947340	4992.350000	1204.640625	11.773815
9302.947340	4992.350000	1203.520508	30.157446
9302.947340	4992.350000	1202.401367	-37.542870
9302.947340	4992.350000	1201.281250	10.892799
9302.947340	4992.350000	1200.160156	47.516300
9302.947340	4992.350000	1199.040039	34.426220
9302.947340	4992.350000	1197.918945	36.618866
9302.947340	4992.350000	1196.797852	33.623554
9302.947340	4992.350000	1195.676758	65.196472
9302.947340	4992.350000	1194.555664	19.703196
9302.947340	4992.350000	1193.433594	79.450012
9302.947340	4992.350000	1192.311523	-46.555729
9302.947340	4992.350000	1191.189453	87.523720
9302.947340	4992.350000	1190.066406	0.019054
9302.947340	4992.350000	1188.944336	-40.797520
9302.947340	4992.350000	1187.821289	47.878880
9302.947340	4992.350000	1186.698242	4.803660
9302.947340	4992.350000	1185.574219	-19.919041
9302.947340	4992.350000	1184.451172	-72.601715
9302.947340	4992.350000	1183.327148	1.303908
9302.947340	4992.350000	1182.203125	-24.277317
9302.947340	4992.350000	1181.078125	-24.058884
9302.947340	4992.350000	1179.954102	36.992435
9302.947340	4992.350000	1178.829102	6.483983
9302.947340	4992.350000	1177.704102	13.090135
9302.947340	4992.350000	1176.579102	-78.731003
9302.947340	4992.350000	1175.453125	22.468929
9302.947340	4992.350000	1174.327148	-88.546318
9302.947340	4992.350000	1173.201172	-52.128216
9302.947340	4992.350000	1172.075195	-77.759811
9302.947340	4992.350000	1170.949219	-32.041092
9302.947340	4992.350000	1169.822266	-36.153854
9302.947340	4992.350000	1168.695313	-22.879974
9302.947340	4992.350000	1167.568359	-73.486687
9302.947340	4992.350000	1166.440430	-49.765640
9302.947340	4992.350000	1165.313477	-25.847078
9302.947340	4992.350000	1164.185547	-23.871065
9302.947340	4992.350000	1163.057617	-55.922436
9302.947340	4992.350000	1161.928711	-95.637344
9302.947340	4992.350000	1160.800781	-5.195795
9302.947340	4992.350000	1159.671875	22.215000
9302.947340	4992.350000	1158.541992	10.373213
9302.947340	4992.350000	1157.413086	128.454102
9302.947340	4992.350000	1156.283203	159.531647
9302.947340	4992.350000	1155.154297	137.879517
9302.947340	4992.350000	1154.023438	196.280853
9302.947340	4992.350000	1152.893555	240.721298
9302.947340	4992.350000	1151.763672	192.021225
9302.947340	4992.350000	1150.632813	120.929214
9302.947340	4992.350000	1149.501953	157.860016
9302.947340	4992.350000	1148.370117	137.070221
9302.947340	4992.350000	1147.239258	102.457382
9302.947340	4992.350000	1146.107422	136.194031
9302.947340	4992.350000	1144.975586	144.505234
9302.947340	4992.350000	1143.843750	17.586195
9302.947340	4992.350000	1142.710938	210.962540
9302.947340	4992.350000	1141.578125	158.453140
9302.947340	4992.350000	1140.445313	77.332275
9302.947340	4992.350000	1139.312500	117.803452
9302.947340	4992.350000	1138.178711	113.197952
9302.947340	4992.350000	1137.045898	52.044785
9302.947340	4992.350000	1135.912109	-9.462394
9302.947340	4992.350000	1134.777344	-4.149396
9302.947340	4992.350000	1133.643555	18.211082
9302.947340	4992.350000	1132.508789	7.633946
9302.947340	4992.350000	1131.374023	15.424452
9302.947340	4992.350000	1130.239258	-4.599141
9302.947340	4992.350000	1129.104492	85.725418
9302.947340	4992.350000	1127.968750	56.724468
9302.947340	4992.350000	1126.833008	-3.365059
9302.947340	4992.350000	1125.697266	-43.300587
9302.947340	4992.350000	1124.560547	-54.816345
9302.947340	4992.350000	1123.424805	-17.758612
9302.947340	4992.350000	1122.288086	2.903016
9302.947340	4992.350000	1121.151367	11.675538
9302.947340	4992.350000	1120.013672	44.401352
9302.947340	4992.350000	1118.876953	100.740364
9302.947340	4992.350000	1117.739258	57.852299
9302.947340	4992.350000	1116.601563	-80.474792
9302.947340	4992.350000	1115.462891	68.734024
9302.947340	4992.350000	1114.324219	35.593227
9302.947340	4992.350000	1113.186523	-5.714297
9302.947340	4992.350000	1112.046875	-18.324417
9302.947340	4992.350000	1110.908203	-41.509628
9302.947340	4992.350000	1109.769531	7.744549
9302.947340	4992.350000	1108.629883	43.221111
9302.947340	4992.350000	1107.490234	-103.243477
9302.947340	4992.350000	1106.349609	-16.543470
9302.947340	4992.350000	1105.209961	-50.820015
9302.947340	4992.350000	1104.069336	-100.930420
9302.947340	4992.350000	1102.928711	-48.304768
9302.947340	4992.350000	1101.787109	47.105263
9302.947340	4992.350000	1100.646484	-56.731030
9302.947340	4992.350000	1099.504883	1.611693
9302.947340	4992.350000	1098.363281	-50.404530
9302.947340	4992.350000	1097.221680	-14.993378
9302.947340	4992.350000	1096.079102	-26.683222
9302.947340	4992.350000	1094.936523	63.096901
9302.947340	4992.350000	1093.793945	61.472668
9302.947340	4992.350000	1092.651367	55.467953
9302.947340	4992.350000	1091.507813	-23.400967
9302.947340	4992.350000	1090.364258	77.674950
9302.947340	4992.350000	1089.220703	24.785990
9302.947340	4992.350000	1088.077148	56.151833
9302.947340	4992.350000	1086.933594	116.453094
9302.947340	4992.350000	1085.789063	41.494835
9302.947340	4992.350000	1084.644531	-21.757359
9302.947340	4992.350000	1083.499023	-4.329257
9302.947340	4992.350000	1082.354492	-42.806400
9302.947340	4992.350000	1081.208984	38.624928
9302.947340	4992.350000	1080.063477	103.491890
9302.947340	4992.350000	1078.917969	-10.632062
9302.947340	4992.350000	1077.771484	86.292442
9302.947340	4992.350000	1076.625977	78.802528
9302.947340	4992.350000	1075.479492	52.992588
9302.947340	4992.350000	1074.332031	100.365479
9302.947340	4992.350000	1073.185547	10.615393
9302.947340	4992.350000	1072.038086	135.844208
9302.947340	4992.350000	1070.890625	90.037697
9302.947340	4992.350000	1069.743164	20.329380
9302.947340	4992.350000	1068.594727	99.232666
9302.947340	4992.350000	1067.447266	79.567093
9302.947340	4992.350000	1066.298828	198.348282
9302.947340	4992.350000	1065.149414	41.370609
9302.947340	4992.350000	1064.000977	80.711746
9302.947340	4992.350000	1062.851563	41.400429
9302.947340	4992.350000	1061.702148	140.189346
9302.947340	4992.350000	1060.552734	101.386620
9302.947340	4992.350000	1059.402344	48.159130
9302.947340	4992.350000	1058.252930	81.077347
9302.947340	4992.350000	1057.102539	166.385483
9302.947340	4992.350000	1055.951172	104.940422
9302.947340	4992.350000	1054.800781	-4.078164
9302.947340	4992.350000	1053.649414	1.904437
9302.947340	4992.350000	1052.498047	67.738922
9302.947340	4992.350000	1051.346680	18.417736
9302.947340	4992.350000	1050.194336	55.991737
9302.947340	4992.350000	1049.042969	87.445625
9302.947340	4992.350000	1047.890625	-10.449197
9302.947340	4992.350000	1046.738281	11.266183
9302.947340	4992.350000	1045.584961	82.011490
9302.947340	4992.350000	1044.431641	44.663387
9302.947340	4992.350000	1043.278320	98.977264
9302.947340	4992.350000	1042.125000	7.322277
9302.947340	4992.350000	1040.971680	95.115921
9302.947340	4992.350000	1039.817383	-27.351517
9302.947340	4992.350000	1038.663086	128.722961
9302.947340	4992.350000	1037.508789	128.042007
9302.947340	4992.350000	1036.353516	81.289429
9302.947340	4992.350000	1035.198242	66.456505
9302.947340	4992.350000	1034.042969	3.794721
9302.947340	4992.350000	1032.887695	16.780663
9302.947340	4992.350000	1031.732422	78.776909
9302.947340	4992.350000	1030.576172	199.303665
9302.947340	4992.350000	1029.419922	3.042170
9302.947340	4992.350000	1028.263672	2.167038
9302.947340	4992.350000	1027.106445	52.236027
9302.947340	4992.350000	1025.949219	56.813984
9302.947340	4992.350000	1024.792969	50.987518
9302.947340	4992.350000	1023.634766	36.757927
9302.947340	4992.350000	1022.477539	50.167210
9302.947340	4992.350000	1021.319336	-21.118916
9302.947340	4992.350000	1020.161133	67.371681
9302.947340	4992.350000	1019.002930	13.662000
9302.947340	4992.350000	1017.843750	-13.290128
9302.947340	4992.350000	1016.684570	67.135902
9302.947340	4992.350000	1015.525391	24.633251
9302.947340	4992.350000	1014.366211	53.537907
9302.947340	4992.350000	1013.207031	43.716621
9302.947340	4992.350000	1012.046875	8.444815
9302.947340	4992.350000	1010.886719	-16.202997
9302.947340	4992.350000	1009.726563	-26.574419
9302.947340	4992.350000	1008.565430	-38.125984
9302.947340	4992.350000	1007.404297	30.844543
9302.947340	4992.350000	1006.243164	20.104061
9302.947340	4992.350000	1005.082031	-101.601517
9302.947340	4992.350000	1003.920898	124.900955
9302.947340	4992.350000	1002.758789	6.003300
9302.947340	4992.350000	1001.596680	63.349937
9302.947340	4992.350000	1000.433594	-40.462505
9302.947340	4992.350000	999.271484	-28.602932
9302.947340	4992.350000	998.108398	41.140152
9302.947340	4992.350000	996.945313	61.875088
9302.947340	4992.350000	995.782227	7.945931
9302.947340	4992.350000	994.618164	-42.986763
9302.947340	4992.350000	993.454102	140.128723
9302.947340	4992.350000	992.290039	126.049797
9302.947340	4992.350000	991.125977	37.281410
9302.947340	4992.350000	989.960938	131.938904
9302.947340	4992.350000	988.796875	109.507133
9302.947340	4992.350000	987.630859	66.962341
9302.947340	4992.350000	986.465820	84.631401
9302.947340	4992.350000	985.300781	127.270775
9302.947340	4992.350000	984.134766	157.467941
9302.947340	4992.350000	982.968750	117.994446
9302.947340	4992.350000	981.801758	95.334969
9302.947340	4992.350000	980.635742	106.420525
9302.947340	4992.350000	979.468750	36.203781
9302.947340	4992.350000	978.301758	81.995392
9302.947340	4992.350000	977.133789	92.997536
9302.947340	4992.350000	975.966797	74.320976
9302.947340	4992.350000	974.798828	65.604362
9302.947340	4992.350000	973.630859	-34.561588
9302.947340	4992.350000	972.461914	36.380001
9302.947340	4992.350000	971.293945	35.104427
9302.947340	4992.350000	970.125000	44.795444
9302.947340	4992.350000	968.956055	-31.840488
9302.947340	4992.350000	967.786133	-16.766525
9302.947340	4992.350000	966.617188	-15.399843
9302.947340	4992.350000	965.447266	-23.324327
9302.947340	4992.350000	964.276367	4.854378
9302.947340	4992.350000	963.106445	2.310694
9302.947340	4992.350000	961.935547	-88.928467
9302.947340	4992.350000	960.764648	-59.012287
9302.947340	4992.350000	959.593750	-34.219250
9302.947340	4992.350000	958.422852	-2.809756
9302.947340	4992.350000	957.250977	-115.582474
9302.947340	4992.350000	956.079102	2.580521
9302.947340	4992.350000	954.907227	63.480354
9302.947340	4992.350000	953.734375	-81.451202
9302.947340	4992.350000	952.562500	-81.840851
9302.947340	4992.350000	951.389648	-17.249952
9302.947340	4992.350000	950.215820	13.300827
9302.947340	4992.350000	949.042969	93.216553
9302.947340	4992.350000	947.869141	83.957069
9302.947340	4992.350000	946.695313	58.270752
9302.947340	4992.350000	945.521484	14.680148
9302.947340	4992.350000	944.346680	40.204391
9302.947340	4992.350000	943.172852	87.805984
9302.947340	4992.350000	941.998047	161.340469
9302.947340	4992.350000	940.822266	63.576740
9302.947340	4992.350000	939.647461	0.394552
9302.947340	4992.350000	938.471680	19.865490
9302.947340	4992.350000	937.295898	-47.616776
9302.947340	4992.350000	936.119141	-67.357368
9302.947340	4992.350000	934.943359	-87.155418
9302.947340	4992.350000	933.766602	-0.628119
9302.947340	4992.350000	932.589844	-50.738708
9302.947340	4992.350000	931.413086	14.078095
9302.947340	4992.350000	930.235352	-12.206004
9302.947340	4992.350000	929.057617	39.563690
9302.947340	4992.350000	927.879883	-30.052176
9302.947340	4992.350000	926.702148	8.695514
9302.947340	4992.350000	925.523438	43.070919
9302.947340	4992.350000	924.344727	164.117188
9302.947340	4992.350000	923.166016	61.982864
9302.947340	4992.350000	921.987305	5.369200
9302.947340	4992.350000	920.807617	-10.082462
9302.947340	4992.350000	919.627930	-9.632177
9302.947340	4992.350000	919.497070	2.662390
9302.947340	4992.350000	918.331055	45.645710
9302.947340	4992.350000	917.165039	112.412155
9302.947340	4992.350000	915.999023	47.160301
9302.947340	4992.350000	914.833008	74.950050
9302.947340	4992.350000	913.666016	50.816269
9302.947340	4992.350000	912.499023	20.200089
9302.947340	4992.350000	911.332031	-60.133263
9302.947340	4992.350000	910.165039	25.996719
9302.947340	4992.350000	908.997070	-78.085808
9302.947340	4992.350000	907.830078	-147.561127
9302.947340	4992.350000	906.661133	-48.517750
9302.947340	4992.350000	905.493164	67.758011
9302.947340	4992.350000	904.325195	-42.744167
9302.947340	4992.350000	903.156250	-69.009972
9302.947340	4992.350000	901.987305	-67.209808
9302.947340	4992.350000	900.818359	-13.622887
9302.947340	4992.350000	899.648438	-33.418011
9302.947340	4992.350000	898.478516	-63.994583
9302.947340	4992.350000	897.308594	-8.296121
9302.947340	4992.350000	896.138672	75.406700
9302.947340	4992.350000	894.968750	115.955757
9302.947340	4992.350000	893.797852	-11.631486
9302.947340	4992.350000	892.626953	18.137421
9302.947340	4992.350000	891.456055	13.419298
9302.947340	4992.350000	890.284180	51.780174
9302.947340	4992.350000	889.113281	83.661217
9302.947340	4992.350000	887.941406	50.931702
9302.947340	4992.350000	886.768555	125.848053
9302.947340	4992.350000	885.596680	37.158077
9302.947340	4992.350000	884.423828	15.208100
9302.947340	4992.350000	883.250977	8.323600
9302.947340	4992.350000	882.078125	-24.372305
9302.947340	4992.350000	880.905273	22.511078
9302.947340	4992.350000	879.731445	-31.680708
9302.947340	4992.350000	878.557617	2.281878
9302.947340	4992.350000	877.383789	29.780249
9302.947340	4992.350000	876.209961	37.926041
9302.947340	4992.350000	875.035156	20.286463
9302.947340	4992.350000	873.860352	-38.157963
9302.947340	4992.350000	872.685547	-49.337593
9302.947340	4992.350000	871.510742	111.244209
9302.947340	4992.350000	870.334961	24.904894
9302.947340	4992.350000	869.159180	5.127908
9302.947340	4992.350000	867.983398	-1.768818
9302.947340	4992.350000	866.807617	70.708420
9302.947340	4992.350000	865.630859	5.887316
9302.947340	4992.350000	864.454102	37.586765
9302.947340	4992.350000	863.277344	-31.492735
9302.947340	4992.350000	862.100586	-70.537415
9302.947340	4992.350000	860.922852	-30.275517
9302.947340	4992.350000	859.745117	82.816223
9302.947340	4992.350000	858.567383	15.918752
9302.947340	4992.350000	857.389648	141.801407
9302.947340	4992.350000	856.210938	-4.311185
9302.947340	4992.350000	855.032227	65.858871
9302.947340	4992.350000	853.853516	26.838236
9302.947340	4992.350000	852.674805	-72.086685
9302.947340	4992.350000	851.495117	-59.717628
9302.947340	4992.350000	850.315430	110.936668
9302.947340	4992.350000	849.135742	9.912138
9302.947340	4992.350000	847.956055	71.430977
9302.947340	4992.350000	846.775391	17.483912
9302.947340	4992.350000	845.595703	16.990707
9302.947340	4992.350000	844.415039	136.161789
9302.947340	4992.350000	843.233398	82.230820
9302.947340	4992.350000	842.052734	-37.895382
9302.947340	4992.350000	840.871094	-125.940224
9302.947340	4992.350000	839.689453	20.913712
9302.947340	4992.350000	838.506836	37.490398
9302.947340	4992.350000	837.325195	-29.176634
9302.947340	4992.350000	836.142578	47.147427
9302.947340	4992.350000	834.959961	21.037586
9302.947340	4992.350000	833.777344	46.127155
9302.947340	4992.350000	832.593750	-11.961327
9302.947340	4992.350000	831.410156	-74.291290
9302.947340	4992.350000	830.226563	33.931946
9302.947340	4992.350000	829.042969	-4.941261
9302.947340	4992.350000	827.858398	-1.184872
9302.947340	4992.350000	826.673828	-76.251968
9302.947340	4992.350000	825.489258	2.060332
9302.947340	4992.350000	824.304688	-2.708172
9302.947340	4992.350000	823.120117	-9.604846
9302.947340	4992.350000	821.934570	-61.198826
9302.947340	4992.350000	820.749023	93.652748
9302.947340	4992.350000	819.562500	-72.837044
9302.947340	4992.350000	818.376953	56.424171
9302.947340	4992.350000	817.190430	-99.357651
9302.947340	4992.350000	816.003906	-6.294546
9302.947340	4992.350000	814.817383	3.818805
9302.947340	4992.350000	813.629883	35.181797
9302.947340	4992.350000	812.442383	32.529816
9302.947340	4992.350000	811.254883	102.113815
9302.947340	4992.350000	810.067383	-117.216125
9302.947340	4992.350000	808.878906	-66.745964
9302.947340	4992.350000	807.690430	47.400295
9302.947340	4992.350000	806.501953	-23.188257
9302.947340	4992.350000	805.313477	-15.220387
9302.947340	4992.350000	804.124023	30.937847
9302.947340	4992.350000	802.934570	77.075539
9302.947340	4992.350000	801.745117	-57.098366
9302.947340	4992.350000	800.555664	31.448086
9302.947340	4992.350000	799.365234	-132.346725
9302.947340	4992.350000	798.175781	13.409114
9302.947340	4992.350000	796.985352	-48.590206
9302.947340	4992.350000	795.793945	-13.096693
9302.947340	4992.350000	794.603516	-11.515042
9302.947340	4992.350000	793.412109	-9.935522
9302.947340	4992.350000	792.220703	-14.711141
9302.947340	4992.350000	791.028320	-25.837868
9302.947340	4992.350000	789.836914	-7.328552
9302.947340	4992.350000	788.644531	-1.526164
9302.947340	4992.350000	787.452148	-78.244652
9302.947340	4992.350000	786.258789	-91.472191
9302.947340	4992.350000	785.066406	17.969301
9302.947340	4992.350000	783.873047	55.470715
9302.947340	4992.350000	782.679688	135.235199
9302.947340	4992.350000	781.485352	9.943982
9302.947340	4992.350000	780.291992	43.190449
9302.947340	4992.350000	779.097656	139.802719
9302.947340	4992.350000	777.903320	50.490047
9302.947340	4992.350000	776.708008	81.587952
9302.947340	4992.350000	775.512695	-9.791972
9302.947340	4992.350000	774.318359	48.742630
9302.947340	4992.350000	773.122070	132.577133
9302.947340	4992.350000	771.926758	13.803550
9302.947340	4992.350000	770.730469	-16.317659
9302.947340	4992.350000	769.534180	35.830467
9302.947340	4992.350000	768.337891	83.736130
9302.947340	4992.350000	767.141602	148.485428
9302.947340	4992.350000	765.944336	101.485374
9302.947340	4992.350000	764.747070	84.005775
9302.947340	4992.350000	763.549805	138.169357
9302.947340	4992.350000	762.351563	211.265915
9302.947340	4992.350000	761.154297	86.349586
9302.947340	4992.350000	759.956055	113.093353
9302.947340	4992.350000	758.757813	228.243820
9302.947340	4992.350000	757.558594	257.043671
9302.947340	4992.350000	756.359375	167.981003
9302.947340	4992.350000	755.160156	238.852570
9302.947340	4992.350000	753.960938	191.892624
9302.947340	4992.350000	752.761719	281.648468
9302.947340	4992.350000	751.561523	238.895691
9302.947340	4992.350000	750.361328	261.324524
9302.947340	4992.350000	749.160156	216.482559
9302.947340	4992.350000	747.959961	175.856827
9302.947340	4992.350000	746.758789	236.086273
9302.947340	4992.350000	745.557617	292.084534
9302.947340	4992.350000	744.356445	322.853943
9302.947340	4992.350000	743.154297	229.729904
9302.947340	4992.350000	741.952148	226.902390
9302.947340	4992.350000	740.750000	41.482876
9302.947340	4992.350000	739.547852	103.731003
9302.947340	4992.350000	738.344727	136.577362
9302.947340	4992.350000	737.142578	37.268562
9302.947340	4992.350000	735.939453	0.903691
9302.947340	4992.350000	734.735352	98.724800
9302.947340	4992.350000	733.532227	85.406746
9302.947340	4992.350000	732.328125	82.565666
9302.947340	4992.350000	731.124023	31.529779
9302.947340	4992.350000	729.918945	64.298973
9302.947340	4992.350000	728.714844	147.311310
9302.947340	4992.350000	727.509766	159.089874
9302.947340	4992.350000	726.303711	145.734879
9302.947340	4992.350000	725.098633	13.076507
9302.947340	4992.350000	723.892578	33.224228
9302.947340	4992.350000	722.686523	149.594177
9302.947340	4992.350000	721.480469	119.488701
9302.947340	4992.350000	720.274414	81.022919
9302.947340	4992.350000	719.067383	128.289169
9302.947340	4992.350000	717.860352	142.081055
9302.947340	4992.350000	716.653320	86.890869
9302.947340	4992.350000	715.445313	-43.506935
9302.947340	4992.350000	714.238281	26.692072
9302.947340	4992.350000	713.030273	27.928053
9302.947340	4992.350000	711.821289	39.595623
9302.947340	4992.350000	710.613281	-3.032500
9302.947340	4992.350000	709.404297	-8.080154
9302.947340	4992.350000	708.195313	-6.874063
9302.947340	4992.350000	706.986328	48.569275
9302.947340	4992.350000	705.776367	-10.750391
9302.947340	4992.350000	704.566406	140.587311
9302.947340	4992.350000	703.356445	33.295601
9302.947340	4992.350000	702.146484	38.612148
9302.947340	4992.350000	700.935547	52.253212
9302.947340	4992.350000	699.724609	132.560333
9302.947340	4992.350000	698.513672	54.486500
9302.947340	4992.350000	697.302734	61.835518
9302.947340	4992.350000	696.090820	46.262836
9302.947340	4992.350000	694.878906	16.111244
9302.947340	4992.350000	693.666992	-24.447037
9302.947340	4992.350000	692.455078	103.577354
9302.947340	4992.350000	691.242188	-28.558121
9302.947340	4992.350000	690.029297	9.936384
9302.947340	4992.350000	688.816406	-72.229797
9302.947340	4992.350000	687.602539	18.220051
9302.947340	4992.350000	686.389648	-9.883169
9302.947340	4992.350000	685.175781	28.527538
9302.947340	4992.350000	683.960938	152.112656
9302.947340	4992.350000	682.747070	146.816650
9302.947340	4992.350000	681.532227	66.728691
9302.947340	4992.350000	680.317383	86.349152
9302.947340	4992.350000	679.102539	62.344398
9302.947340	4992.350000	677.886719	71.551384
9302.947340	4992.350000	676.670898	-20.958200
9302.947340	4992.350000	675.455078	60.863609
9302.947340	4992.350000	674.239258	57.577473
9302.947340	4992.350000	673.022461	-66.024384
9302.947340	4992.350000	671.805664	11.566551
9302.947340	4992.350000	670.588867	-39.435009
9302.947340	4992.350000	669.372070	-90.429092
9302.947340	4992.350000	668.154297	32.669453
9302.947340	4992.350000	666.936523	21.021044
9302.947340	4992.350000	665.718750	-17.567314
9302.947340	4992.350000	664.500977	-0.233201
9302.947340	4992.350000	663.282227	41.926620
9302.947340	4992.350000	662.063477	63.351421
9302.947340	4992.350000	660.844727	90.961487
9302.947340	4992.350000	659.625000	186.834351
9302.947340	4992.350000	658.405273	57.135624
9302.947340	4992.350000	657.185547	59.861290
9302.947340	4992.350000	655.965820	-1.540030
9302.947340	4992.350000	654.745117	-2.970108
9302.947340	4992.350000	653.525391	-25.086693
9302.947340	4992.350000	652.303711	-14.142748
9302.947340	4992.350000	651.083008	-13.550321
9302.947340	4992.350000	649.861328	15.947658
9302.947340	4992.350000	648.640625	-51.658993
9302.947340	4992.350000	647.417969	136.808014
9302.947340	4992.350000	646.196289	-50.574924
9302.947340	4992.350000	644.973633	13.930365
9302.947340	4992.350000	643.750977	-119.724434
9302.947340	4992.350000	642.528320	0.443015
9302.947340	4992.350000	641.305664	42.155025
9302.947340	4992.350000	640.082031	-77.035461
9302.947340	4992.350000	638.858398	-47.731140
9302.947340	4992.350000	637.634766	-78.240692
9302.947340	4992.350000	636.410156	49.948502
9302.947340	4992.350000	635.185547	54.426914
9302.947340	4992.350000	633.960938	110.391479
9302.947340	4992.350000	632.736328	-4.646877
9302.947340	4992.350000	631.510742	51.270462
9302.947340	4992.350000	630.285156	35.084610
9302.947340	4992.350000	629.059570	18.888031
9302.947340	4992.350000	627.833984	99.407959
9302.947340	4992.350000	626.607422	39.958447
9302.947340	4992.350000	625.380859	-62.684616
9302.947340	4992.350000	624.154297	58.881310
9302.947340	4992.350000	622.927734	71.394203
9302.947340	4992.350000	621.700195	67.435661
9302.947340	4992.350000	620.472656	-80.418800
9302.947340	4992.350000	619.245117	20.424280
9302.947340	4992.350000	618.016602	-32.885914
9302.947340	4992.350000	616.788086	67.866577
9302.947340	4992.350000	615.559570	-8.058280
9302.947340	4992.350000	614.331055	-30.585310
9302.947340	4992.350000	613.101563	94.679741
9302.947340	4992.350000	611.872070	12.583752
9302.947340	4992.350000	610.642578	-16.145752
9302.947340	4992.350000	609.413086	-36.675537
9302.947340	4992.350000	608.182617	113.021423
9302.947340	4992.350000	606.952148	127.295013
9302.947340	4992.350000	605.721680	16.482386
9302.947340	4992.350000	604.491211	86.076462
9302.947340	4992.350000	603.259766	36.760712
9302.947340	4992.350000	602.028320	91.939781
9302.947340	4992.350000	600.796875	77.429848
9302.947340	4992.350000	599.564453	-27.206257
9302.947340	4992.350000	598.332031	60.655159
9302.947340	4992.350000	597.099609	76.810745
9302.947340	4992.350000	595.867188	-25.768026
9302.947340	4992.350000	594.633789	-75.119926
9302.947340	4992.350000	593.400391	-1.720078
9302.947340	4992.350000	592.166992	-51.093578
9302.947340	4992.350000	590.933594	-108.644447
9302.947340	4992.350000	589.699219	-57.831161
9302.947340	4992.350000	588.464844	1.118546
9302.947340	4992.350000	587.230469	29.369526
9302.947340	4992.350000	585.995117	82.107552
9302.947340	4992.350000	584.760742	34.709526
9302.947340	4992.350000	583.525391	-59.662048
9302.947340	4992.350000	582.289063	60.387630
9302.947340	4992.350000	581.053711	68.087860
9302.947340	4992.350000	579.817383	53.313961
9302.947340	4992.350000	578.581055	-34.933628
9302.947340	4992.350000	577.343750	-25.234827
9302.947340	4992.350000	576.107422	57.873432
9302.947340	4992.350000	574.870117	-111.946030
9302.947340	4992.350000	573.631836	-6.465616
9302.947340	4992.350000	572.394531	-47.813477
9302.947340	4992.350000	571.156250	45.344528
9302.947340	4992.350000	569.917969	24.342218
9302.947340	4992.350000	568.679688	-29.262676
9302.947340	4992.350000	567.440430	35.264301
9302.947340	4992.350000	566.202148	2.007799
9302.947340	4992.350000	564.961914	-61.791958
9302.947340	4992.350000	563.722656	-44.164742
9302.947340	4992.350000	562.482422	-2.143984
9302.947340	4992.350000	561.243164	-19.157385
9302.947340	4992.350000	560.001953	-36.183350
9302.947340	4992.350000	558.761719	38.297092
9302.947340	4992.350000	557.520508	53.764584
9302.947340	4992.350000	556.279297	-20.233009
9302.947340	4992.350000	555.038086	-37.309551
9302.947340	4992.350000	553.795898	63.454147
9302.947340	4992.350000	552.554688	82.901573
9302.947340	4992.350000	551.311523	-3.292089
9302.947340	4992.350000	550.069336	40.495678
9302.947340	4992.350000	548.826172	47.704845
9302.947340	4992.350000	547.583984	-3.965024
9302.947340	4992.350000	546.339844	47.863022
9302.947340	4992.350000	545.096680	-62.653435
9302.947340	4992.350000	543.852539	41.874477
9302.947340	4992.350000	542.608398	-80.792328
9302.947340	4992.350000	541.364258	11.500648
9302.947340	4992.350000	540.119141	-76.676140
9302.947340	4992.350000	538.875000	41.895100
9302.947340	4992.350000	537.628906	-5.754817
9302.947340	4992.350000	536.383789	68.153023
9302.947340	4992.350000	535.137695	-64.575394
9302.947340	4992.350000	533.892578	-8.937771
9302.947340	4992.350000	532.645508	-20.149736
9302.947340	4992.350000	531.399414	-47.560669
9302.947340	4992.350000	530.152344	-46.642979
9302.947340	4992.350000	528.905273	14.958141
9302.947340	4992.350000	527.658203	38.087872
9302.947340	4992.350000	526.410156	63.216263
9302.947340	4992.350000	525.163086	98.433403
9302.947340	4992.350000	523.914063	-38.206013
9302.947340	4992.350000	522.666016	-31.301651
9302.947340	4992.350000	521.416992	5.895649
9302.947340	4992.350000	520.167969	-19.559534
9302.947340	4992.350000	518.918945	68.091560
9302.947340	4992.350000	517.669922	56.747845
9302.947340	4992.350000	516.419922	81.736481
9302.947340	4992.350000	515.169922	48.169449
9302.947340	4992.350000	513.919922	22.679050
9302.947340	4992.350000	512.668945	19.381252
9302.947340	4992.350000	511.417969	56.418327
9302.947340	4992.350000	510.166992	87.380096
9302.947340	4992.350000	508.916016	39.684494
9302.947340	4992.350000	507.664063	70.616653
9302.947340	4992.350000	506.412109	-49.628883
9302.947340	4992.350000	505.160156	-69.082428
9302.947340	4992.350000	503.907227	-58.319706
9302.947340	4992.350000	502.655273	-1.242832
9302.947340	4992.350000	501.402344	-14.679274
9302.947340	4992.350000	500.148438	-60.331478
9302.947340	4992.350000	498.895508	-107.982399
9302.947340	4992.350000	497.641602	-83.176079
9302.947340	4992.350000	496.387695	-98.626671
9302.947340	4992.350000	495.132813	-27.584265
9302.947340	4992.350000	493.878906	-101.375252
9302.947340	4992.350000	492.624023	128.465057
9302.947340	4992.350000	491.368164	-49.875450
9302.947340	4992.350000	490.113281	113.519295
9302.947340	4992.350000	488.857422	-82.837723
9302.947340	4992.350000	487.601563	-19.965832
9302.947340	4992.350000	486.344727	0.692915
9302.947340	4992.350000	485.088867	-56.974720
9302.947340	4992.350000	483.832031	35.946289
9302.947340	4992.350000	482.575195	-95.982582
9302.947340	4992.350000	481.317383	111.278999
9302.947340	4992.350000	480.059570	-20.621820
9302.947340	4992.350000	478.801758	-138.429550
9302.947340	4992.350000	477.543945	44.626896
9302.947340	4992.350000	476.285156	13.059955
9302.947340	4992.350000	475.027344	61.687527
9302.947340	4992.350000	473.767578	16.089937
9302.947340	4992.350000	472.508789	34.628628
9302.947340	4992.350000	471.249023	-34.992222
9302.947340	4992.350000	469.989258	117.729965
9302.947340	4992.350000	468.729492	136.218781
9302.947340	4992.350000	467.469727	56.597534
9302.947340	4992.350000	466.208984	-6.983757
9302.947340	4992.350000	464.948242	-10.508162
9302.947340	4992.350000	463.686523	-16.038580
9302.947340	4992.350000	462.425781	44.439827
9302.947340	4992.350000	461.164063	-17.104996
9302.947340	4992.350000	459.901367	161.298538
9302.947340	4992.350000	458.639648	93.748253
9302.947340	4992.350000	457.376953	86.176369
9302.947340	4992.350000	456.114258	30.648071
9302.947340	4992.350000	454.851563	-8.880491
9302.947340	4992.350000	453.587891	73.432396
9302.947340	4992.350000	452.324219	-24.009018
9302.947340	4992.350000	451.060547	48.277714
9302.947340	4992.350000	449.796875	58.652946
9302.947340	4992.350000	448.532227	134.866760
9302.947340	4992.350000	447.267578	55.424385
9302.947340	4992.350000	446.002930	45.822109
9302.947340	4992.350000	444.737305	96.041115
9302.947340	4992.350000	443.471680	86.416908
9302.947340	4992.350000	442.206055	118.649544
9302.947340	4992.350000	440.940430	109.007912
9302.947340	4992.350000	439.673828	75.449142
9302.947340	4992.350000	438.407227	65.800346
9302.947340	4992.350000	437.140625	109.919685
9302.947340	4992.350000	435.873047	148.033722
9302.947340	4992.350000	434.605469	90.563469
9302.947340	4992.350000	433.337891	-36.555840
9302.947340	4992.350000	432.070313	73.167114
9302.947340	4992.350000	430.801758	41.574215
9302.947340	4992.350000	429.533203	81.587364
9302.947340	4992.350000	428.264648	-5.703084
9302.947340	4992.350000	426.996094	-29.348665
9302.947340	4992.350000	425.726563	52.349003
9302.947340	4992.350000	424.457031	108.159134
9302.947340	4992.350000	423.186523	52.659157
9302.947340	4992.350000	421.916992	-44.548920
9302.947340	4992.350000	420.646484	70.768906
9302.947340	4992.350000	419.375977	-16.515244
9302.947340	4992.350000	418.104492	53.043030
9302.947340	4992.350000	416.833008	-50.123913
9302.947340	4992.350000	415.561523	19.365133
9302.947340	4992.350000	414.290039	15.395226
9302.947340	4992.350000	413.017578	84.786476
9302.947340	4992.350000	411.746094	39.106846
9302.947340	4992.350000	410.472656	35.047955
9302.947340	4992.350000	409.200195	-8.680451
9302.947340	4992.350000	407.926758	72.424820
9302.947340	4992.350000	406.653320	70.247299
9302.947340	4992.350000	405.379883	-50.816349
9302.947340	4992.350000	404.105469	26.177469
9302.947340	4992.350000	402.831055	116.959602
9302.947340	4992.350000	401.556641	19.603045
9302.947340	4992.350000	400.282227	15.266679
9302.947340	4992.350000	399.006836	-6.922423
9302.947340	4992.350000	397.731445	36.136326
9302.947340	4992.350000	396.456055	59.350384
9302.947340	4992.350000	395.179688	33.066257
9302.947340	4992.350000	393.903320	89.775787
9302.947340	4992.350000	392.626953	-39.390881
9302.947340	4992.350000	391.350586	64.627510
9302.947340	4992.350000	390.073242	28.263195
9302.947340	4992.350000	388.795898	35.310604
9302.947340	4992.350000	387.518555	-38.678024
9302.947340	4992.350000	386.240234	9.711100
9302.947340	4992.350000	384.961914	26.426123
9302.947340	4992.350000	383.683594	19.380367
9302.947340	4992.350000	382.405273	6.343518
9302.947340	4992.350000	381.125977	24.795229
9302.947340	4992.350000	379.846680	-49.538654
9302.947340	4992.350000	378.567383	47.627899
9302.947340	4992.350000	377.287109	-7.137531
9302.947340	4992.350000	376.006836	14.900081
9302.947340	4992.350000	374.726563	-6.517946
9302.947340	4992.350000	373.446289	100.035645
9302.947340	4992.350000	372.165039	-63.410801
9302.947340	4992.350000	370.883789	-128.426331
9302.947340	4992.350000	369.602539	-41.919685
9302.947340	4992.350000	368.320313	7.033173
9302.947340	4992.350000	367.039063	-64.193787
9302.947340	4992.350000	365.755859	-115.842575
9302.947340	4992.350000	364.473633	131.415878
9302.947340	4992.350000	363.190430	-9.007399
9302.947340	4992.350000	361.907227	25.496845
9302.947340	4992.350000	360.624023	-16.820013
9302.947340	4992.350000	359.340820	58.664879
9302.947340	4992.350000	358.056641	-107.728439
9302.947340	4992.350000	356.772461	81.384087
9302.947340	4992.350000	355.487305	40.448963
9302.947340	4992.350000	354.202148	-79.179573
9302.947340	4992.350000	352.916992	-159.657639
9302.947340	4992.350000	351.631836	-49.877300
9302.947340	4992.350000	350.346680	0.803894
9302.947340	4992.350000	349.060547	-46.827068
9302.947340	4992.350000	347.774414	34.835449
9302.947340	4992.350000	346.487305	-19.058386
9302.947340	4992.350000	345.200195	46.471561
9302.947340	4992.350000	343.913086	23.550417
9302.947340	4992.350000	342.625977	96.456978
9302.947340	4992.350000	341.338867	8.436187
9302.947340	4992.350000	340.050781	80.855888
9302.947340	4992.350000	338.762695	37.451584
9302.947340	4992.350000	337.473633	21.230066
9302.947340	4992.350000	336.184570	63.495689
9302.947340	4992.350000	334.895508	58.509178
9302.947340	4992.350000	333.606445	51.302086
9302.947340	4992.350000	332.317383	-10.956500
9302.947340	4992.350000	331.027344	4.762763
9302.947340	4992.350000	329.736328	51.465351
9302.947340	4992.350000	328.446289	37.247078
9302.947340	4992.350000	327.155273	-35.923424
9302.947340	4992.350000	325.864258	25.468315
9302.947340	4992.350000	324.573242	-73.710045
9302.947340	4992.350000	323.281250	39.736256
9302.947340	4992.350000	321.989258	-34.701656
9302.947340	4992.350000	320.697266	50.651871
9302.947340	4992.350000	319.405273	-38.139046
9302.947340	4992.350000	318.112305	-156.551971
9302.947340	4992.350000	316.819336	-50.895863
9302.947340	4992.350000	315.526367	-29.569679
9302.947340	4992.350000	314.232422	51.794159
9302.947340	4992.350000	312.938477	31.303349
9302.947340	4992.350000	311.644531	-38.347492
9302.947340	4992.350000	310.349609	-44.096661
9302.947340	4992.350000	309.054688	23.757502
9302.947340	4992.350000	307.759766	-78.387009
9302.947340	4992.350000	306.464844	-30.974222
9302.947340	4992.350000	305.168945	54.865726
9302.947340	4992.350000	303.873047	58.389523
9302.947340	4992.350000	302.577148	166.515640
9302.947340	4992.350000	301.281250	165.079315
9302.947340	4992.350000	299.984375	126.116722
