#X		#Y		#Wave		#Intensity
9952.854255	4068.770000	1999.946289	-86.682831
9952.854255	4068.770000	1998.981445	75.032257
9952.854255	4068.770000	1998.017578	93.456764
9952.854255	4068.770000	1997.052734	-104.016388
9952.854255	4068.770000	1996.088867	0.555084
9952.854255	4068.770000	1995.124023	-11.621982
9952.854255	4068.770000	1994.159180	45.274136
9952.854255	4068.770000	1993.193359	-93.742760
9952.854255	4068.770000	1992.228516	-59.671982
9952.854255	4068.770000	1991.262695	87.999100
9952.854255	4068.770000	1990.296875	34.897499
9952.854255	4068.770000	1989.331055	-48.122055
9952.854255	4068.770000	1988.365234	-143.718628
9952.854255	4068.770000	1987.398438	-190.035004
9952.854255	4068.770000	1986.432617	62.676865
9952.854255	4068.770000	1985.465820	60.403404
9952.854255	4068.770000	1984.499023	85.113159
9952.854255	4068.770000	1983.532227	18.155230
9952.854255	4068.770000	1982.565430	0.446932
9952.854255	4068.770000	1981.597656	-22.386009
9952.854255	4068.770000	1980.629883	8.947596
9952.854255	4068.770000	1979.662109	-43.887230
9952.854255	4068.770000	1978.694336	145.121094
9952.854255	4068.770000	1977.726563	30.209627
9952.854255	4068.770000	1976.758789	-8.301694
9952.854255	4068.770000	1975.790039	69.040222
9952.854255	4068.770000	1974.821289	94.378548
9952.854255	4068.770000	1973.852539	-23.534473
9952.854255	4068.770000	1972.883789	-37.949646
9952.854255	4068.770000	1971.915039	179.320587
9952.854255	4068.770000	1970.945313	24.052298
9952.854255	4068.770000	1969.975586	223.709198
9952.854255	4068.770000	1969.005859	230.909225
9952.854255	4068.770000	1968.036133	141.875656
9952.854255	4068.770000	1967.066406	-6.376307
9952.854255	4068.770000	1966.096680	177.876419
9952.854255	4068.770000	1965.125977	86.099960
9952.854255	4068.770000	1964.155273	-50.073788
9952.854255	4068.770000	1963.184570	13.128762
9952.854255	4068.770000	1962.213867	95.903954
9952.854255	4068.770000	1961.242188	176.093140
9952.854255	4068.770000	1960.271484	29.779936
9952.854255	4068.770000	1959.299805	-35.377598
9952.854255	4068.770000	1958.328125	177.360870
9952.854255	4068.770000	1957.356445	-23.224747
9952.854255	4068.770000	1956.384766	71.251778
9952.854255	4068.770000	1955.412109	13.200135
9952.854255	4068.770000	1954.439453	200.894852
9952.854255	4068.770000	1953.467773	164.821564
9952.854255	4068.770000	1952.495117	187.667953
9952.854255	4068.770000	1951.521484	94.986649
9952.854255	4068.770000	1950.548828	-49.296291
9952.854255	4068.770000	1949.575195	71.631210
9952.854255	4068.770000	1948.601563	140.901993
9952.854255	4068.770000	1947.627930	89.816628
9952.854255	4068.770000	1946.654297	127.057449
9952.854255	4068.770000	1945.680664	-100.773369
9952.854255	4068.770000	1944.706055	301.956085
9952.854255	4068.770000	1943.732422	39.755989
9952.854255	4068.770000	1942.757813	89.079857
9952.854255	4068.770000	1941.783203	-21.030472
9952.854255	4068.770000	1940.807617	89.507660
9952.854255	4068.770000	1939.833008	-23.074827
9952.854255	4068.770000	1938.857422	67.759018
9952.854255	4068.770000	1937.881836	249.189575
9952.854255	4068.770000	1936.906250	41.021572
9952.854255	4068.770000	1935.930664	6.807673
9952.854255	4068.770000	1934.955078	-15.169019
9952.854255	4068.770000	1933.978516	-117.953400
9952.854255	4068.770000	1933.001953	-7.749062
9952.854255	4068.770000	1932.025391	73.028679
9952.854255	4068.770000	1931.048828	53.438076
9952.854255	4068.770000	1930.072266	92.557823
9952.854255	4068.770000	1929.094727	14.241118
9952.854255	4068.770000	1928.118164	185.397324
9952.854255	4068.770000	1927.140625	-139.885956
9952.854255	4068.770000	1926.163086	-213.250122
9952.854255	4068.770000	1925.184570	40.937099
9952.854255	4068.770000	1924.207031	-27.554733
9952.854255	4068.770000	1923.228516	-3.178313
9952.854255	4068.770000	1922.250000	82.260742
9952.854255	4068.770000	1921.271484	-93.673981
9952.854255	4068.770000	1920.292969	74.776375
9952.854255	4068.770000	1919.314453	-44.933102
9952.854255	4068.770000	1918.334961	35.569752
9952.854255	4068.770000	1917.355469	81.878494
9952.854255	4068.770000	1916.375977	-13.355611
9952.854255	4068.770000	1915.396484	-69.513596
9952.854255	4068.770000	1914.416992	-18.318308
9952.854255	4068.770000	1913.436523	-179.310867
9952.854255	4068.770000	1912.457031	8.446619
9952.854255	4068.770000	1911.476563	-25.706013
9952.854255	4068.770000	1910.496094	-79.336662
9952.854255	4068.770000	1909.515625	13.279856
9952.854255	4068.770000	1908.534180	-30.574482
9952.854255	4068.770000	1907.552734	135.098694
9952.854255	4068.770000	1906.572266	105.873863
9952.854255	4068.770000	1905.590820	-25.606544
9952.854255	4068.770000	1904.608398	-30.423141
9952.854255	4068.770000	1903.626953	3.722786
9952.854255	4068.770000	1902.644531	67.072289
9952.854255	4068.770000	1901.663086	62.278469
9952.854255	4068.770000	1900.680664	-20.353191
9952.854255	4068.770000	1899.698242	-141.859833
9952.854255	4068.770000	1898.714844	-107.662811
9952.854255	4068.770000	1897.732422	-15.109263
9952.854255	4068.770000	1896.749023	-66.008942
9952.854255	4068.770000	1895.765625	36.252193
9952.854255	4068.770000	1894.782227	-51.063065
9952.854255	4068.770000	1893.798828	60.902752
9952.854255	4068.770000	1892.814453	-9.352849
9952.854255	4068.770000	1891.831055	107.448639
9952.854255	4068.770000	1890.846680	-69.608002
9952.854255	4068.770000	1889.862305	168.581268
9952.854255	4068.770000	1888.877930	193.082794
9952.854255	4068.770000	1887.892578	42.846165
9952.854255	4068.770000	1886.908203	6.726778
9952.854255	4068.770000	1885.922852	142.882690
9952.854255	4068.770000	1884.937500	-14.495351
9952.854255	4068.770000	1883.952148	124.065147
9952.854255	4068.770000	1882.965820	-59.897385
9952.854255	4068.770000	1881.980469	204.705582
9952.854255	4068.770000	1880.994141	-105.214928
9952.854255	4068.770000	1880.007813	91.469185
9952.854255	4068.770000	1879.021484	-53.534355
9952.854255	4068.770000	1878.035156	-60.393818
9952.854255	4068.770000	1877.047852	150.736816
9952.854255	4068.770000	1876.061523	-124.924309
9952.854255	4068.770000	1875.074219	59.529984
9952.854255	4068.770000	1874.086914	-44.126892
9952.854255	4068.770000	1873.098633	4.734260
9952.854255	4068.770000	1872.111328	-26.263277
9952.854255	4068.770000	1871.123047	-59.659588
9952.854255	4068.770000	1870.135742	-73.683998
9952.854255	4068.770000	1869.147461	-15.145128
9952.854255	4068.770000	1868.158203	33.707565
9952.854255	4068.770000	1867.169922	36.619286
9952.854255	4068.770000	1866.180664	133.798019
9952.854255	4068.770000	1865.192383	71.456665
9952.854255	4068.770000	1864.203125	6.728033
9952.854255	4068.770000	1863.213867	43.484913
9952.854255	4068.770000	1862.223633	-40.525398
9952.854255	4068.770000	1861.234375	37.285908
9952.854255	4068.770000	1860.244141	-51.511856
9952.854255	4068.770000	1859.253906	11.796819
9952.854255	4068.770000	1858.263672	29.230907
9952.854255	4068.770000	1857.273438	17.705862
9952.854255	4068.770000	1856.282227	30.310747
9952.854255	4068.770000	1855.291992	134.567871
9952.854255	4068.770000	1854.300781	-4.779642
9952.854255	4068.770000	1853.309570	31.934832
9952.854255	4068.770000	1852.317383	85.508331
9952.854255	4068.770000	1851.326172	119.779533
9952.854255	4068.770000	1850.333984	166.084335
9952.854255	4068.770000	1849.342773	-226.118484
9952.854255	4068.770000	1848.350586	102.060661
9952.854255	4068.770000	1847.357422	-114.179642
9952.854255	4068.770000	1846.365234	172.912369
9952.854255	4068.770000	1845.372070	-21.601892
9952.854255	4068.770000	1844.379883	58.350643
9952.854255	4068.770000	1843.386719	140.673172
9952.854255	4068.770000	1842.393555	35.281296
9952.854255	4068.770000	1841.399414	-142.247757
9952.854255	4068.770000	1840.406250	-81.603592
9952.854255	4068.770000	1839.412109	-49.848888
9952.854255	4068.770000	1838.417969	-133.521164
9952.854255	4068.770000	1837.423828	68.883842
9952.854255	4068.770000	1836.429688	148.630096
9952.854255	4068.770000	1835.434570	252.363129
9952.854255	4068.770000	1834.440430	-98.024513
9952.854255	4068.770000	1833.445313	142.606491
9952.854255	4068.770000	1832.450195	8.487265
9952.854255	4068.770000	1831.454102	136.126541
9952.854255	4068.770000	1830.458984	81.251938
9952.854255	4068.770000	1829.462891	-21.622332
9952.854255	4068.770000	1828.466797	53.108929
9952.854255	4068.770000	1827.470703	-25.760992
9952.854255	4068.770000	1826.474609	144.862961
9952.854255	4068.770000	1825.478516	27.594416
9952.854255	4068.770000	1824.481445	66.219353
9952.854255	4068.770000	1823.484375	44.871361
9952.854255	4068.770000	1822.487305	16.320313
9952.854255	4068.770000	1821.490234	45.278461
9952.854255	4068.770000	1820.493164	-4.870053
9952.854255	4068.770000	1819.495117	57.576687
9952.854255	4068.770000	1818.498047	-2.180616
9952.854255	4068.770000	1817.500000	285.306427
9952.854255	4068.770000	1816.500977	141.678772
9952.854255	4068.770000	1815.502930	36.382343
9952.854255	4068.770000	1814.504883	96.248932
9952.854255	4068.770000	1813.505859	139.314331
9952.854255	4068.770000	1812.506836	148.842270
9952.854255	4068.770000	1811.507813	74.616341
9952.854255	4068.770000	1810.508789	36.264862
9952.854255	4068.770000	1809.508789	107.893852
9952.854255	4068.770000	1808.508789	86.227119
9952.854255	4068.770000	1807.508789	-33.461479
9952.854255	4068.770000	1806.508789	188.609711
9952.854255	4068.770000	1805.508789	90.390305
9952.854255	4068.770000	1804.508789	-69.934685
9952.854255	4068.770000	1803.507813	68.325577
9952.854255	4068.770000	1802.506836	158.741791
9952.854255	4068.770000	1801.505859	208.501877
9952.854255	4068.770000	1800.504883	110.207886
9952.854255	4068.770000	1799.502930	159.889389
9952.854255	4068.770000	1798.501953	-5.239998
9952.854255	4068.770000	1797.500000	175.591354
9952.854255	4068.770000	1796.498047	-156.523148
9952.854255	4068.770000	1795.496094	67.123985
9952.854255	4068.770000	1794.493164	64.130592
9952.854255	4068.770000	1793.491211	80.172577
9952.854255	4068.770000	1792.488281	148.607193
9952.854255	4068.770000	1791.485352	19.184280
9952.854255	4068.770000	1790.482422	80.379959
9952.854255	4068.770000	1789.478516	-3.799886
9952.854255	4068.770000	1788.475586	35.863033
9952.854255	4068.770000	1787.471680	194.530334
9952.854255	4068.770000	1786.467773	-18.305714
9952.854255	4068.770000	1785.463867	28.354464
9952.854255	4068.770000	1784.459961	70.195030
9952.854255	4068.770000	1783.455078	195.257828
9952.854255	4068.770000	1782.450195	110.879044
9952.854255	4068.770000	1781.445313	93.088585
9952.854255	4068.770000	1780.440430	170.385086
9952.854255	4068.770000	1779.435547	64.530891
9952.854255	4068.770000	1778.429688	27.608677
9952.854255	4068.770000	1777.424805	104.742004
9952.854255	4068.770000	1776.418945	210.315353
9952.854255	4068.770000	1775.413086	33.078327
9952.854255	4068.770000	1774.406250	50.642799
9952.854255	4068.770000	1773.400391	284.275269
9952.854255	4068.770000	1772.393555	-66.350052
9952.854255	4068.770000	1771.386719	60.290096
9952.854255	4068.770000	1770.379883	25.431765
9952.854255	4068.770000	1769.373047	14.271944
9952.854255	4068.770000	1768.365234	173.897873
9952.854255	4068.770000	1767.358398	-114.931183
9952.854255	4068.770000	1766.350586	-38.448715
9952.854255	4068.770000	1765.342773	-7.097925
9952.854255	4068.770000	1764.334961	-70.642715
9952.854255	4068.770000	1763.326172	64.900459
9952.854255	4068.770000	1762.318359	193.235703
9952.854255	4068.770000	1761.309570	18.172079
9952.854255	4068.770000	1760.300781	-7.622983
9952.854255	4068.770000	1759.291016	49.441330
9952.854255	4068.770000	1758.282227	-68.808395
9952.854255	4068.770000	1757.272461	-92.356392
9952.854255	4068.770000	1756.262695	40.293106
9952.854255	4068.770000	1755.252930	-7.035818
9952.854255	4068.770000	1754.243164	92.316864
9952.854255	4068.770000	1753.233398	-73.400925
9952.854255	4068.770000	1752.222656	106.248055
9952.854255	4068.770000	1751.211914	75.291107
9952.854255	4068.770000	1750.201172	30.107038
9952.854255	4068.770000	1749.190430	-83.669456
9952.854255	4068.770000	1748.179688	-93.453491
9952.854255	4068.770000	1747.167969	0.692952
9952.854255	4068.770000	1746.156250	78.212509
9952.854255	4068.770000	1745.144531	77.694000
9952.854255	4068.770000	1744.132813	-116.547173
9952.854255	4068.770000	1743.121094	-258.816711
9952.854255	4068.770000	1742.108398	-2.083973
9952.854255	4068.770000	1741.095703	-0.436354
9952.854255	4068.770000	1740.083008	64.880074
9952.854255	4068.770000	1739.070313	-91.683502
9952.854255	4068.770000	1738.057617	-94.893654
9952.854255	4068.770000	1737.043945	-50.984623
9952.854255	4068.770000	1736.030273	106.052223
9952.854255	4068.770000	1735.016602	-97.767426
9952.854255	4068.770000	1734.002930	-39.894680
9952.854255	4068.770000	1732.989258	-198.931030
9952.854255	4068.770000	1731.974609	82.694748
9952.854255	4068.770000	1730.959961	-125.888290
9952.854255	4068.770000	1729.945313	-16.443720
9952.854255	4068.770000	1728.930664	-225.030991
9952.854255	4068.770000	1727.916016	42.049217
9952.854255	4068.770000	1726.900391	160.658005
9952.854255	4068.770000	1725.885742	112.056946
9952.854255	4068.770000	1724.870117	68.125282
9952.854255	4068.770000	1723.853516	26.507553
9952.854255	4068.770000	1722.837891	53.079918
9952.854255	4068.770000	1721.822266	72.534470
9952.854255	4068.770000	1720.805664	-35.054085
9952.854255	4068.770000	1719.789063	17.218348
9952.854255	4068.770000	1718.772461	-29.304285
9952.854255	4068.770000	1717.754883	-85.264168
9952.854255	4068.770000	1716.738281	-9.665399
9952.854255	4068.770000	1715.720703	58.803120
9952.854255	4068.770000	1714.703125	61.427574
9952.854255	4068.770000	1713.685547	-152.045685
9952.854255	4068.770000	1712.667969	-62.607632
9952.854255	4068.770000	1711.649414	26.742895
9952.854255	4068.770000	1710.630859	-27.156919
9952.854255	4068.770000	1709.612305	1.044770
9952.854255	4068.770000	1708.593750	-67.003311
9952.854255	4068.770000	1707.575195	-20.136808
9952.854255	4068.770000	1706.555664	-62.458260
9952.854255	4068.770000	1705.536133	-79.018883
9952.854255	4068.770000	1704.516602	143.499008
9952.854255	4068.770000	1703.497070	157.282288
9952.854255	4068.770000	1702.477539	159.295151
9952.854255	4068.770000	1701.457031	-68.353195
9952.854255	4068.770000	1700.437500	-204.597931
9952.854255	4068.770000	1699.416992	-123.029625
9952.854255	4068.770000	1698.395508	21.680103
9952.854255	4068.770000	1697.375000	49.236969
9952.854255	4068.770000	1696.354492	-33.275257
9952.854255	4068.770000	1695.333008	-5.813003
9952.854255	4068.770000	1694.311523	-41.579288
9952.854255	4068.770000	1693.290039	18.536638
9952.854255	4068.770000	1692.267578	15.431778
9952.854255	4068.770000	1691.246094	-1.741343
9952.854255	4068.770000	1690.223633	58.199501
9952.854255	4068.770000	1689.201172	150.800552
9952.854255	4068.770000	1688.178711	-81.533470
9952.854255	4068.770000	1687.155273	95.090393
9952.854255	4068.770000	1686.132813	166.481308
9952.854255	4068.770000	1685.109375	-56.506943
9952.854255	4068.770000	1684.085938	38.153530
9952.854255	4068.770000	1683.062500	-86.739922
9952.854255	4068.770000	1682.039063	14.814157
9952.854255	4068.770000	1681.014648	13.590371
9952.854255	4068.770000	1679.990234	33.330654
9952.854255	4068.770000	1678.965820	246.670273
9952.854255	4068.770000	1677.941406	56.348000
9952.854255	4068.770000	1676.916992	15.321388
9952.854255	4068.770000	1675.891602	39.555340
9952.854255	4068.770000	1674.866211	184.970688
9952.854255	4068.770000	1673.840820	64.581650
9952.854255	4068.770000	1672.815430	39.750065
9952.854255	4068.770000	1671.790039	35.862225
9952.854255	4068.770000	1670.763672	190.339935
9952.854255	4068.770000	1669.737305	60.584702
9952.854255	4068.770000	1668.710938	128.775772
9952.854255	4068.770000	1667.684570	201.565079
9952.854255	4068.770000	1666.658203	69.458076
9952.854255	4068.770000	1665.630859	25.800287
9952.854255	4068.770000	1664.603516	-117.922646
9952.854255	4068.770000	1663.576172	236.214661
9952.854255	4068.770000	1662.548828	-14.543068
9952.854255	4068.770000	1661.520508	181.243378
9952.854255	4068.770000	1660.493164	-43.889595
9952.854255	4068.770000	1659.464844	305.190704
9952.854255	4068.770000	1658.436523	100.976959
9952.854255	4068.770000	1657.408203	52.499043
9952.854255	4068.770000	1656.378906	82.995872
9952.854255	4068.770000	1655.350586	132.044174
9952.854255	4068.770000	1654.321289	136.918991
9952.854255	4068.770000	1653.291992	155.699066
9952.854255	4068.770000	1652.261719	216.225784
9952.854255	4068.770000	1651.232422	93.360222
9952.854255	4068.770000	1650.202148	260.573578
9952.854255	4068.770000	1649.171875	49.534508
9952.854255	4068.770000	1648.141602	258.401855
9952.854255	4068.770000	1647.111328	200.466339
9952.854255	4068.770000	1646.080078	362.802612
9952.854255	4068.770000	1645.049805	140.236862
9952.854255	4068.770000	1644.018555	411.420746
9952.854255	4068.770000	1642.987305	230.600220
9952.854255	4068.770000	1641.955078	307.000336
9952.854255	4068.770000	1640.923828	170.249084
9952.854255	4068.770000	1639.891602	394.823303
9952.854255	4068.770000	1638.859375	304.380066
9952.854255	4068.770000	1637.827148	262.575378
9952.854255	4068.770000	1636.794922	424.462585
9952.854255	4068.770000	1635.761719	271.534332
9952.854255	4068.770000	1634.729492	241.289825
9952.854255	4068.770000	1633.696289	280.436218
9952.854255	4068.770000	1632.662109	495.326752
9952.854255	4068.770000	1631.628906	365.581818
9952.854255	4068.770000	1630.594727	221.998337
9952.854255	4068.770000	1629.561523	226.405746
9952.854255	4068.770000	1628.527344	494.256256
9952.854255	4068.770000	1627.493164	378.433716
9952.854255	4068.770000	1626.458008	452.075165
9952.854255	4068.770000	1625.423828	437.919220
9952.854255	4068.770000	1624.388672	305.984528
9952.854255	4068.770000	1623.353516	534.270142
9952.854255	4068.770000	1622.318359	508.542328
9952.854255	4068.770000	1621.282227	572.822998
9952.854255	4068.770000	1620.247070	567.858582
9952.854255	4068.770000	1619.210938	558.273193
9952.854255	4068.770000	1618.174805	491.024811
9952.854255	4068.770000	1617.137695	656.712463
9952.854255	4068.770000	1616.101563	448.824860
9952.854255	4068.770000	1615.064453	582.184265
9952.854255	4068.770000	1614.027344	637.129578
9952.854255	4068.770000	1612.990234	510.015015
9952.854255	4068.770000	1611.953125	636.378418
9952.854255	4068.770000	1610.916016	610.669678
9952.854255	4068.770000	1609.877930	833.689026
9952.854255	4068.770000	1608.839844	750.390625
9952.854255	4068.770000	1607.801758	770.722290
9952.854255	4068.770000	1606.763672	878.515930
9952.854255	4068.770000	1605.724609	634.184021
9952.854255	4068.770000	1604.685547	797.186523
9952.854255	4068.770000	1603.646484	707.101257
9952.854255	4068.770000	1602.607422	803.347900
9952.854255	4068.770000	1601.568359	858.177124
9952.854255	4068.770000	1600.528320	850.916626
9952.854255	4068.770000	1599.489258	800.004883
9952.854255	4068.770000	1598.449219	1031.778320
9952.854255	4068.770000	1597.408203	815.434692
9952.854255	4068.770000	1596.368164	895.527954
9952.854255	4068.770000	1595.327148	1007.750793
9952.854255	4068.770000	1594.287109	933.953796
9952.854255	4068.770000	1593.246094	754.587585
9952.854255	4068.770000	1592.204102	875.991760
9952.854255	4068.770000	1591.163086	850.498230
9952.854255	4068.770000	1590.121094	864.030396
9952.854255	4068.770000	1589.079102	813.342957
9952.854255	4068.770000	1588.037109	937.004822
9952.854255	4068.770000	1586.995117	746.481628
9952.854255	4068.770000	1585.953125	714.245667
9952.854255	4068.770000	1584.910156	656.822083
9952.854255	4068.770000	1583.867188	730.073853
9952.854255	4068.770000	1582.824219	661.256531
9952.854255	4068.770000	1581.781250	663.505493
9952.854255	4068.770000	1580.737305	835.262085
9952.854255	4068.770000	1579.693359	743.628357
9952.854255	4068.770000	1578.649414	745.926147
9952.854255	4068.770000	1577.605469	741.380859
9952.854255	4068.770000	1576.561523	672.782166
9952.854255	4068.770000	1575.516602	572.195435
9952.854255	4068.770000	1574.472656	698.167603
9952.854255	4068.770000	1573.427734	782.941223
9952.854255	4068.770000	1572.381836	661.888062
9952.854255	4068.770000	1571.336914	611.796997
9952.854255	4068.770000	1570.291016	778.912781
9952.854255	4068.770000	1569.246094	555.181274
9952.854255	4068.770000	1568.200195	610.337646
9952.854255	4068.770000	1567.153320	656.359985
9952.854255	4068.770000	1566.107422	684.129761
9952.854255	4068.770000	1565.060547	620.567627
9952.854255	4068.770000	1564.013672	481.717560
9952.854255	4068.770000	1562.966797	772.122253
9952.854255	4068.770000	1561.919922	802.260681
9952.854255	4068.770000	1560.872070	727.448792
9952.854255	4068.770000	1559.825195	447.378967
9952.854255	4068.770000	1558.777344	605.402039
9952.854255	4068.770000	1557.729492	615.165222
9952.854255	4068.770000	1556.680664	483.589081
9952.854255	4068.770000	1555.632813	657.585327
9952.854255	4068.770000	1554.583984	592.228821
9952.854255	4068.770000	1553.535156	442.623596
9952.854255	4068.770000	1552.486328	315.901123
9952.854255	4068.770000	1551.436523	494.498657
9952.854255	4068.770000	1550.387695	406.614655
9952.854255	4068.770000	1549.337891	398.496185
9952.854255	4068.770000	1548.288086	506.527405
9952.854255	4068.770000	1547.238281	305.012573
9952.854255	4068.770000	1546.187500	340.280701
9952.854255	4068.770000	1545.136719	82.082054
9952.854255	4068.770000	1544.086914	329.027008
9952.854255	4068.770000	1543.035156	232.491592
9952.854255	4068.770000	1541.984375	395.263885
9952.854255	4068.770000	1540.933594	267.025604
9952.854255	4068.770000	1539.881836	107.058151
9952.854255	4068.770000	1538.830078	190.359528
9952.854255	4068.770000	1537.778320	325.933136
9952.854255	4068.770000	1536.725586	484.212921
9952.854255	4068.770000	1535.673828	363.134308
9952.854255	4068.770000	1534.621094	269.396729
9952.854255	4068.770000	1533.568359	289.259613
9952.854255	4068.770000	1532.515625	365.909912
9952.854255	4068.770000	1531.461914	310.955658
9952.854255	4068.770000	1530.409180	192.549515
9952.854255	4068.770000	1529.355469	149.098389
9952.854255	4068.770000	1528.301758	230.457169
9952.854255	4068.770000	1527.247070	130.428329
9952.854255	4068.770000	1526.193359	338.825256
9952.854255	4068.770000	1525.138672	141.456619
9952.854255	4068.770000	1524.083984	222.966141
9952.854255	4068.770000	1523.029297	426.850311
9952.854255	4068.770000	1521.974609	177.645706
9952.854255	4068.770000	1520.918945	202.641403
9952.854255	4068.770000	1519.863281	288.823669
9952.854255	4068.770000	1518.807617	214.286606
9952.854255	4068.770000	1517.751953	291.493530
9952.854255	4068.770000	1516.696289	244.258286
9952.854255	4068.770000	1515.639648	-40.479370
9952.854255	4068.770000	1514.583008	55.001846
9952.854255	4068.770000	1513.526367	234.188614
9952.854255	4068.770000	1512.469727	266.381104
9952.854255	4068.770000	1511.412109	174.270279
9952.854255	4068.770000	1510.355469	77.740005
9952.854255	4068.770000	1509.297852	166.621063
9952.854255	4068.770000	1508.240234	106.401939
9952.854255	4068.770000	1507.181641	1.083346
9952.854255	4068.770000	1506.124023	6.543790
9952.854255	4068.770000	1505.065430	129.485611
9952.854255	4068.770000	1504.006836	110.206573
9952.854255	4068.770000	1502.948242	151.944305
9952.854255	4068.770000	1501.888672	-99.660576
9952.854255	4068.770000	1500.830078	-98.384476
9952.854255	4068.770000	1499.770508	40.562428
9952.854255	4068.770000	1498.710938	-7.683563
9952.854255	4068.770000	1497.650391	212.497910
9952.854255	4068.770000	1496.590820	-90.400566
9952.854255	4068.770000	1495.530273	23.897625
9952.854255	4068.770000	1494.469727	27.786339
9952.854255	4068.770000	1493.409180	-125.987106
9952.854255	4068.770000	1492.348633	87.571663
9952.854255	4068.770000	1491.287109	53.352882
9952.854255	4068.770000	1490.225586	-46.090702
9952.854255	4068.770000	1489.164063	-75.631912
9952.854255	4068.770000	1488.102539	-107.344757
9952.854255	4068.770000	1487.041016	59.070789
9952.854255	4068.770000	1485.978516	-26.524063
9952.854255	4068.770000	1484.916016	31.958237
9952.854255	4068.770000	1483.853516	-111.938171
9952.854255	4068.770000	1482.791016	-64.565643
9952.854255	4068.770000	1481.727539	-152.036362
9952.854255	4068.770000	1480.664063	-196.698593
9952.854255	4068.770000	1479.600586	-12.045363
9952.854255	4068.770000	1478.537109	-7.143878
9952.854255	4068.770000	1477.473633	13.559721
9952.854255	4068.770000	1476.409180	34.300224
9952.854255	4068.770000	1475.344727	-115.525894
9952.854255	4068.770000	1474.280273	-231.536652
9952.854255	4068.770000	1473.215820	-31.013193
9952.854255	4068.770000	1472.151367	127.045586
9952.854255	4068.770000	1471.085938	-83.049049
9952.854255	4068.770000	1470.020508	43.548225
9952.854255	4068.770000	1468.955078	-0.346078
9952.854255	4068.770000	1467.888672	162.296280
9952.854255	4068.770000	1466.823242	203.541214
9952.854255	4068.770000	1465.756836	184.508652
9952.854255	4068.770000	1464.690430	192.739853
9952.854255	4068.770000	1463.624023	158.225113
9952.854255	4068.770000	1462.556641	56.966595
9952.854255	4068.770000	1461.490234	-58.052498
9952.854255	4068.770000	1460.422852	178.589172
9952.854255	4068.770000	1459.355469	72.665878
9952.854255	4068.770000	1458.287109	134.688843
9952.854255	4068.770000	1457.219727	44.845764
9952.854255	4068.770000	1456.151367	49.459854
9952.854255	4068.770000	1455.083008	278.726013
9952.854255	4068.770000	1454.014648	70.965508
9952.854255	4068.770000	1452.945313	129.318787
9952.854255	4068.770000	1451.876953	8.379084
9952.854255	4068.770000	1450.807617	104.129433
9952.854255	4068.770000	1449.738281	22.592487
9952.854255	4068.770000	1448.668945	277.109039
9952.854255	4068.770000	1447.598633	200.240692
9952.854255	4068.770000	1446.528320	240.653442
9952.854255	4068.770000	1445.458008	201.251526
9952.854255	4068.770000	1444.387695	185.759521
9952.854255	4068.770000	1443.317383	296.068939
9952.854255	4068.770000	1442.246094	179.143097
9952.854255	4068.770000	1441.174805	220.759888
9952.854255	4068.770000	1440.103516	134.553040
9952.854255	4068.770000	1439.032227	59.720695
9952.854255	4068.770000	1437.960938	192.223709
9952.854255	4068.770000	1436.888672	18.213160
9952.854255	4068.770000	1435.816406	96.118958
9952.854255	4068.770000	1434.744141	-21.451601
9952.854255	4068.770000	1433.670898	-85.307190
9952.854255	4068.770000	1432.598633	28.080391
9952.854255	4068.770000	1431.525391	-50.259563
9952.854255	4068.770000	1430.452148	202.986252
9952.854255	4068.770000	1429.378906	41.215164
9952.854255	4068.770000	1428.304688	-68.664413
9952.854255	4068.770000	1427.231445	42.435570
9952.854255	4068.770000	1426.157227	193.104614
9952.854255	4068.770000	1425.083008	150.216217
9952.854255	4068.770000	1424.007813	108.679031
9952.854255	4068.770000	1422.933594	168.752426
9952.854255	4068.770000	1421.858398	182.591858
9952.854255	4068.770000	1420.783203	-27.520319
9952.854255	4068.770000	1419.708008	94.304390
9952.854255	4068.770000	1418.631836	-42.420582
9952.854255	4068.770000	1417.555664	85.422890
9952.854255	4068.770000	1416.479492	191.616806
9952.854255	4068.770000	1415.403320	-13.483585
9952.854255	4068.770000	1414.327148	60.318764
9952.854255	4068.770000	1413.250000	-21.016123
9952.854255	4068.770000	1412.173828	-240.932373
9952.854255	4068.770000	1411.096680	64.393677
9952.854255	4068.770000	1410.018555	12.655316
9952.854255	4068.770000	1408.941406	193.707840
9952.854255	4068.770000	1407.863281	-154.752670
9952.854255	4068.770000	1406.785156	-83.416428
9952.854255	4068.770000	1405.707031	203.346191
9952.854255	4068.770000	1404.628906	58.187263
9952.854255	4068.770000	1403.549805	11.742123
9952.854255	4068.770000	1402.470703	126.571266
9952.854255	4068.770000	1401.391602	48.286720
9952.854255	4068.770000	1400.312500	24.266102
9952.854255	4068.770000	1399.233398	-57.215492
9952.854255	4068.770000	1398.153320	68.307648
9952.854255	4068.770000	1397.073242	16.027508
9952.854255	4068.770000	1395.993164	83.655693
9952.854255	4068.770000	1394.913086	-7.051275
9952.854255	4068.770000	1393.832031	111.242630
9952.854255	4068.770000	1392.750977	172.175446
9952.854255	4068.770000	1391.669922	146.234131
9952.854255	4068.770000	1390.588867	260.343170
9952.854255	4068.770000	1389.506836	127.446198
9952.854255	4068.770000	1388.425781	88.466438
9952.854255	4068.770000	1387.343750	146.050400
9952.854255	4068.770000	1386.261719	165.696106
9952.854255	4068.770000	1385.178711	368.614044
9952.854255	4068.770000	1384.096680	387.094055
9952.854255	4068.770000	1383.013672	320.529297
9952.854255	4068.770000	1381.930664	485.606903
9952.854255	4068.770000	1380.846680	329.825653
9952.854255	4068.770000	1379.763672	344.373444
9952.854255	4068.770000	1378.679688	225.713120
9952.854255	4068.770000	1377.595703	306.882202
9952.854255	4068.770000	1376.511719	333.691803
9952.854255	4068.770000	1375.427734	556.577087
9952.854255	4068.770000	1374.342773	204.278305
9952.854255	4068.770000	1373.257813	528.039856
9952.854255	4068.770000	1372.172852	538.442383
9952.854255	4068.770000	1371.087891	207.432648
9952.854255	4068.770000	1370.001953	298.419189
9952.854255	4068.770000	1368.916992	410.586731
9952.854255	4068.770000	1367.831055	407.609161
9952.854255	4068.770000	1366.744141	293.756683
9952.854255	4068.770000	1365.658203	212.224472
9952.854255	4068.770000	1364.571289	122.678879
9952.854255	4068.770000	1363.484375	132.187943
9952.854255	4068.770000	1362.397461	374.749268
9952.854255	4068.770000	1361.310547	380.279358
9952.854255	4068.770000	1360.222656	193.671509
9952.854255	4068.770000	1359.135742	195.713058
9952.854255	4068.770000	1358.047852	370.227142
9952.854255	4068.770000	1356.958984	365.507355
9952.854255	4068.770000	1355.871094	268.740234
9952.854255	4068.770000	1354.782227	246.336060
9952.854255	4068.770000	1353.693359	216.998154
9952.854255	4068.770000	1352.604492	312.870575
9952.854255	4068.770000	1351.515625	123.803444
9952.854255	4068.770000	1350.425781	247.011658
9952.854255	4068.770000	1349.335938	278.687622
9952.854255	4068.770000	1348.246094	176.548599
9952.854255	4068.770000	1347.156250	252.875351
9952.854255	4068.770000	1346.066406	306.147858
9952.854255	4068.770000	1344.975586	396.091980
9952.854255	4068.770000	1343.884766	303.966248
9952.854255	4068.770000	1342.793945	335.260437
9952.854255	4068.770000	1341.702148	298.336273
9952.854255	4068.770000	1340.611328	149.713882
9952.854255	4068.770000	1339.519531	288.117279
9952.854255	4068.770000	1338.427734	253.089020
9952.854255	4068.770000	1337.334961	187.864990
9952.854255	4068.770000	1336.243164	266.464996
9952.854255	4068.770000	1335.150391	281.013763
9952.854255	4068.770000	1334.057617	92.344658
9952.854255	4068.770000	1332.964844	150.906357
9952.854255	4068.770000	1331.871094	390.136139
9952.854255	4068.770000	1330.778320	151.481155
9952.854255	4068.770000	1329.684570	220.290115
9952.854255	4068.770000	1328.590820	220.301468
9952.854255	4068.770000	1327.496094	214.070755
9952.854255	4068.770000	1326.402344	287.955994
9952.854255	4068.770000	1325.307617	250.950699
9952.854255	4068.770000	1324.212891	199.635941
9952.854255	4068.770000	1323.117188	133.322266
9952.854255	4068.770000	1322.022461	180.732651
9952.854255	4068.770000	1320.926758	154.134323
9952.854255	4068.770000	1319.831055	245.631607
9952.854255	4068.770000	1318.735352	160.797226
9952.854255	4068.770000	1317.638672	59.142075
9952.854255	4068.770000	1316.542969	129.086060
9952.854255	4068.770000	1315.446289	-88.849380
9952.854255	4068.770000	1314.349609	101.449715
9952.854255	4068.770000	1313.251953	129.591049
9952.854255	4068.770000	1312.155273	137.184692
9952.854255	4068.770000	1311.057617	94.696671
9952.854255	4068.770000	1309.959961	-0.537509
9952.854255	4068.770000	1308.862305	-47.178570
9952.854255	4068.770000	1307.763672	97.953606
9952.854255	4068.770000	1306.665039	110.166107
9952.854255	4068.770000	1305.566406	74.488663
9952.854255	4068.770000	1304.467773	149.427521
9952.854255	4068.770000	1303.369141	149.655975
9952.854255	4068.770000	1302.269531	174.086670
9952.854255	4068.770000	1301.169922	96.917198
9952.854255	4068.770000	1300.070313	82.515152
9952.854255	4068.770000	1298.970703	72.388763
9952.854255	4068.770000	1297.870117	-92.710350
9952.854255	4068.770000	1296.769531	75.512955
9952.854255	4068.770000	1295.668945	51.109879
9952.854255	4068.770000	1294.568359	150.519302
9952.854255	4068.770000	1293.466797	-30.128159
9952.854255	4068.770000	1292.366211	8.498351
9952.854255	4068.770000	1291.264648	44.461411
9952.854255	4068.770000	1290.162109	-100.458237
9952.854255	4068.770000	1289.060547	143.338715
9952.854255	4068.770000	1287.958008	118.742096
9952.854255	4068.770000	1286.855469	-27.332029
9952.854255	4068.770000	1285.752930	129.606018
9952.854255	4068.770000	1284.650391	-6.435553
9952.854255	4068.770000	1283.546875	84.665253
9952.854255	4068.770000	1282.444336	167.273148
9952.854255	4068.770000	1281.339844	-39.418583
9952.854255	4068.770000	1280.236328	93.929840
9952.854255	4068.770000	1279.132813	-6.396502
9952.854255	4068.770000	1278.028320	32.534012
9952.854255	4068.770000	1276.923828	47.437107
9952.854255	4068.770000	1275.819336	-10.021754
9952.854255	4068.770000	1274.713867	36.537327
9952.854255	4068.770000	1273.608398	23.176718
9952.854255	4068.770000	1272.503906	61.864021
9952.854255	4068.770000	1271.397461	-18.036249
9952.854255	4068.770000	1270.291992	82.762634
9952.854255	4068.770000	1269.185547	140.437119
9952.854255	4068.770000	1268.080078	-33.689392
9952.854255	4068.770000	1266.972656	17.866884
9952.854255	4068.770000	1265.866211	99.485329
9952.854255	4068.770000	1264.759766	84.719749
9952.854255	4068.770000	1263.652344	3.340764
9952.854255	4068.770000	1262.544922	-75.565895
9952.854255	4068.770000	1261.436523	-20.069437
9952.854255	4068.770000	1260.329102	-126.045769
9952.854255	4068.770000	1259.220703	30.834063
9952.854255	4068.770000	1258.112305	23.793447
9952.854255	4068.770000	1257.003906	3.839664
9952.854255	4068.770000	1255.895508	-104.139145
9952.854255	4068.770000	1254.786133	47.590588
9952.854255	4068.770000	1253.676758	-26.587591
9952.854255	4068.770000	1252.567383	-54.946671
9952.854255	4068.770000	1251.458008	-90.616081
9952.854255	4068.770000	1250.347656	-33.931576
9952.854255	4068.770000	1249.237305	-126.789886
9952.854255	4068.770000	1248.126953	-13.848751
9952.854255	4068.770000	1247.016602	-30.467093
9952.854255	4068.770000	1245.905273	-65.592957
9952.854255	4068.770000	1244.793945	-86.629898
9952.854255	4068.770000	1243.682617	24.920586
9952.854255	4068.770000	1242.571289	61.324596
9952.854255	4068.770000	1241.459961	-47.706459
9952.854255	4068.770000	1240.347656	-12.729992
9952.854255	4068.770000	1239.235352	59.251812
9952.854255	4068.770000	1238.123047	115.462090
9952.854255	4068.770000	1237.009766	159.703766
9952.854255	4068.770000	1235.897461	205.376358
9952.854255	4068.770000	1234.784180	127.884041
9952.854255	4068.770000	1233.670898	-14.783128
9952.854255	4068.770000	1232.556641	55.207062
9952.854255	4068.770000	1231.443359	-40.650143
9952.854255	4068.770000	1230.329102	119.536743
9952.854255	4068.770000	1229.214844	85.619102
9952.854255	4068.770000	1228.099609	97.762161
9952.854255	4068.770000	1226.985352	140.575485
9952.854255	4068.770000	1225.870117	121.745422
9952.854255	4068.770000	1224.754883	8.519906
9952.854255	4068.770000	1223.639648	38.058624
9952.854255	4068.770000	1222.523438	130.098053
9952.854255	4068.770000	1221.408203	32.040825
9952.854255	4068.770000	1220.291992	11.409169
9952.854255	4068.770000	1219.174805	9.607880
9952.854255	4068.770000	1218.058594	-0.412483
9952.854255	4068.770000	1216.941406	47.732555
9952.854255	4068.770000	1215.824219	-0.594728
9952.854255	4068.770000	1214.707031	53.549572
9952.854255	4068.770000	1213.589844	48.010727
9952.854255	4068.770000	1212.471680	-73.931892
9952.854255	4068.770000	1211.353516	135.310608
9952.854255	4068.770000	1210.235352	-66.962379
9952.854255	4068.770000	1209.117188	145.183304
9952.854255	4068.770000	1207.998047	7.987914
9952.854255	4068.770000	1206.878906	15.645890
9952.854255	4068.770000	1205.759766	-95.016022
9952.854255	4068.770000	1204.640625	14.317206
9952.854255	4068.770000	1203.520508	-20.886669
9952.854255	4068.770000	1202.401367	-63.660065
9952.854255	4068.770000	1201.281250	-37.382507
9952.854255	4068.770000	1200.160156	-118.558342
9952.854255	4068.770000	1199.040039	-53.088036
9952.854255	4068.770000	1197.918945	-31.121719
9952.854255	4068.770000	1196.797852	64.026436
9952.854255	4068.770000	1195.676758	-6.949617
9952.854255	4068.770000	1194.555664	-225.580505
9952.854255	4068.770000	1193.433594	10.806478
9952.854255	4068.770000	1192.311523	-119.517799
9952.854255	4068.770000	1191.189453	-77.835915
9952.854255	4068.770000	1190.066406	-39.861923
9952.854255	4068.770000	1188.944336	-86.287926
9952.854255	4068.770000	1187.821289	-85.267265
9952.854255	4068.770000	1186.698242	-50.570969
9952.854255	4068.770000	1185.574219	-200.523499
9952.854255	4068.770000	1184.451172	-109.208366
9952.854255	4068.770000	1183.327148	-111.101349
9952.854255	4068.770000	1182.203125	-79.445038
9952.854255	4068.770000	1181.078125	-168.985855
9952.854255	4068.770000	1179.954102	-67.303200
9952.854255	4068.770000	1178.829102	-165.254868
9952.854255	4068.770000	1177.704102	-15.831364
9952.854255	4068.770000	1176.579102	-73.831833
9952.854255	4068.770000	1175.453125	-30.454927
9952.854255	4068.770000	1174.327148	-28.824886
9952.854255	4068.770000	1173.201172	-116.319931
9952.854255	4068.770000	1172.075195	-84.189362
9952.854255	4068.770000	1170.949219	-6.530134
9952.854255	4068.770000	1169.822266	-30.154291
9952.854255	4068.770000	1168.695313	-77.625389
9952.854255	4068.770000	1167.568359	-14.169267
9952.854255	4068.770000	1166.440430	24.825792
9952.854255	4068.770000	1165.313477	10.766396
9952.854255	4068.770000	1164.185547	-122.529030
9952.854255	4068.770000	1163.057617	-157.641479
9952.854255	4068.770000	1161.928711	-72.513985
9952.854255	4068.770000	1160.800781	30.761251
9952.854255	4068.770000	1159.671875	-0.241677
9952.854255	4068.770000	1158.541992	-136.616837
9952.854255	4068.770000	1157.413086	-112.903496
9952.854255	4068.770000	1156.283203	-35.356834
9952.854255	4068.770000	1155.154297	-50.038471
9952.854255	4068.770000	1154.023438	82.798660
9952.854255	4068.770000	1152.893555	74.878746
9952.854255	4068.770000	1151.763672	73.759598
9952.854255	4068.770000	1150.632813	-79.046967
9952.854255	4068.770000	1149.501953	79.765144
9952.854255	4068.770000	1148.370117	-46.316723
9952.854255	4068.770000	1147.239258	-20.428972
9952.854255	4068.770000	1146.107422	135.832932
9952.854255	4068.770000	1144.975586	51.875824
9952.854255	4068.770000	1143.843750	-29.335630
9952.854255	4068.770000	1142.710938	-37.840580
9952.854255	4068.770000	1141.578125	37.850910
9952.854255	4068.770000	1140.445313	36.244541
9952.854255	4068.770000	1139.312500	-62.588547
9952.854255	4068.770000	1138.178711	83.682510
9952.854255	4068.770000	1137.045898	34.025387
9952.854255	4068.770000	1135.912109	55.951561
9952.854255	4068.770000	1134.777344	66.099472
9952.854255	4068.770000	1133.643555	-16.168468
9952.854255	4068.770000	1132.508789	132.291855
9952.854255	4068.770000	1131.374023	122.706017
9952.854255	4068.770000	1130.239258	108.024117
9952.854255	4068.770000	1129.104492	144.478455
9952.854255	4068.770000	1127.968750	87.000259
9952.854255	4068.770000	1126.833008	78.446114
9952.854255	4068.770000	1125.697266	176.395020
9952.854255	4068.770000	1124.560547	24.299608
9952.854255	4068.770000	1123.424805	155.718170
9952.854255	4068.770000	1122.288086	35.387108
9952.854255	4068.770000	1121.151367	-55.620037
9952.854255	4068.770000	1120.013672	21.397312
9952.854255	4068.770000	1118.876953	-68.024742
9952.854255	4068.770000	1117.739258	40.691750
9952.854255	4068.770000	1116.601563	85.015022
9952.854255	4068.770000	1115.462891	141.025421
9952.854255	4068.770000	1114.324219	24.524244
9952.854255	4068.770000	1113.186523	292.650848
9952.854255	4068.770000	1112.046875	92.724312
9952.854255	4068.770000	1110.908203	-28.523762
9952.854255	4068.770000	1109.769531	49.006458
9952.854255	4068.770000	1108.629883	-6.036494
9952.854255	4068.770000	1107.490234	-31.321793
9952.854255	4068.770000	1106.349609	79.761932
9952.854255	4068.770000	1105.209961	1.346325
9952.854255	4068.770000	1104.069336	186.346512
9952.854255	4068.770000	1102.928711	90.013382
9952.854255	4068.770000	1101.787109	10.036325
9952.854255	4068.770000	1100.646484	136.092178
9952.854255	4068.770000	1099.504883	53.779411
9952.854255	4068.770000	1098.363281	65.783646
9952.854255	4068.770000	1097.221680	46.586323
9952.854255	4068.770000	1096.079102	65.287819
9952.854255	4068.770000	1094.936523	83.536743
9952.854255	4068.770000	1093.793945	201.153427
9952.854255	4068.770000	1092.651367	159.391800
9952.854255	4068.770000	1091.507813	177.618698
9952.854255	4068.770000	1090.364258	201.120605
9952.854255	4068.770000	1089.220703	202.181717
9952.854255	4068.770000	1088.077148	90.011063
9952.854255	4068.770000	1086.933594	154.036392
9952.854255	4068.770000	1085.789063	93.619576
9952.854255	4068.770000	1084.644531	114.400734
9952.854255	4068.770000	1083.499023	191.759232
9952.854255	4068.770000	1082.354492	206.770447
9952.854255	4068.770000	1081.208984	194.154968
9952.854255	4068.770000	1080.063477	109.500305
9952.854255	4068.770000	1078.917969	155.160065
9952.854255	4068.770000	1077.771484	8.634563
9952.854255	4068.770000	1076.625977	-37.562016
9952.854255	4068.770000	1075.479492	23.669498
9952.854255	4068.770000	1074.332031	190.222641
9952.854255	4068.770000	1073.185547	257.424316
9952.854255	4068.770000	1072.038086	252.625473
9952.854255	4068.770000	1070.890625	140.706894
9952.854255	4068.770000	1069.743164	82.154999
9952.854255	4068.770000	1068.594727	8.724770
9952.854255	4068.770000	1067.447266	76.862564
9952.854255	4068.770000	1066.298828	66.076256
9952.854255	4068.770000	1065.149414	-52.021832
9952.854255	4068.770000	1064.000977	-2.021278
9952.854255	4068.770000	1062.851563	15.345380
9952.854255	4068.770000	1061.702148	27.769760
9952.854255	4068.770000	1060.552734	120.671898
9952.854255	4068.770000	1059.402344	105.009682
9952.854255	4068.770000	1058.252930	102.731926
9952.854255	4068.770000	1057.102539	66.218124
9952.854255	4068.770000	1055.951172	180.073761
9952.854255	4068.770000	1054.800781	180.541840
9952.854255	4068.770000	1053.649414	162.902023
9952.854255	4068.770000	1052.498047	111.152840
9952.854255	4068.770000	1051.346680	197.354980
9952.854255	4068.770000	1050.194336	203.321579
9952.854255	4068.770000	1049.042969	173.664063
9952.854255	4068.770000	1047.890625	-0.677982
9952.854255	4068.770000	1046.738281	23.670090
9952.854255	4068.770000	1045.584961	130.178528
9952.854255	4068.770000	1044.431641	-70.668076
9952.854255	4068.770000	1043.278320	3.217827
9952.854255	4068.770000	1042.125000	26.826149
9952.854255	4068.770000	1040.971680	134.805969
9952.854255	4068.770000	1039.817383	104.195763
9952.854255	4068.770000	1038.663086	143.460251
9952.854255	4068.770000	1037.508789	9.788086
9952.854255	4068.770000	1036.353516	117.690308
9952.854255	4068.770000	1035.198242	82.349503
9952.854255	4068.770000	1034.042969	335.623260
9952.854255	4068.770000	1032.887695	96.704170
9952.854255	4068.770000	1031.732422	135.604095
9952.854255	4068.770000	1030.576172	56.703091
9952.854255	4068.770000	1029.419922	52.226883
9952.854255	4068.770000	1028.263672	1.665876
9952.854255	4068.770000	1027.106445	120.610023
9952.854255	4068.770000	1025.949219	142.100540
9952.854255	4068.770000	1024.792969	66.667046
9952.854255	4068.770000	1023.634766	51.297615
9952.854255	4068.770000	1022.477539	-16.528173
9952.854255	4068.770000	1021.319336	105.835526
9952.854255	4068.770000	1020.161133	261.110260
9952.854255	4068.770000	1019.002930	148.771301
9952.854255	4068.770000	1017.843750	117.271690
9952.854255	4068.770000	1016.684570	95.402878
9952.854255	4068.770000	1015.525391	147.859390
9952.854255	4068.770000	1014.366211	-122.588081
9952.854255	4068.770000	1013.207031	127.253059
9952.854255	4068.770000	1012.046875	147.958771
9952.854255	4068.770000	1010.886719	54.217098
9952.854255	4068.770000	1009.726563	21.271908
9952.854255	4068.770000	1008.565430	31.354841
9952.854255	4068.770000	1007.404297	72.517807
9952.854255	4068.770000	1006.243164	173.183365
9952.854255	4068.770000	1005.082031	81.034355
9952.854255	4068.770000	1003.920898	67.197914
9952.854255	4068.770000	1002.758789	112.892395
9952.854255	4068.770000	1001.596680	110.460358
9952.854255	4068.770000	1000.433594	-35.299820
9952.854255	4068.770000	999.271484	-59.490650
9952.854255	4068.770000	998.108398	51.898464
9952.854255	4068.770000	996.945313	-107.495392
9952.854255	4068.770000	995.782227	143.477890
9952.854255	4068.770000	994.618164	199.532593
9952.854255	4068.770000	993.454102	200.154495
9952.854255	4068.770000	992.290039	123.220787
9952.854255	4068.770000	991.125977	-80.361115
9952.854255	4068.770000	989.960938	51.353935
9952.854255	4068.770000	988.796875	-51.366051
9952.854255	4068.770000	987.630859	76.370064
9952.854255	4068.770000	986.465820	12.049970
9952.854255	4068.770000	985.300781	97.212067
9952.854255	4068.770000	984.134766	187.713989
9952.854255	4068.770000	982.968750	50.830791
9952.854255	4068.770000	981.801758	106.550934
9952.854255	4068.770000	980.635742	131.850235
9952.854255	4068.770000	979.468750	5.888012
9952.854255	4068.770000	978.301758	147.330505
9952.854255	4068.770000	977.133789	134.639725
9952.854255	4068.770000	975.966797	95.661766
9952.854255	4068.770000	974.798828	136.604614
9952.854255	4068.770000	973.630859	-42.649109
9952.854255	4068.770000	972.461914	55.198471
9952.854255	4068.770000	971.293945	136.566849
9952.854255	4068.770000	970.125000	126.768318
9952.854255	4068.770000	968.956055	190.956116
9952.854255	4068.770000	967.786133	142.225861
9952.854255	4068.770000	966.617188	-155.467148
9952.854255	4068.770000	965.447266	107.192657
9952.854255	4068.770000	964.276367	0.886085
9952.854255	4068.770000	963.106445	-130.027191
9952.854255	4068.770000	961.935547	-57.679924
9952.854255	4068.770000	960.764648	15.895163
9952.854255	4068.770000	959.593750	-136.752426
9952.854255	4068.770000	958.422852	-44.057056
9952.854255	4068.770000	957.250977	-3.474546
9952.854255	4068.770000	956.079102	-69.051689
9952.854255	4068.770000	954.907227	93.054970
9952.854255	4068.770000	953.734375	27.735266
9952.854255	4068.770000	952.562500	-142.520432
9952.854255	4068.770000	951.389648	32.806122
9952.854255	4068.770000	950.215820	-25.367933
9952.854255	4068.770000	949.042969	-102.953522
9952.854255	4068.770000	947.869141	-29.963732
9952.854255	4068.770000	946.695313	-146.539474
9952.854255	4068.770000	945.521484	35.899979
9952.854255	4068.770000	944.346680	-88.310349
9952.854255	4068.770000	943.172852	-107.987961
9952.854255	4068.770000	941.998047	-131.982056
9952.854255	4068.770000	940.822266	-76.218292
9952.854255	4068.770000	939.647461	-107.878845
9952.854255	4068.770000	938.471680	-78.772964
9952.854255	4068.770000	937.295898	-59.519966
9952.854255	4068.770000	936.119141	98.294151
9952.854255	4068.770000	934.943359	3.316428
9952.854255	4068.770000	933.766602	-11.300109
9952.854255	4068.770000	932.589844	-9.058518
9952.854255	4068.770000	931.413086	24.707844
9952.854255	4068.770000	930.235352	-179.429398
9952.854255	4068.770000	929.057617	-19.430767
9952.854255	4068.770000	927.879883	-153.154541
9952.854255	4068.770000	926.702148	-165.515640
9952.854255	4068.770000	925.523438	-73.543549
9952.854255	4068.770000	924.344727	35.345654
9952.854255	4068.770000	923.166016	-20.744385
9952.854255	4068.770000	921.987305	-98.665604
9952.854255	4068.770000	920.807617	-52.900200
9952.854255	4068.770000	919.627930	-51.615181
9952.854255	4068.770000	919.497070	-38.541924
9952.854255	4068.770000	918.331055	-106.772087
9952.854255	4068.770000	917.165039	-102.290627
9952.854255	4068.770000	915.999023	-10.604767
9952.854255	4068.770000	914.833008	-78.845749
9952.854255	4068.770000	913.666016	51.518269
9952.854255	4068.770000	912.499023	60.746140
9952.854255	4068.770000	911.332031	-109.187927
9952.854255	4068.770000	910.165039	-3.146640
9952.854255	4068.770000	908.997070	-267.402893
9952.854255	4068.770000	907.830078	-52.529781
9952.854255	4068.770000	906.661133	84.838348
9952.854255	4068.770000	905.493164	-5.194773
9952.854255	4068.770000	904.325195	18.435831
9952.854255	4068.770000	903.156250	10.616853
9952.854255	4068.770000	901.987305	-52.802937
9952.854255	4068.770000	900.818359	36.023697
9952.854255	4068.770000	899.648438	151.375977
9952.854255	4068.770000	898.478516	-25.602364
9952.854255	4068.770000	897.308594	67.951996
9952.854255	4068.770000	896.138672	64.875549
9952.854255	4068.770000	894.968750	373.187866
9952.854255	4068.770000	893.797852	184.184708
9952.854255	4068.770000	892.626953	120.719795
9952.854255	4068.770000	891.456055	81.391312
9952.854255	4068.770000	890.284180	85.481789
9952.854255	4068.770000	889.113281	263.183105
9952.854255	4068.770000	887.941406	81.558792
9952.854255	4068.770000	886.768555	112.120552
9952.854255	4068.770000	885.596680	133.014435
9952.854255	4068.770000	884.423828	308.097351
9952.854255	4068.770000	883.250977	365.051208
9952.854255	4068.770000	882.078125	332.850647
9952.854255	4068.770000	880.905273	307.873596
9952.854255	4068.770000	879.731445	246.780884
9952.854255	4068.770000	878.557617	219.397003
9952.854255	4068.770000	877.383789	69.274704
9952.854255	4068.770000	876.209961	236.803650
9952.854255	4068.770000	875.035156	228.641632
9952.854255	4068.770000	873.860352	196.417923
9952.854255	4068.770000	872.685547	108.886894
9952.854255	4068.770000	871.510742	16.569532
9952.854255	4068.770000	870.334961	205.500549
9952.854255	4068.770000	869.159180	2.629036
9952.854255	4068.770000	867.983398	-15.170504
9952.854255	4068.770000	866.807617	94.336754
9952.854255	4068.770000	865.630859	33.267990
9952.854255	4068.770000	864.454102	-1.377859
9952.854255	4068.770000	863.277344	2.386962
9952.854255	4068.770000	862.100586	20.537018
9952.854255	4068.770000	860.922852	91.457977
9952.854255	4068.770000	859.745117	83.162491
9952.854255	4068.770000	858.567383	106.038193
9952.854255	4068.770000	857.389648	-15.002852
9952.854255	4068.770000	856.210938	17.445459
9952.854255	4068.770000	855.032227	-110.749207
9952.854255	4068.770000	853.853516	-4.025878
9952.854255	4068.770000	852.674805	-19.570177
9952.854255	4068.770000	851.495117	94.248070
9952.854255	4068.770000	850.315430	-84.217590
9952.854255	4068.770000	849.135742	-37.517059
9952.854255	4068.770000	847.956055	80.977036
9952.854255	4068.770000	846.775391	-47.153049
9952.854255	4068.770000	845.595703	-43.615086
9952.854255	4068.770000	844.415039	-257.838715
9952.854255	4068.770000	843.233398	63.887348
9952.854255	4068.770000	842.052734	-135.951721
9952.854255	4068.770000	840.871094	37.322250
9952.854255	4068.770000	839.689453	-133.771103
9952.854255	4068.770000	838.506836	-94.460175
9952.854255	4068.770000	837.325195	-26.503845
9952.854255	4068.770000	836.142578	50.965393
9952.854255	4068.770000	834.959961	4.164975
9952.854255	4068.770000	833.777344	55.290089
9952.854255	4068.770000	832.593750	44.292915
9952.854255	4068.770000	831.410156	-55.050972
9952.854255	4068.770000	830.226563	55.675770
9952.854255	4068.770000	829.042969	111.452499
9952.854255	4068.770000	827.858398	50.278706
9952.854255	4068.770000	826.673828	-10.887394
9952.854255	4068.770000	825.489258	133.057571
9952.854255	4068.770000	824.304688	107.629593
9952.854255	4068.770000	823.120117	232.383179
9952.854255	4068.770000	821.934570	-36.203732
9952.854255	4068.770000	820.749023	-64.019066
9952.854255	4068.770000	819.562500	-32.279278
9952.854255	4068.770000	818.376953	240.008133
9952.854255	4068.770000	817.190430	33.484589
9952.854255	4068.770000	816.003906	167.509796
9952.854255	4068.770000	814.817383	63.409767
9952.854255	4068.770000	813.629883	47.393230
9952.854255	4068.770000	812.442383	12.327747
9952.854255	4068.770000	811.254883	198.506592
9952.854255	4068.770000	810.067383	-64.956131
9952.854255	4068.770000	808.878906	-69.123260
9952.854255	4068.770000	807.690430	36.058861
9952.854255	4068.770000	806.501953	43.716991
9952.854255	4068.770000	805.313477	-10.440549
9952.854255	4068.770000	804.124023	94.600983
9952.854255	4068.770000	802.934570	23.783964
9952.854255	4068.770000	801.745117	55.103802
9952.854255	4068.770000	800.555664	38.896736
9952.854255	4068.770000	799.365234	72.530464
9952.854255	4068.770000	798.175781	4.062452
9952.854255	4068.770000	796.985352	-175.937256
9952.854255	4068.770000	795.793945	118.642883
9952.854255	4068.770000	794.603516	-4.419806
9952.854255	4068.770000	793.412109	-15.987055
9952.854255	4068.770000	792.220703	114.697617
9952.854255	4068.770000	791.028320	-136.375198
9952.854255	4068.770000	789.836914	-48.430481
9952.854255	4068.770000	788.644531	1.538047
9952.854255	4068.770000	787.452148	86.999825
9952.854255	4068.770000	786.258789	-9.989692
9952.854255	4068.770000	785.066406	6.711840
9952.854255	4068.770000	783.873047	-0.296675
9952.854255	4068.770000	782.679688	-135.158035
9952.854255	4068.770000	781.485352	94.489784
9952.854255	4068.770000	780.291992	16.403522
9952.854255	4068.770000	779.097656	-66.407913
9952.854255	4068.770000	777.903320	-59.330410
9952.854255	4068.770000	776.708008	-106.672928
9952.854255	4068.770000	775.512695	4.385223
9952.854255	4068.770000	774.318359	6.636023
9952.854255	4068.770000	773.122070	86.846733
9952.854255	4068.770000	771.926758	-0.762064
9952.854255	4068.770000	770.730469	-31.667110
9952.854255	4068.770000	769.534180	-116.908936
9952.854255	4068.770000	768.337891	31.629431
9952.854255	4068.770000	767.141602	88.004417
9952.854255	4068.770000	765.944336	92.399040
9952.854255	4068.770000	764.747070	146.320724
9952.854255	4068.770000	763.549805	247.378143
9952.854255	4068.770000	762.351563	225.701508
9952.854255	4068.770000	761.154297	229.947678
9952.854255	4068.770000	759.956055	243.593597
9952.854255	4068.770000	758.757813	370.359222
9952.854255	4068.770000	757.558594	178.856079
9952.854255	4068.770000	756.359375	142.927246
9952.854255	4068.770000	755.160156	182.372787
9952.854255	4068.770000	753.960938	139.330170
9952.854255	4068.770000	752.761719	371.805542
9952.854255	4068.770000	751.561523	206.245361
9952.854255	4068.770000	750.361328	217.271042
9952.854255	4068.770000	749.160156	258.854889
9952.854255	4068.770000	747.959961	145.093216
9952.854255	4068.770000	746.758789	290.120667
9952.854255	4068.770000	745.557617	223.374268
9952.854255	4068.770000	744.356445	290.659943
9952.854255	4068.770000	743.154297	92.215485
9952.854255	4068.770000	741.952148	81.865158
9952.854255	4068.770000	740.750000	125.536522
9952.854255	4068.770000	739.547852	272.536987
9952.854255	4068.770000	738.344727	97.618378
9952.854255	4068.770000	737.142578	-18.545803
9952.854255	4068.770000	735.939453	255.086349
9952.854255	4068.770000	734.735352	101.305077
9952.854255	4068.770000	733.532227	74.298706
9952.854255	4068.770000	732.328125	148.171967
9952.854255	4068.770000	731.124023	69.481354
9952.854255	4068.770000	729.918945	206.585449
9952.854255	4068.770000	728.714844	113.772865
9952.854255	4068.770000	727.509766	74.889862
9952.854255	4068.770000	726.303711	193.044571
9952.854255	4068.770000	725.098633	55.655209
9952.854255	4068.770000	723.892578	84.650841
9952.854255	4068.770000	722.686523	-3.536332
9952.854255	4068.770000	721.480469	-119.829811
9952.854255	4068.770000	720.274414	-83.899658
9952.854255	4068.770000	719.067383	179.075867
9952.854255	4068.770000	717.860352	18.230745
9952.854255	4068.770000	716.653320	23.573130
9952.854255	4068.770000	715.445313	-162.985947
9952.854255	4068.770000	714.238281	24.779871
9952.854255	4068.770000	713.030273	-72.902954
9952.854255	4068.770000	711.821289	-95.759735
9952.854255	4068.770000	710.613281	23.962944
9952.854255	4068.770000	709.404297	-50.401695
9952.854255	4068.770000	708.195313	132.276672
9952.854255	4068.770000	706.986328	-47.290611
9952.854255	4068.770000	705.776367	16.104139
9952.854255	4068.770000	704.566406	-9.310004
9952.854255	4068.770000	703.356445	-83.784103
9952.854255	4068.770000	702.146484	-123.250374
9952.854255	4068.770000	700.935547	-55.383041
9952.854255	4068.770000	699.724609	75.417702
9952.854255	4068.770000	698.513672	10.161553
9952.854255	4068.770000	697.302734	166.472000
9952.854255	4068.770000	696.090820	52.172733
9952.854255	4068.770000	694.878906	-69.111862
9952.854255	4068.770000	693.666992	47.369637
9952.854255	4068.770000	692.455078	40.249516
9952.854255	4068.770000	691.242188	44.740055
9952.854255	4068.770000	690.029297	-71.943405
9952.854255	4068.770000	688.816406	14.003802
9952.854255	4068.770000	687.602539	-49.151424
9952.854255	4068.770000	686.389648	80.906670
9952.854255	4068.770000	685.175781	-101.018112
9952.854255	4068.770000	683.960938	52.181583
9952.854255	4068.770000	682.747070	-129.740799
9952.854255	4068.770000	681.532227	48.907055
9952.854255	4068.770000	680.317383	-72.556190
9952.854255	4068.770000	679.102539	-47.529423
9952.854255	4068.770000	677.886719	-76.021324
9952.854255	4068.770000	676.670898	55.820553
9952.854255	4068.770000	675.455078	22.591982
9952.854255	4068.770000	674.239258	161.247116
9952.854255	4068.770000	673.022461	51.281593
9952.854255	4068.770000	671.805664	-2.946137
9952.854255	4068.770000	670.588867	-101.302193
9952.854255	4068.770000	669.372070	-51.102882
9952.854255	4068.770000	668.154297	50.086281
9952.854255	4068.770000	666.936523	35.185448
9952.854255	4068.770000	665.718750	231.342194
9952.854255	4068.770000	664.500977	98.051750
9952.854255	4068.770000	663.282227	173.458496
9952.854255	4068.770000	662.063477	-22.435740
9952.854255	4068.770000	660.844727	8.849179
9952.854255	4068.770000	659.625000	56.299839
9952.854255	4068.770000	658.405273	182.460175
9952.854255	4068.770000	657.185547	-168.617859
9952.854255	4068.770000	655.965820	-174.538116
9952.854255	4068.770000	654.745117	-48.527462
9952.854255	4068.770000	653.525391	-1.307378
9952.854255	4068.770000	652.303711	268.020172
9952.854255	4068.770000	651.083008	127.656670
9952.854255	4068.770000	649.861328	112.229156
9952.854255	4068.770000	648.640625	119.904076
9952.854255	4068.770000	647.417969	35.037178
9952.854255	4068.770000	646.196289	135.119888
9952.854255	4068.770000	644.973633	154.223358
9952.854255	4068.770000	643.750977	92.401260
9952.854255	4068.770000	642.528320	58.293514
9952.854255	4068.770000	641.305664	245.914078
9952.854255	4068.770000	640.082031	50.055386
9952.854255	4068.770000	638.858398	22.793697
9952.854255	4068.770000	637.634766	80.921326
9952.854255	4068.770000	636.410156	55.898609
9952.854255	4068.770000	635.185547	106.998222
9952.854255	4068.770000	633.960938	-74.961143
9952.854255	4068.770000	632.736328	142.141953
9952.854255	4068.770000	631.510742	87.009972
9952.854255	4068.770000	630.285156	13.423550
9952.854255	4068.770000	629.059570	-101.654068
9952.854255	4068.770000	627.833984	73.652512
9952.854255	4068.770000	626.607422	82.959763
9952.854255	4068.770000	625.380859	179.764236
9952.854255	4068.770000	624.154297	122.192345
9952.854255	4068.770000	622.927734	223.490585
9952.854255	4068.770000	621.700195	331.617157
9952.854255	4068.770000	620.472656	269.350037
9952.854255	4068.770000	619.245117	55.207249
9952.854255	4068.770000	618.016602	71.183083
9952.854255	4068.770000	616.788086	77.921806
9952.854255	4068.770000	615.559570	213.408249
9952.854255	4068.770000	614.331055	-60.437168
9952.854255	4068.770000	613.101563	132.427658
9952.854255	4068.770000	611.872070	-42.522812
9952.854255	4068.770000	610.642578	150.202148
9952.854255	4068.770000	609.413086	-29.325645
9952.854255	4068.770000	608.182617	-27.366859
9952.854255	4068.770000	606.952148	-9.361968
9952.854255	4068.770000	605.721680	10.907338
9952.854255	4068.770000	604.491211	-221.332809
9952.854255	4068.770000	603.259766	-1.435865
9952.854255	4068.770000	602.028320	-43.202564
9952.854255	4068.770000	600.796875	114.585434
9952.854255	4068.770000	599.564453	47.537548
9952.854255	4068.770000	598.332031	8.010341
9952.854255	4068.770000	597.099609	18.909681
9952.854255	4068.770000	595.867188	-93.973793
9952.854255	4068.770000	594.633789	-18.944750
9952.854255	4068.770000	593.400391	113.304634
9952.854255	4068.770000	592.166992	69.122627
9952.854255	4068.770000	590.933594	-59.784061
9952.854255	4068.770000	589.699219	60.884346
9952.854255	4068.770000	588.464844	121.973846
9952.854255	4068.770000	587.230469	114.369865
9952.854255	4068.770000	585.995117	-41.965710
9952.854255	4068.770000	584.760742	-47.275013
9952.854255	4068.770000	583.525391	-73.181778
9952.854255	4068.770000	582.289063	102.111519
9952.854255	4068.770000	581.053711	-10.709459
9952.854255	4068.770000	579.817383	6.773520
9952.854255	4068.770000	578.581055	140.771805
9952.854255	4068.770000	577.343750	-20.002707
9952.854255	4068.770000	576.107422	125.344704
9952.854255	4068.770000	574.870117	69.664841
9952.854255	4068.770000	573.631836	198.922287
9952.854255	4068.770000	572.394531	79.323318
9952.854255	4068.770000	571.156250	197.098633
9952.854255	4068.770000	569.917969	109.474304
9952.854255	4068.770000	568.679688	222.619019
9952.854255	4068.770000	567.440430	223.955612
9952.854255	4068.770000	566.202148	225.291992
9952.854255	4068.770000	564.961914	-49.221035
9952.854255	4068.770000	563.722656	100.307236
9952.854255	4068.770000	562.482422	133.552811
9952.854255	4068.770000	561.243164	212.351883
9952.854255	4068.770000	560.001953	26.895380
9952.854255	4068.770000	558.761719	171.717514
9952.854255	4068.770000	557.520508	4.563644
9952.854255	4068.770000	556.279297	242.652069
9952.854255	4068.770000	555.038086	-15.470585
9952.854255	4068.770000	553.795898	56.428146
9952.854255	4068.770000	552.554688	-26.380009
9952.854255	4068.770000	551.311523	63.688499
9952.854255	4068.770000	550.069336	196.930511
9952.854255	4068.770000	548.826172	170.985992
9952.854255	4068.770000	547.583984	42.786762
9952.854255	4068.770000	546.339844	87.339310
9952.854255	4068.770000	545.096680	52.370071
9952.854255	4068.770000	543.852539	19.692883
9952.854255	4068.770000	542.608398	0.664617
9952.854255	4068.770000	541.364258	213.235214
9952.854255	4068.770000	540.119141	141.982910
9952.854255	4068.770000	538.875000	-24.536615
9952.854255	4068.770000	537.628906	122.131554
9952.854255	4068.770000	536.383789	80.473366
9952.854255	4068.770000	535.137695	11.627982
9952.854255	4068.770000	533.892578	42.600174
9952.854255	4068.770000	532.645508	84.900673
9952.854255	4068.770000	531.399414	36.544514
9952.854255	4068.770000	530.152344	47.137741
9952.854255	4068.770000	528.905273	-75.921959
9952.854255	4068.770000	527.658203	-83.392738
9952.854255	4068.770000	526.410156	-22.909180
9952.854255	4068.770000	525.163086	-132.233398
9952.854255	4068.770000	523.914063	-73.993065
9952.854255	4068.770000	522.666016	-128.906952
9952.854255	4068.770000	521.416992	-190.568085
9952.854255	4068.770000	520.167969	-5.609238
9952.854255	4068.770000	518.918945	-33.301350
9952.854255	4068.770000	517.669922	47.577801
9952.854255	4068.770000	516.419922	-72.757690
9952.854255	4068.770000	515.169922	177.653000
9952.854255	4068.770000	513.919922	70.949020
9952.854255	4068.770000	512.668945	79.531990
9952.854255	4068.770000	511.417969	-58.680370
9952.854255	4068.770000	510.166992	-316.494263
9952.854255	4068.770000	508.916016	-72.947327
9952.854255	4068.770000	507.664063	7.993856
9952.854255	4068.770000	506.412109	25.738070
9952.854255	4068.770000	505.160156	-118.951645
9952.854255	4068.770000	503.907227	-49.251774
9952.854255	4068.770000	502.655273	92.622322
9952.854255	4068.770000	501.402344	-87.983498
9952.854255	4068.770000	500.148438	191.402786
9952.854255	4068.770000	498.895508	55.990402
9952.854255	4068.770000	497.641602	141.494415
9952.854255	4068.770000	496.387695	-56.875038
9952.854255	4068.770000	495.132813	-77.190964
9952.854255	4068.770000	493.878906	-110.976868
9952.854255	4068.770000	492.624023	-110.948257
9952.854255	4068.770000	491.368164	96.194786
9952.854255	4068.770000	490.113281	175.005646
9952.854255	4068.770000	488.857422	55.809902
9952.854255	4068.770000	487.601563	-103.795052
9952.854255	4068.770000	486.344727	-45.149837
9952.854255	4068.770000	485.088867	-35.963146
9952.854255	4068.770000	483.832031	38.440250
9952.854255	4068.770000	482.575195	121.831337
9952.854255	4068.770000	481.317383	-84.661827
9952.854255	4068.770000	480.059570	95.379074
9952.854255	4068.770000	478.801758	-196.312897
9952.854255	4068.770000	477.543945	-119.566277
9952.854255	4068.770000	476.285156	-45.073372
9952.854255	4068.770000	475.027344	-96.281906
9952.854255	4068.770000	473.767578	88.190956
9952.854255	4068.770000	472.508789	-57.208645
9952.854255	4068.770000	471.249023	-85.875771
9952.854255	4068.770000	469.989258	-67.407326
9952.854255	4068.770000	468.729492	-37.711285
9952.854255	4068.770000	467.469727	-243.389008
9952.854255	4068.770000	466.208984	73.260460
9952.854255	4068.770000	464.948242	51.435818
9952.854255	4068.770000	463.686523	16.196356
9952.854255	4068.770000	462.425781	-72.759155
9952.854255	4068.770000	461.164063	71.230743
9952.854255	4068.770000	459.901367	94.275291
9952.854255	4068.770000	458.639648	-8.018826
9952.854255	4068.770000	457.376953	-40.880878
9952.854255	4068.770000	456.114258	49.342308
9952.854255	4068.770000	454.851563	85.854385
9952.854255	4068.770000	453.587891	117.885139
9952.854255	4068.770000	452.324219	85.069908
9952.854255	4068.770000	451.060547	260.176575
9952.854255	4068.770000	449.796875	-11.784842
9952.854255	4068.770000	448.532227	67.191513
9952.854255	4068.770000	447.267578	-59.393158
9952.854255	4068.770000	446.002930	137.940643
9952.854255	4068.770000	444.737305	42.654587
9952.854255	4068.770000	443.471680	23.314083
9952.854255	4068.770000	442.206055	37.458897
9952.854255	4068.770000	440.940430	270.286926
9952.854255	4068.770000	439.673828	128.171585
9952.854255	4068.770000	438.407227	99.868340
9952.854255	4068.770000	437.140625	198.681259
9952.854255	4068.770000	435.873047	9.801804
9952.854255	4068.770000	434.605469	108.550598
9952.854255	4068.770000	433.337891	289.694275
9952.854255	4068.770000	432.070313	185.519928
9952.854255	4068.770000	430.801758	150.418716
9952.854255	4068.770000	429.533203	204.389618
9952.854255	4068.770000	428.264648	253.848267
9952.854255	4068.770000	426.996094	71.710197
9952.854255	4068.770000	425.726563	216.798660
9952.854255	4068.770000	424.457031	157.047806
9952.854255	4068.770000	423.186523	83.919273
9952.854255	4068.770000	421.916992	437.850433
9952.854255	4068.770000	420.646484	86.593201
9952.854255	4068.770000	419.375977	220.128250
9952.854255	4068.770000	418.104492	157.917511
9952.854255	4068.770000	416.833008	86.772522
9952.854255	4068.770000	415.561523	246.665329
9952.854255	4068.770000	414.290039	90.958488
9952.854255	4068.770000	413.017578	126.235184
9952.854255	4068.770000	411.746094	41.501938
9952.854255	4068.770000	410.472656	32.182480
9952.854255	4068.770000	409.200195	167.041031
9952.854255	4068.770000	407.926758	137.519333
9952.854255	4068.770000	406.653320	214.389236
9952.854255	4068.770000	405.379883	180.203674
9952.854255	4068.770000	404.105469	12.846967
9952.854255	4068.770000	402.831055	140.312454
9952.854255	4068.770000	401.556641	238.769745
9952.854255	4068.770000	400.282227	79.964500
9952.854255	4068.770000	399.006836	76.173538
9952.854255	4068.770000	397.731445	205.140869
9952.854255	4068.770000	396.456055	96.912407
9952.854255	4068.770000	395.179688	123.624428
9952.854255	4068.770000	393.903320	267.478760
9952.854255	4068.770000	392.626953	68.023743
9952.854255	4068.770000	391.350586	41.062359
9952.854255	4068.770000	390.073242	140.009842
9952.854255	4068.770000	388.795898	234.281708
9952.854255	4068.770000	387.518555	23.125677
9952.854255	4068.770000	386.240234	326.967621
9952.854255	4068.770000	384.961914	236.990509
9952.854255	4068.770000	383.683594	89.350639
9952.854255	4068.770000	382.405273	224.333023
9952.854255	4068.770000	381.125977	67.403961
9952.854255	4068.770000	379.846680	100.201332
9952.854255	4068.770000	378.567383	92.959709
9952.854255	4068.770000	377.287109	-91.179176
9952.854255	4068.770000	376.006836	62.138321
9952.854255	4068.770000	374.726563	36.345314
9952.854255	4068.770000	373.446289	67.599289
9952.854255	4068.770000	372.165039	138.198303
9952.854255	4068.770000	370.883789	100.370964
9952.854255	4068.770000	369.602539	-197.944702
9952.854255	4068.770000	368.320313	50.124950
9952.854255	4068.770000	367.039063	86.163010
9952.854255	4068.770000	365.755859	-89.733986
9952.854255	4068.770000	364.473633	106.310326
9952.854255	4068.770000	363.190430	2.335361
9952.854255	4068.770000	361.907227	-121.840309
9952.854255	4068.770000	360.624023	-215.588104
9952.854255	4068.770000	359.340820	73.187096
9952.854255	4068.770000	358.056641	-65.510017
9952.854255	4068.770000	356.772461	35.151028
9952.854255	4068.770000	355.487305	-58.290279
9952.854255	4068.770000	354.202148	-79.643990
9952.854255	4068.770000	352.916992	-211.438507
9952.854255	4068.770000	351.631836	58.498627
9952.854255	4068.770000	350.346680	-28.230728
9952.854255	4068.770000	349.060547	-212.181473
9952.854255	4068.770000	347.774414	51.438347
9952.854255	4068.770000	346.487305	-28.262682
9952.854255	4068.770000	345.200195	-60.256073
9952.854255	4068.770000	343.913086	113.453918
9952.854255	4068.770000	342.625977	-167.854080
9952.854255	4068.770000	341.338867	-72.335381
9952.854255	4068.770000	340.050781	83.843933
9952.854255	4068.770000	338.762695	41.853664
9952.854255	4068.770000	337.473633	47.361835
9952.854255	4068.770000	336.184570	-11.465323
9952.854255	4068.770000	334.895508	-64.470451
9952.854255	4068.770000	333.606445	17.605011
9952.854255	4068.770000	332.317383	22.149157
9952.854255	4068.770000	331.027344	-118.728561
9952.854255	4068.770000	329.736328	30.811359
9952.854255	4068.770000	328.446289	8.656367
9952.854255	4068.770000	327.155273	16.225292
9952.854255	4068.770000	325.864258	51.309132
9952.854255	4068.770000	324.573242	-150.867523
9952.854255	4068.770000	323.281250	63.835308
9952.854255	4068.770000	321.989258	-203.680191
9952.854255	4068.770000	320.697266	-8.578424
9952.854255	4068.770000	319.405273	78.274666
9952.854255	4068.770000	318.112305	-124.499435
9952.854255	4068.770000	316.819336	-107.601791
9952.854255	4068.770000	315.526367	80.737984
9952.854255	4068.770000	314.232422	12.273241
9952.854255	4068.770000	312.938477	25.631109
9952.854255	4068.770000	311.644531	162.208527
9952.854255	4068.770000	310.349609	48.632633
9952.854255	4068.770000	309.054688	3.666502
9952.854255	4068.770000	307.759766	68.686096
9952.854255	4068.770000	306.464844	186.880371
9952.854255	4068.770000	305.168945	303.626465
9952.854255	4068.770000	303.873047	255.413818
9952.854255	4068.770000	302.577148	-60.130646
9952.854255	4068.770000	301.281250	248.467117
9952.854255	4068.770000	299.984375	265.619843
