#X		#Y		#Wave		#Intensity
9903.063830	4720.585000	1999.946289	13.169321
9903.063830	4720.585000	1998.981445	54.327251
9903.063830	4720.585000	1998.017578	-0.439057
9903.063830	4720.585000	1997.052734	48.767990
9903.063830	4720.585000	1996.088867	-102.866608
9903.063830	4720.585000	1995.124023	3.060941
9903.063830	4720.585000	1994.159180	-19.964756
9903.063830	4720.585000	1993.193359	93.096565
9903.063830	4720.585000	1992.228516	2.978566
9903.063830	4720.585000	1991.262695	-151.578262
9903.063830	4720.585000	1990.296875	-43.849724
9903.063830	4720.585000	1989.331055	-3.082156
9903.063830	4720.585000	1988.365234	7.876520
9903.063830	4720.585000	1987.398438	-40.635574
9903.063830	4720.585000	1986.432617	31.945410
9903.063830	4720.585000	1985.465820	119.238228
9903.063830	4720.585000	1984.499023	-21.035467
9903.063830	4720.585000	1983.532227	-94.617393
9903.063830	4720.585000	1982.565430	12.135452
9903.063830	4720.585000	1981.597656	140.996872
9903.063830	4720.585000	1980.629883	-9.422585
9903.063830	4720.585000	1979.662109	40.185959
9903.063830	4720.585000	1978.694336	200.814957
9903.063830	4720.585000	1977.726563	163.787872
9903.063830	4720.585000	1976.758789	55.109764
9903.063830	4720.585000	1975.790039	-38.796913
9903.063830	4720.585000	1974.821289	-4.430721
9903.063830	4720.585000	1973.852539	61.921288
9903.063830	4720.585000	1972.883789	51.711273
9903.063830	4720.585000	1971.915039	61.164803
9903.063830	4720.585000	1970.945313	112.464523
9903.063830	4720.585000	1969.975586	-77.916260
9903.063830	4720.585000	1969.005859	190.162933
9903.063830	4720.585000	1968.036133	44.069118
9903.063830	4720.585000	1967.066406	-62.609047
9903.063830	4720.585000	1966.096680	72.109627
9903.063830	4720.585000	1965.125977	209.184555
9903.063830	4720.585000	1964.155273	28.486666
9903.063830	4720.585000	1963.184570	103.856422
9903.063830	4720.585000	1962.213867	-54.707542
9903.063830	4720.585000	1961.242188	173.136642
9903.063830	4720.585000	1960.271484	110.484161
9903.063830	4720.585000	1959.299805	131.454605
9903.063830	4720.585000	1958.328125	34.300869
9903.063830	4720.585000	1957.356445	165.853455
9903.063830	4720.585000	1956.384766	179.287537
9903.063830	4720.585000	1955.412109	143.506073
9903.063830	4720.585000	1954.439453	-111.062241
9903.063830	4720.585000	1953.467773	54.654072
9903.063830	4720.585000	1952.495117	178.500305
9903.063830	4720.585000	1951.521484	49.234413
9903.063830	4720.585000	1950.548828	15.768528
9903.063830	4720.585000	1949.575195	-187.162689
9903.063830	4720.585000	1948.601563	39.608799
9903.063830	4720.585000	1947.627930	175.435669
9903.063830	4720.585000	1946.654297	271.909821
9903.063830	4720.585000	1945.680664	164.648468
9903.063830	4720.585000	1944.706055	69.663254
9903.063830	4720.585000	1943.732422	104.688835
9903.063830	4720.585000	1942.757813	75.907455
9903.063830	4720.585000	1941.783203	-31.355555
9903.063830	4720.585000	1940.807617	86.936569
9903.063830	4720.585000	1939.833008	151.235428
9903.063830	4720.585000	1938.857422	92.951477
9903.063830	4720.585000	1937.881836	152.274292
9903.063830	4720.585000	1936.906250	76.816025
9903.063830	4720.585000	1935.930664	45.449524
9903.063830	4720.585000	1934.955078	-37.352764
9903.063830	4720.585000	1933.978516	70.826462
9903.063830	4720.585000	1933.001953	-80.534149
9903.063830	4720.585000	1932.025391	-77.669250
9903.063830	4720.585000	1931.048828	-126.210976
9903.063830	4720.585000	1930.072266	28.308119
9903.063830	4720.585000	1929.094727	53.108837
9903.063830	4720.585000	1928.118164	43.644012
9903.063830	4720.585000	1927.140625	-24.518496
9903.063830	4720.585000	1926.163086	-36.443985
9903.063830	4720.585000	1925.184570	15.169250
9903.063830	4720.585000	1924.207031	147.393234
9903.063830	4720.585000	1923.228516	-133.372345
9903.063830	4720.585000	1922.250000	-52.500420
9903.063830	4720.585000	1921.271484	-13.193640
9903.063830	4720.585000	1920.292969	92.017189
9903.063830	4720.585000	1919.314453	43.361031
9903.063830	4720.585000	1918.334961	-12.614544
9903.063830	4720.585000	1917.355469	26.602274
9903.063830	4720.585000	1916.375977	31.631006
9903.063830	4720.585000	1915.396484	-58.502586
9903.063830	4720.585000	1914.416992	-29.091127
9903.063830	4720.585000	1913.436523	92.971420
9903.063830	4720.585000	1912.457031	161.335281
9903.063830	4720.585000	1911.476563	-16.563229
9903.063830	4720.585000	1910.496094	176.082565
9903.063830	4720.585000	1909.515625	-28.578602
9903.063830	4720.585000	1908.534180	-60.181076
9903.063830	4720.585000	1907.552734	-140.503143
9903.063830	4720.585000	1906.572266	-84.408989
9903.063830	4720.585000	1905.590820	108.021866
9903.063830	4720.585000	1904.608398	76.380402
9903.063830	4720.585000	1903.626953	137.242676
9903.063830	4720.585000	1902.644531	263.785919
9903.063830	4720.585000	1901.663086	13.109577
9903.063830	4720.585000	1900.680664	239.359619
9903.063830	4720.585000	1899.698242	-28.262808
9903.063830	4720.585000	1898.714844	64.135109
9903.063830	4720.585000	1897.732422	71.390167
9903.063830	4720.585000	1896.749023	-166.902603
9903.063830	4720.585000	1895.765625	-1.634825
9903.063830	4720.585000	1894.782227	219.457245
9903.063830	4720.585000	1893.798828	90.582672
9903.063830	4720.585000	1892.814453	-123.274071
9903.063830	4720.585000	1891.831055	-60.176548
9903.063830	4720.585000	1890.846680	-142.810150
9903.063830	4720.585000	1889.862305	-94.315536
9903.063830	4720.585000	1888.877930	121.645180
9903.063830	4720.585000	1887.892578	-92.055885
9903.063830	4720.585000	1886.908203	339.768677
9903.063830	4720.585000	1885.922852	-138.347855
9903.063830	4720.585000	1884.937500	169.602234
9903.063830	4720.585000	1883.952148	259.165802
9903.063830	4720.585000	1882.965820	-63.509708
9903.063830	4720.585000	1881.980469	-121.829666
9903.063830	4720.585000	1880.994141	76.784988
9903.063830	4720.585000	1880.007813	13.597855
9903.063830	4720.585000	1879.021484	59.456516
9903.063830	4720.585000	1878.035156	168.273010
9903.063830	4720.585000	1877.047852	194.692703
9903.063830	4720.585000	1876.061523	51.588619
9903.063830	4720.585000	1875.074219	7.793592
9903.063830	4720.585000	1874.086914	-43.255932
9903.063830	4720.585000	1873.098633	17.031670
9903.063830	4720.585000	1872.111328	99.066551
9903.063830	4720.585000	1871.123047	79.451965
9903.063830	4720.585000	1870.135742	38.068787
9903.063830	4720.585000	1869.147461	52.312225
9903.063830	4720.585000	1868.158203	6.093242
9903.063830	4720.585000	1867.169922	-6.271703
9903.063830	4720.585000	1866.180664	-95.987083
9903.063830	4720.585000	1865.192383	46.309486
9903.063830	4720.585000	1864.203125	-91.722260
9903.063830	4720.585000	1863.213867	-82.359703
9903.063830	4720.585000	1862.223633	79.143898
9903.063830	4720.585000	1861.234375	71.547455
9903.063830	4720.585000	1860.244141	-95.398560
9903.063830	4720.585000	1859.253906	184.260925
9903.063830	4720.585000	1858.263672	-79.198921
9903.063830	4720.585000	1857.273438	31.427795
9903.063830	4720.585000	1856.282227	-29.283173
9903.063830	4720.585000	1855.291992	102.978943
9903.063830	4720.585000	1854.300781	-90.380241
9903.063830	4720.585000	1853.309570	-18.459358
9903.063830	4720.585000	1852.317383	-11.666087
9903.063830	4720.585000	1851.326172	168.647324
9903.063830	4720.585000	1850.333984	172.968430
9903.063830	4720.585000	1849.342773	56.813179
9903.063830	4720.585000	1848.350586	147.845825
9903.063830	4720.585000	1847.357422	96.736053
9903.063830	4720.585000	1846.365234	-50.683720
9903.063830	4720.585000	1845.372070	8.979205
9903.063830	4720.585000	1844.379883	-37.301094
9903.063830	4720.585000	1843.386719	80.065285
9903.063830	4720.585000	1842.393555	21.728848
9903.063830	4720.585000	1841.399414	-29.385237
9903.063830	4720.585000	1840.406250	-70.873100
9903.063830	4720.585000	1839.412109	-42.623474
9903.063830	4720.585000	1838.417969	223.624557
9903.063830	4720.585000	1837.423828	93.123703
9903.063830	4720.585000	1836.429688	135.699890
9903.063830	4720.585000	1835.434570	120.572151
9903.063830	4720.585000	1834.440430	81.410141
9903.063830	4720.585000	1833.445313	-15.403555
9903.063830	4720.585000	1832.450195	-20.938019
9903.063830	4720.585000	1831.454102	-26.487967
9903.063830	4720.585000	1830.458984	-8.045723
9903.063830	4720.585000	1829.462891	190.387390
9903.063830	4720.585000	1828.466797	4.764793
9903.063830	4720.585000	1827.470703	49.529640
9903.063830	4720.585000	1826.474609	29.489311
9903.063830	4720.585000	1825.478516	11.835968
9903.063830	4720.585000	1824.481445	121.261108
9903.063830	4720.585000	1823.484375	-28.304195
9903.063830	4720.585000	1822.487305	-24.420721
9903.063830	4720.585000	1821.490234	125.633972
9903.063830	4720.585000	1820.493164	-19.113976
9903.063830	4720.585000	1819.495117	118.863777
9903.063830	4720.585000	1818.498047	86.709114
9903.063830	4720.585000	1817.500000	123.992561
9903.063830	4720.585000	1816.500977	130.114258
9903.063830	4720.585000	1815.502930	38.063847
9903.063830	4720.585000	1814.504883	82.454605
9903.063830	4720.585000	1813.505859	102.874313
9903.063830	4720.585000	1812.506836	-5.931274
9903.063830	4720.585000	1811.507813	93.394073
9903.063830	4720.585000	1810.508789	-8.237734
9903.063830	4720.585000	1809.508789	-16.599319
9903.063830	4720.585000	1808.508789	135.199661
9903.063830	4720.585000	1807.508789	112.428566
9903.063830	4720.585000	1806.508789	37.066681
9903.063830	4720.585000	1805.508789	150.470261
9903.063830	4720.585000	1804.508789	151.529755
9903.063830	4720.585000	1803.507813	176.447021
9903.063830	4720.585000	1802.506836	74.766869
9903.063830	4720.585000	1801.505859	147.394379
9903.063830	4720.585000	1800.504883	117.323524
9903.063830	4720.585000	1799.502930	49.052002
9903.063830	4720.585000	1798.501953	114.411034
9903.063830	4720.585000	1797.500000	148.704758
9903.063830	4720.585000	1796.498047	35.071869
9903.063830	4720.585000	1795.496094	55.008293
9903.063830	4720.585000	1794.493164	-63.385822
9903.063830	4720.585000	1793.491211	-29.184290
9903.063830	4720.585000	1792.488281	59.797680
9903.063830	4720.585000	1791.485352	-51.456367
9903.063830	4720.585000	1790.482422	16.000696
9903.063830	4720.585000	1789.478516	35.761089
9903.063830	4720.585000	1788.475586	148.377243
9903.063830	4720.585000	1787.471680	89.471214
9903.063830	4720.585000	1786.467773	147.221039
9903.063830	4720.585000	1785.463867	152.555283
9903.063830	4720.585000	1784.459961	131.681854
9903.063830	4720.585000	1783.455078	48.921368
9903.063830	4720.585000	1782.450195	256.402130
9903.063830	4720.585000	1781.445313	52.290085
9903.063830	4720.585000	1780.440430	-6.707871
9903.063830	4720.585000	1779.435547	88.835907
9903.063830	4720.585000	1778.429688	22.663813
9903.063830	4720.585000	1777.424805	4.027086
9903.063830	4720.585000	1776.418945	127.944763
9903.063830	4720.585000	1775.413086	130.620560
9903.063830	4720.585000	1774.406250	214.027267
9903.063830	4720.585000	1773.400391	-23.238947
9903.063830	4720.585000	1772.393555	-32.495159
9903.063830	4720.585000	1771.386719	3.330637
9903.063830	4720.585000	1770.379883	29.620214
9903.063830	4720.585000	1769.373047	-100.754417
9903.063830	4720.585000	1768.365234	27.511423
9903.063830	4720.585000	1767.358398	-121.848045
9903.063830	4720.585000	1766.350586	248.237488
9903.063830	4720.585000	1765.342773	110.689850
9903.063830	4720.585000	1764.334961	39.549988
9903.063830	4720.585000	1763.326172	27.667408
9903.063830	4720.585000	1762.318359	198.250244
9903.063830	4720.585000	1761.309570	98.612724
9903.063830	4720.585000	1760.300781	110.329132
9903.063830	4720.585000	1759.291016	-22.475731
9903.063830	4720.585000	1758.282227	95.769775
9903.063830	4720.585000	1757.272461	126.333794
9903.063830	4720.585000	1756.262695	-120.113564
9903.063830	4720.585000	1755.252930	-68.277367
9903.063830	4720.585000	1754.243164	26.105095
9903.063830	4720.585000	1753.233398	99.129532
9903.063830	4720.585000	1752.222656	13.608097
9903.063830	4720.585000	1751.211914	-180.700073
9903.063830	4720.585000	1750.201172	45.928669
9903.063830	4720.585000	1749.190430	38.395744
9903.063830	4720.585000	1748.179688	30.836927
9903.063830	4720.585000	1747.167969	-9.837115
9903.063830	4720.585000	1746.156250	51.075294
9903.063830	4720.585000	1745.144531	-114.845711
9903.063830	4720.585000	1744.132813	35.756371
9903.063830	4720.585000	1743.121094	65.840584
9903.063830	4720.585000	1742.108398	3.803822
9903.063830	4720.585000	1741.095703	-171.542709
9903.063830	4720.585000	1740.083008	9.518834
9903.063830	4720.585000	1739.070313	-85.591537
9903.063830	4720.585000	1738.057617	-43.863003
9903.063830	4720.585000	1737.043945	21.404942
9903.063830	4720.585000	1736.030273	93.694550
9903.063830	4720.585000	1735.016602	73.973686
9903.063830	4720.585000	1734.002930	-157.929413
9903.063830	4720.585000	1732.989258	83.965843
9903.063830	4720.585000	1731.974609	134.864716
9903.063830	4720.585000	1730.959961	-35.748447
9903.063830	4720.585000	1729.945313	48.075718
9903.063830	4720.585000	1728.930664	-47.148022
9903.063830	4720.585000	1727.916016	57.783588
9903.063830	4720.585000	1726.900391	42.578663
9903.063830	4720.585000	1725.885742	-189.188400
9903.063830	4720.585000	1724.870117	82.709023
9903.063830	4720.585000	1723.853516	69.775887
9903.063830	4720.585000	1722.837891	-37.271641
9903.063830	4720.585000	1721.822266	116.762802
9903.063830	4720.585000	1720.805664	-58.502632
9903.063830	4720.585000	1719.789063	3.728251
9903.063830	4720.585000	1718.772461	-155.047302
9903.063830	4720.585000	1717.754883	-99.928970
9903.063830	4720.585000	1716.738281	-84.797943
9903.063830	4720.585000	1715.720703	-46.209232
9903.063830	4720.585000	1714.703125	-71.079391
9903.063830	4720.585000	1713.685547	-103.010780
9903.063830	4720.585000	1712.667969	24.702875
9903.063830	4720.585000	1711.649414	95.998886
9903.063830	4720.585000	1710.630859	28.769398
9903.063830	4720.585000	1709.612305	-40.804714
9903.063830	4720.585000	1708.593750	-77.531822
9903.063830	4720.585000	1707.575195	-29.825777
9903.063830	4720.585000	1706.555664	-87.700508
9903.063830	4720.585000	1705.536133	-54.130928
9903.063830	4720.585000	1704.516602	9.878311
9903.063830	4720.585000	1703.497070	-10.539743
9903.063830	4720.585000	1702.477539	60.419838
9903.063830	4720.585000	1701.457031	28.234251
9903.063830	4720.585000	1700.437500	71.003525
9903.063830	4720.585000	1699.416992	113.728683
9903.063830	4720.585000	1698.395508	90.846443
9903.063830	4720.585000	1697.375000	-147.431717
9903.063830	4720.585000	1696.354492	77.820625
9903.063830	4720.585000	1695.333008	54.892075
9903.063830	4720.585000	1694.311523	-40.582634
9903.063830	4720.585000	1693.290039	-2.697953
9903.063830	4720.585000	1692.267578	135.720444
9903.063830	4720.585000	1691.246094	-62.669415
9903.063830	4720.585000	1690.223633	82.680054
9903.063830	4720.585000	1689.201172	-47.878536
9903.063830	4720.585000	1688.178711	22.585762
9903.063830	4720.585000	1687.155273	-68.231293
9903.063830	4720.585000	1686.132813	-142.674438
9903.063830	4720.585000	1685.109375	-30.251869
9903.063830	4720.585000	1684.085938	-95.374573
9903.063830	4720.585000	1683.062500	19.294680
9903.063830	4720.585000	1682.039063	-22.504539
9903.063830	4720.585000	1681.014648	-26.967171
9903.063830	4720.585000	1679.990234	-5.775595
9903.063830	4720.585000	1678.965820	227.699417
9903.063830	4720.585000	1677.941406	111.174988
9903.063830	4720.585000	1676.916992	1.675868
9903.063830	4720.585000	1675.891602	69.409401
9903.063830	4720.585000	1674.866211	55.505795
9903.063830	4720.585000	1673.840820	92.870667
9903.063830	4720.585000	1672.815430	76.606888
9903.063830	4720.585000	1671.790039	34.706020
9903.063830	4720.585000	1670.763672	97.628304
9903.063830	4720.585000	1669.737305	-44.442276
9903.063830	4720.585000	1668.710938	16.114756
9903.063830	4720.585000	1667.684570	39.384716
9903.063830	4720.585000	1666.658203	-28.146687
9903.063830	4720.585000	1665.630859	127.744423
9903.063830	4720.585000	1664.603516	13.656166
9903.063830	4720.585000	1663.576172	290.423859
9903.063830	4720.585000	1662.548828	285.640686
9903.063830	4720.585000	1661.520508	213.407394
9903.063830	4720.585000	1660.493164	236.518631
9903.063830	4720.585000	1659.464844	185.221527
9903.063830	4720.585000	1658.436523	240.841797
9903.063830	4720.585000	1657.408203	50.124962
9903.063830	4720.585000	1656.378906	342.690338
9903.063830	4720.585000	1655.350586	289.051392
9903.063830	4720.585000	1654.321289	154.138779
9903.063830	4720.585000	1653.291992	205.017532
9903.063830	4720.585000	1652.261719	84.080421
9903.063830	4720.585000	1651.232422	341.501099
9903.063830	4720.585000	1650.202148	155.596909
9903.063830	4720.585000	1649.171875	245.842117
9903.063830	4720.585000	1648.141602	143.521286
9903.063830	4720.585000	1647.111328	463.316467
9903.063830	4720.585000	1646.080078	569.658447
9903.063830	4720.585000	1645.049805	323.585297
9903.063830	4720.585000	1644.018555	494.800995
9903.063830	4720.585000	1642.987305	348.470245
9903.063830	4720.585000	1641.955078	477.897888
9903.063830	4720.585000	1640.923828	294.556549
9903.063830	4720.585000	1639.891602	407.725433
9903.063830	4720.585000	1638.859375	291.608276
9903.063830	4720.585000	1637.827148	476.497559
9903.063830	4720.585000	1636.794922	404.386810
9903.063830	4720.585000	1635.761719	295.270355
9903.063830	4720.585000	1634.729492	366.673523
9903.063830	4720.585000	1633.696289	329.316956
9903.063830	4720.585000	1632.662109	365.981354
9903.063830	4720.585000	1631.628906	365.639282
9903.063830	4720.585000	1630.594727	367.604218
9903.063830	4720.585000	1629.561523	496.707031
9903.063830	4720.585000	1628.527344	473.227081
9903.063830	4720.585000	1627.493164	576.841736
9903.063830	4720.585000	1626.458008	333.889099
9903.063830	4720.585000	1625.423828	689.253845
9903.063830	4720.585000	1624.388672	450.998444
9903.063830	4720.585000	1623.353516	482.970276
9903.063830	4720.585000	1622.318359	639.586670
9903.063830	4720.585000	1621.282227	634.586304
9903.063830	4720.585000	1620.247070	481.920013
9903.063830	4720.585000	1619.210938	511.568420
9903.063830	4720.585000	1618.174805	432.802643
9903.063830	4720.585000	1617.137695	582.373962
9903.063830	4720.585000	1616.101563	669.646362
9903.063830	4720.585000	1615.064453	678.509644
9903.063830	4720.585000	1614.027344	705.814941
9903.063830	4720.585000	1612.990234	712.378174
9903.063830	4720.585000	1611.953125	647.527893
9903.063830	4720.585000	1610.916016	824.571167
9903.063830	4720.585000	1609.877930	681.436096
9903.063830	4720.585000	1608.839844	881.443481
9903.063830	4720.585000	1607.801758	432.196289
9903.063830	4720.585000	1606.763672	689.736023
9903.063830	4720.585000	1605.724609	608.907837
9903.063830	4720.585000	1604.685547	530.423035
9903.063830	4720.585000	1603.646484	557.794861
9903.063830	4720.585000	1602.607422	633.464111
9903.063830	4720.585000	1601.568359	653.932251
9903.063830	4720.585000	1600.528320	501.979980
9903.063830	4720.585000	1599.489258	825.893799
9903.063830	4720.585000	1598.449219	736.042419
9903.063830	4720.585000	1597.408203	855.316956
9903.063830	4720.585000	1596.368164	618.507629
9903.063830	4720.585000	1595.327148	786.020447
9903.063830	4720.585000	1594.287109	788.158264
9903.063830	4720.585000	1593.246094	852.293884
9903.063830	4720.585000	1592.204102	808.534241
9903.063830	4720.585000	1591.163086	739.570801
9903.063830	4720.585000	1590.121094	847.319397
9903.063830	4720.585000	1589.079102	1028.453125
9903.063830	4720.585000	1588.037109	858.619934
9903.063830	4720.585000	1586.995117	805.821106
9903.063830	4720.585000	1585.953125	663.648010
9903.063830	4720.585000	1584.910156	661.370789
9903.063830	4720.585000	1583.867188	627.030701
9903.063830	4720.585000	1582.824219	837.895630
9903.063830	4720.585000	1581.781250	881.466125
9903.063830	4720.585000	1580.737305	980.006592
9903.063830	4720.585000	1579.693359	773.964355
9903.063830	4720.585000	1578.649414	932.059570
9903.063830	4720.585000	1577.605469	584.229187
9903.063830	4720.585000	1576.561523	705.728455
9903.063830	4720.585000	1575.516602	543.464600
9903.063830	4720.585000	1574.472656	475.089264
9903.063830	4720.585000	1573.427734	749.854980
9903.063830	4720.585000	1572.381836	450.537628
9903.063830	4720.585000	1571.336914	805.273071
9903.063830	4720.585000	1570.291016	602.123596
9903.063830	4720.585000	1569.246094	501.929962
9903.063830	4720.585000	1568.200195	374.378601
9903.063830	4720.585000	1567.153320	276.599823
9903.063830	4720.585000	1566.107422	434.715576
9903.063830	4720.585000	1565.060547	282.210266
9903.063830	4720.585000	1564.013672	451.730927
9903.063830	4720.585000	1562.966797	422.610962
9903.063830	4720.585000	1561.919922	318.214050
9903.063830	4720.585000	1560.872070	419.254395
9903.063830	4720.585000	1559.825195	518.007874
9903.063830	4720.585000	1558.777344	438.830231
9903.063830	4720.585000	1557.729492	346.031525
9903.063830	4720.585000	1556.680664	488.147339
9903.063830	4720.585000	1555.632813	393.159363
9903.063830	4720.585000	1554.583984	416.754669
9903.063830	4720.585000	1553.535156	219.332932
9903.063830	4720.585000	1552.486328	532.365234
9903.063830	4720.585000	1551.436523	341.895172
9903.063830	4720.585000	1550.387695	240.356186
9903.063830	4720.585000	1549.337891	286.889832
9903.063830	4720.585000	1548.288086	249.209061
9903.063830	4720.585000	1547.238281	359.523254
9903.063830	4720.585000	1546.187500	208.127060
9903.063830	4720.585000	1545.136719	302.545898
9903.063830	4720.585000	1544.086914	369.670258
9903.063830	4720.585000	1543.035156	266.225555
9903.063830	4720.585000	1541.984375	347.042694
9903.063830	4720.585000	1540.933594	402.857819
9903.063830	4720.585000	1539.881836	317.762756
9903.063830	4720.585000	1538.830078	205.468185
9903.063830	4720.585000	1537.778320	250.027161
9903.063830	4720.585000	1536.725586	290.060852
9903.063830	4720.585000	1535.673828	200.664841
9903.063830	4720.585000	1534.621094	238.499146
9903.063830	4720.585000	1533.568359	178.737152
9903.063830	4720.585000	1532.515625	302.891876
9903.063830	4720.585000	1531.461914	197.830765
9903.063830	4720.585000	1530.409180	135.963409
9903.063830	4720.585000	1529.355469	103.647499
9903.063830	4720.585000	1528.301758	216.538635
9903.063830	4720.585000	1527.247070	166.158707
9903.063830	4720.585000	1526.193359	131.713867
9903.063830	4720.585000	1525.138672	233.320892
9903.063830	4720.585000	1524.083984	4.062933
9903.063830	4720.585000	1523.029297	212.231293
9903.063830	4720.585000	1521.974609	107.745193
9903.063830	4720.585000	1520.918945	23.726360
9903.063830	4720.585000	1519.863281	14.508759
9903.063830	4720.585000	1518.807617	-39.939571
9903.063830	4720.585000	1517.751953	43.752720
9903.063830	4720.585000	1516.696289	98.035103
9903.063830	4720.585000	1515.639648	-73.923615
9903.063830	4720.585000	1514.583008	34.740574
9903.063830	4720.585000	1513.526367	16.750574
9903.063830	4720.585000	1512.469727	14.641776
9903.063830	4720.585000	1511.412109	21.621229
9903.063830	4720.585000	1510.355469	6.042192
9903.063830	4720.585000	1509.297852	-43.386520
9903.063830	4720.585000	1508.240234	-52.077545
9903.063830	4720.585000	1507.181641	16.087454
9903.063830	4720.585000	1506.124023	48.137154
9903.063830	4720.585000	1505.065430	105.059029
9903.063830	4720.585000	1504.006836	12.996880
9903.063830	4720.585000	1502.948242	-31.578375
9903.063830	4720.585000	1501.888672	-76.089203
9903.063830	4720.585000	1500.830078	89.308998
9903.063830	4720.585000	1499.770508	-29.556021
9903.063830	4720.585000	1498.710938	-132.537766
9903.063830	4720.585000	1497.650391	96.056709
9903.063830	4720.585000	1496.590820	90.136063
9903.063830	4720.585000	1495.530273	88.774506
9903.063830	4720.585000	1494.469727	-16.206871
9903.063830	4720.585000	1493.409180	2.831753
9903.063830	4720.585000	1492.348633	-165.068436
9903.063830	4720.585000	1491.287109	-112.124413
9903.063830	4720.585000	1490.225586	-108.692032
9903.063830	4720.585000	1489.164063	-129.977203
9903.063830	4720.585000	1488.102539	80.650108
9903.063830	4720.585000	1487.041016	261.987915
9903.063830	4720.585000	1485.978516	9.034284
9903.063830	4720.585000	1484.916016	84.662605
9903.063830	4720.585000	1483.853516	-44.327183
9903.063830	4720.585000	1482.791016	29.152925
9903.063830	4720.585000	1481.727539	-149.146835
9903.063830	4720.585000	1480.664063	-118.279076
9903.063830	4720.585000	1479.600586	49.705521
9903.063830	4720.585000	1478.537109	-11.504453
9903.063830	4720.585000	1477.473633	77.883102
9903.063830	4720.585000	1476.409180	97.643059
9903.063830	4720.585000	1475.344727	-160.857559
9903.063830	4720.585000	1474.280273	-73.671387
9903.063830	4720.585000	1473.215820	-96.272949
9903.063830	4720.585000	1472.151367	-27.073296
9903.063830	4720.585000	1471.085938	167.906784
9903.063830	4720.585000	1470.020508	-78.840965
9903.063830	4720.585000	1468.955078	8.455026
9903.063830	4720.585000	1467.888672	-54.198570
9903.063830	4720.585000	1466.823242	-127.799240
9903.063830	4720.585000	1465.756836	-15.627591
9903.063830	4720.585000	1464.690430	-69.400146
9903.063830	4720.585000	1463.624023	-37.765293
9903.063830	4720.585000	1462.556641	-12.960264
9903.063830	4720.585000	1461.490234	74.713219
9903.063830	4720.585000	1460.422852	25.895929
9903.063830	4720.585000	1459.355469	119.925751
9903.063830	4720.585000	1458.287109	252.237518
9903.063830	4720.585000	1457.219727	214.351364
9903.063830	4720.585000	1456.151367	-3.380643
9903.063830	4720.585000	1455.083008	72.550087
9903.063830	4720.585000	1454.014648	249.073242
9903.063830	4720.585000	1452.945313	140.790878
9903.063830	4720.585000	1451.876953	148.765564
9903.063830	4720.585000	1450.807617	121.366463
9903.063830	4720.585000	1449.738281	275.593109
9903.063830	4720.585000	1448.668945	28.342905
9903.063830	4720.585000	1447.598633	327.558014
9903.063830	4720.585000	1446.528320	327.020020
9903.063830	4720.585000	1445.458008	109.567711
9903.063830	4720.585000	1444.387695	201.491135
9903.063830	4720.585000	1443.317383	284.978729
9903.063830	4720.585000	1442.246094	144.654495
9903.063830	4720.585000	1441.174805	37.960861
9903.063830	4720.585000	1440.103516	78.582336
9903.063830	4720.585000	1439.032227	2.142896
9903.063830	4720.585000	1437.960938	150.638580
9903.063830	4720.585000	1436.888672	115.784447
9903.063830	4720.585000	1435.816406	116.016777
9903.063830	4720.585000	1434.744141	184.288635
9903.063830	4720.585000	1433.670898	196.418701
9903.063830	4720.585000	1432.598633	224.776260
9903.063830	4720.585000	1431.525391	173.046677
9903.063830	4720.585000	1430.452148	293.952087
9903.063830	4720.585000	1429.378906	218.457275
9903.063830	4720.585000	1428.304688	158.275681
9903.063830	4720.585000	1427.231445	34.570957
9903.063830	4720.585000	1426.157227	152.318024
9903.063830	4720.585000	1425.083008	130.952621
9903.063830	4720.585000	1424.007813	166.170822
9903.063830	4720.585000	1422.933594	-43.023304
9903.063830	4720.585000	1421.858398	154.042786
9903.063830	4720.585000	1420.783203	23.540958
9903.063830	4720.585000	1419.708008	88.507217
9903.063830	4720.585000	1418.631836	-28.390469
9903.063830	4720.585000	1417.555664	99.005928
9903.063830	4720.585000	1416.479492	35.569317
9903.063830	4720.585000	1415.403320	41.955799
9903.063830	4720.585000	1414.327148	-95.835747
9903.063830	4720.585000	1413.250000	3.970276
9903.063830	4720.585000	1412.173828	42.935524
9903.063830	4720.585000	1411.096680	-51.456955
9903.063830	4720.585000	1410.018555	189.931488
9903.063830	4720.585000	1408.941406	27.403412
9903.063830	4720.585000	1407.863281	16.881594
9903.063830	4720.585000	1406.785156	-99.593643
9903.063830	4720.585000	1405.707031	-97.407257
9903.063830	4720.585000	1404.628906	-14.227387
9903.063830	4720.585000	1403.549805	68.336212
9903.063830	4720.585000	1402.470703	42.496517
9903.063830	4720.585000	1401.391602	35.925194
9903.063830	4720.585000	1400.312500	-20.399441
9903.063830	4720.585000	1399.233398	-103.359428
9903.063830	4720.585000	1398.153320	78.016754
9903.063830	4720.585000	1397.073242	154.144958
9903.063830	4720.585000	1395.993164	91.595253
9903.063830	4720.585000	1394.913086	161.496353
9903.063830	4720.585000	1393.832031	-2.470119
9903.063830	4720.585000	1392.750977	106.387863
9903.063830	4720.585000	1391.669922	-20.782475
9903.063830	4720.585000	1390.588867	183.314529
9903.063830	4720.585000	1389.506836	150.318695
9903.063830	4720.585000	1388.425781	154.488754
9903.063830	4720.585000	1387.343750	154.147598
9903.063830	4720.585000	1386.261719	203.027008
9903.063830	4720.585000	1385.178711	197.239594
9903.063830	4720.585000	1384.096680	117.995888
9903.063830	4720.585000	1383.013672	-32.689476
9903.063830	4720.585000	1381.930664	201.717804
9903.063830	4720.585000	1380.846680	157.465286
9903.063830	4720.585000	1379.763672	178.876404
9903.063830	4720.585000	1378.679688	267.139008
9903.063830	4720.585000	1377.595703	247.460983
9903.063830	4720.585000	1376.511719	294.735657
9903.063830	4720.585000	1375.427734	246.784973
9903.063830	4720.585000	1374.342773	223.531555
9903.063830	4720.585000	1373.257813	103.864784
9903.063830	4720.585000	1372.172852	298.036316
9903.063830	4720.585000	1371.087891	31.206049
9903.063830	4720.585000	1370.001953	206.042786
9903.063830	4720.585000	1368.916992	326.243134
9903.063830	4720.585000	1367.831055	234.969345
9903.063830	4720.585000	1366.744141	203.986847
9903.063830	4720.585000	1365.658203	273.987091
9903.063830	4720.585000	1364.571289	179.356216
9903.063830	4720.585000	1363.484375	157.295715
9903.063830	4720.585000	1362.397461	229.976151
9903.063830	4720.585000	1361.310547	198.387436
9903.063830	4720.585000	1360.222656	178.427261
9903.063830	4720.585000	1359.135742	134.851059
9903.063830	4720.585000	1358.047852	143.707489
9903.063830	4720.585000	1356.958984	-203.452881
9903.063830	4720.585000	1355.871094	72.151497
9903.063830	4720.585000	1354.782227	50.684746
9903.063830	4720.585000	1353.693359	128.107758
9903.063830	4720.585000	1352.604492	54.767864
9903.063830	4720.585000	1351.515625	48.919575
9903.063830	4720.585000	1350.425781	92.393501
9903.063830	4720.585000	1349.335938	162.868164
9903.063830	4720.585000	1348.246094	-61.727112
9903.063830	4720.585000	1347.156250	22.582903
9903.063830	4720.585000	1346.066406	27.958981
9903.063830	4720.585000	1344.975586	95.905708
9903.063830	4720.585000	1343.884766	81.053566
9903.063830	4720.585000	1342.793945	82.227386
9903.063830	4720.585000	1341.702148	302.293182
9903.063830	4720.585000	1340.611328	186.047119
9903.063830	4720.585000	1339.519531	125.293915
9903.063830	4720.585000	1338.427734	349.032990
9903.063830	4720.585000	1337.334961	64.409798
9903.063830	4720.585000	1336.243164	346.435089
9903.063830	4720.585000	1335.150391	215.904999
9903.063830	4720.585000	1334.057617	71.112785
9903.063830	4720.585000	1332.964844	314.938934
9903.063830	4720.585000	1331.871094	184.550491
9903.063830	4720.585000	1330.778320	81.397354
9903.063830	4720.585000	1329.684570	154.501541
9903.063830	4720.585000	1328.590820	178.819260
9903.063830	4720.585000	1327.496094	154.739304
9903.063830	4720.585000	1326.402344	163.916473
9903.063830	4720.585000	1325.307617	222.751862
9903.063830	4720.585000	1324.212891	345.798248
9903.063830	4720.585000	1323.117188	251.543182
9903.063830	4720.585000	1322.022461	346.478119
9903.063830	4720.585000	1320.926758	337.485840
9903.063830	4720.585000	1319.831055	323.668793
9903.063830	4720.585000	1318.735352	363.216980
9903.063830	4720.585000	1317.638672	191.872025
9903.063830	4720.585000	1316.542969	223.319397
9903.063830	4720.585000	1315.446289	335.016388
9903.063830	4720.585000	1314.349609	201.202026
9903.063830	4720.585000	1313.251953	254.560333
9903.063830	4720.585000	1312.155273	289.337219
9903.063830	4720.585000	1311.057617	366.796753
9903.063830	4720.585000	1309.959961	269.546021
9903.063830	4720.585000	1308.862305	249.660751
9903.063830	4720.585000	1307.763672	232.359314
9903.063830	4720.585000	1306.665039	273.379578
9903.063830	4720.585000	1305.566406	243.267014
9903.063830	4720.585000	1304.467773	217.122772
9903.063830	4720.585000	1303.369141	355.197388
9903.063830	4720.585000	1302.269531	355.346985
9903.063830	4720.585000	1301.169922	239.647247
9903.063830	4720.585000	1300.070313	306.228607
9903.063830	4720.585000	1298.970703	242.454865
9903.063830	4720.585000	1297.870117	51.262325
9903.063830	4720.585000	1296.769531	153.438492
9903.063830	4720.585000	1295.668945	72.870598
9903.063830	4720.585000	1294.568359	-38.962269
9903.063830	4720.585000	1293.466797	-21.438219
9903.063830	4720.585000	1292.366211	138.973038
9903.063830	4720.585000	1291.264648	120.819496
9903.063830	4720.585000	1290.162109	67.561676
9903.063830	4720.585000	1289.060547	60.643856
9903.063830	4720.585000	1287.958008	133.676590
9903.063830	4720.585000	1286.855469	143.980423
9903.063830	4720.585000	1285.752930	114.716042
9903.063830	4720.585000	1284.650391	128.912323
9903.063830	4720.585000	1283.546875	65.345573
9903.063830	4720.585000	1282.444336	74.450134
9903.063830	4720.585000	1281.339844	176.773682
9903.063830	4720.585000	1280.236328	72.029381
9903.063830	4720.585000	1279.132813	-159.278885
9903.063830	4720.585000	1278.028320	15.584261
9903.063830	4720.585000	1276.923828	57.713646
9903.063830	4720.585000	1275.819336	9.837356
9903.063830	4720.585000	1274.713867	-26.001593
9903.063830	4720.585000	1273.608398	-112.507225
9903.063830	4720.585000	1272.503906	-11.417792
9903.063830	4720.585000	1271.397461	1.531469
9903.063830	4720.585000	1270.291992	82.423561
9903.063830	4720.585000	1269.185547	13.503232
9903.063830	4720.585000	1268.080078	10.379345
9903.063830	4720.585000	1266.972656	-57.008438
9903.063830	4720.585000	1265.866211	18.911077
9903.063830	4720.585000	1264.759766	-0.752630
9903.063830	4720.585000	1263.652344	144.197845
9903.063830	4720.585000	1262.544922	27.420700
9903.063830	4720.585000	1261.436523	29.893620
9903.063830	4720.585000	1260.329102	117.747841
9903.063830	4720.585000	1259.220703	-149.949509
9903.063830	4720.585000	1258.112305	11.753716
9903.063830	4720.585000	1257.003906	-137.850937
9903.063830	4720.585000	1255.895508	-28.544168
9903.063830	4720.585000	1254.786133	-38.843365
9903.063830	4720.585000	1253.676758	24.321735
9903.063830	4720.585000	1252.567383	-0.857877
9903.063830	4720.585000	1251.458008	-97.680473
9903.063830	4720.585000	1250.347656	-58.040401
9903.063830	4720.585000	1249.237305	-94.257034
9903.063830	4720.585000	1248.126953	93.803970
9903.063830	4720.585000	1247.016602	-4.217181
9903.063830	4720.585000	1245.905273	-145.936493
9903.063830	4720.585000	1244.793945	1.457512
9903.063830	4720.585000	1243.682617	-179.856873
9903.063830	4720.585000	1242.571289	89.584785
9903.063830	4720.585000	1241.459961	-1.243307
9903.063830	4720.585000	1240.347656	16.690302
9903.063830	4720.585000	1239.235352	86.358231
9903.063830	4720.585000	1238.123047	88.292297
9903.063830	4720.585000	1237.009766	3.347194
9903.063830	4720.585000	1235.897461	22.383623
9903.063830	4720.585000	1234.784180	2.165083
9903.063830	4720.585000	1233.670898	-109.312355
9903.063830	4720.585000	1232.556641	-65.239906
9903.063830	4720.585000	1231.443359	-16.378904
9903.063830	4720.585000	1230.329102	-84.304741
9903.063830	4720.585000	1229.214844	-30.234219
9903.063830	4720.585000	1228.099609	67.687340
9903.063830	4720.585000	1226.985352	43.697670
9903.063830	4720.585000	1225.870117	-109.014984
9903.063830	4720.585000	1224.754883	-57.443760
9903.063830	4720.585000	1223.639648	-6.239427
9903.063830	4720.585000	1222.523438	-6.189908
9903.063830	4720.585000	1221.408203	34.537327
9903.063830	4720.585000	1220.291992	55.169533
9903.063830	4720.585000	1219.174805	19.260029
9903.063830	4720.585000	1218.058594	90.329872
9903.063830	4720.585000	1216.941406	-186.475754
9903.063830	4720.585000	1215.824219	-129.294434
9903.063830	4720.585000	1214.707031	-8.449778
9903.063830	4720.585000	1213.589844	15.481682
9903.063830	4720.585000	1212.471680	45.442436
9903.063830	4720.585000	1211.353516	28.168957
9903.063830	4720.585000	1210.235352	-93.760979
9903.063830	4720.585000	1209.117188	8.505794
9903.063830	4720.585000	1207.998047	62.171497
9903.063830	4720.585000	1206.878906	-61.896484
9903.063830	4720.585000	1205.759766	-37.605717
9903.063830	4720.585000	1204.640625	116.316895
9903.063830	4720.585000	1203.520508	41.272762
9903.063830	4720.585000	1202.401367	-39.739204
9903.063830	4720.585000	1201.281250	-131.142426
9903.063830	4720.585000	1200.160156	88.425018
9903.063830	4720.585000	1199.040039	18.858639
9903.063830	4720.585000	1197.918945	-41.571720
9903.063830	4720.585000	1196.797852	22.897951
9903.063830	4720.585000	1195.676758	74.726318
9903.063830	4720.585000	1194.555664	35.741196
9903.063830	4720.585000	1193.433594	-37.260605
9903.063830	4720.585000	1192.311523	-10.605829
9903.063830	4720.585000	1191.189453	34.704239
9903.063830	4720.585000	1190.066406	112.024971
9903.063830	4720.585000	1188.944336	-31.232239
9903.063830	4720.585000	1187.821289	-35.961823
9903.063830	4720.585000	1186.698242	-45.587124
9903.063830	4720.585000	1185.574219	-126.616112
9903.063830	4720.585000	1184.451172	-118.546410
9903.063830	4720.585000	1183.327148	-104.501114
9903.063830	4720.585000	1182.203125	-31.247217
9903.063830	4720.585000	1181.078125	15.833224
9903.063830	4720.585000	1179.954102	-77.082466
9903.063830	4720.585000	1178.829102	-113.193665
9903.063830	4720.585000	1177.704102	-56.729206
9903.063830	4720.585000	1176.579102	-120.827057
9903.063830	4720.585000	1175.453125	-63.379097
9903.063830	4720.585000	1174.327148	53.199375
9903.063830	4720.585000	1173.201172	65.517479
9903.063830	4720.585000	1172.075195	-92.762917
9903.063830	4720.585000	1170.949219	-36.157673
9903.063830	4720.585000	1169.822266	63.702950
9903.063830	4720.585000	1168.695313	65.436981
9903.063830	4720.585000	1167.568359	-10.133560
9903.063830	4720.585000	1166.440430	117.679405
9903.063830	4720.585000	1165.313477	124.987320
9903.063830	4720.585000	1164.185547	-74.465309
9903.063830	4720.585000	1163.057617	-32.303505
9903.063830	4720.585000	1161.928711	-65.573654
9903.063830	4720.585000	1160.800781	-27.070374
9903.063830	4720.585000	1159.671875	-76.460442
9903.063830	4720.585000	1158.541992	-15.846658
9903.063830	4720.585000	1157.413086	35.310482
9903.063830	4720.585000	1156.283203	-136.135422
9903.063830	4720.585000	1155.154297	8.368926
9903.063830	4720.585000	1154.023438	-19.123190
9903.063830	4720.585000	1152.893555	-56.470119
9903.063830	4720.585000	1151.763672	-38.340412
9903.063830	4720.585000	1150.632813	-21.934933
9903.063830	4720.585000	1149.501953	-18.649887
9903.063830	4720.585000	1148.370117	-144.212540
9903.063830	4720.585000	1147.239258	-19.557568
9903.063830	4720.585000	1146.107422	-16.202812
9903.063830	4720.585000	1144.975586	38.814018
9903.063830	4720.585000	1143.843750	64.358002
9903.063830	4720.585000	1142.710938	44.500599
9903.063830	4720.585000	1141.578125	52.919037
9903.063830	4720.585000	1140.445313	-74.183708
9903.063830	4720.585000	1139.312500	99.882668
9903.063830	4720.585000	1138.178711	67.632896
9903.063830	4720.585000	1137.045898	34.928684
9903.063830	4720.585000	1135.912109	324.443176
9903.063830	4720.585000	1134.777344	-60.327721
9903.063830	4720.585000	1133.643555	5.209300
9903.063830	4720.585000	1132.508789	116.992874
9903.063830	4720.585000	1131.374023	139.938751
9903.063830	4720.585000	1130.239258	137.839813
9903.063830	4720.585000	1129.104492	-16.880219
9903.063830	4720.585000	1127.968750	164.335190
9903.063830	4720.585000	1126.833008	91.687073
9903.063830	4720.585000	1125.697266	226.914597
9903.063830	4720.585000	1124.560547	203.580109
9903.063830	4720.585000	1123.424805	62.177776
9903.063830	4720.585000	1122.288086	-32.075836
9903.063830	4720.585000	1121.151367	210.499924
9903.063830	4720.585000	1120.013672	135.007355
9903.063830	4720.585000	1118.876953	66.513123
9903.063830	4720.585000	1117.739258	81.239449
9903.063830	4720.585000	1116.601563	-100.725662
9903.063830	4720.585000	1115.462891	160.315704
9903.063830	4720.585000	1114.324219	85.381287
9903.063830	4720.585000	1113.186523	195.299530
9903.063830	4720.585000	1112.046875	224.572296
9903.063830	4720.585000	1110.908203	229.528687
9903.063830	4720.585000	1109.769531	5.874384
9903.063830	4720.585000	1108.629883	297.509308
9903.063830	4720.585000	1107.490234	74.046135
9903.063830	4720.585000	1106.349609	82.691376
9903.063830	4720.585000	1105.209961	34.188156
9903.063830	4720.585000	1104.069336	282.732727
9903.063830	4720.585000	1102.928711	74.491570
9903.063830	4720.585000	1101.787109	218.770737
9903.063830	4720.585000	1100.646484	163.394638
9903.063830	4720.585000	1099.504883	245.884491
9903.063830	4720.585000	1098.363281	107.821014
9903.063830	4720.585000	1097.221680	203.143646
9903.063830	4720.585000	1096.079102	12.387319
9903.063830	4720.585000	1094.936523	100.441406
9903.063830	4720.585000	1093.793945	191.339127
9903.063830	4720.585000	1092.651367	176.310974
9903.063830	4720.585000	1091.507813	112.592957
9903.063830	4720.585000	1090.364258	159.308945
9903.063830	4720.585000	1089.220703	94.737770
9903.063830	4720.585000	1088.077148	231.512787
9903.063830	4720.585000	1086.933594	170.991959
9903.063830	4720.585000	1085.789063	181.784195
9903.063830	4720.585000	1084.644531	86.265495
9903.063830	4720.585000	1083.499023	137.939270
9903.063830	4720.585000	1082.354492	179.113770
9903.063830	4720.585000	1081.208984	8.288417
9903.063830	4720.585000	1080.063477	206.126923
9903.063830	4720.585000	1078.917969	167.141068
9903.063830	4720.585000	1077.771484	138.295609
9903.063830	4720.585000	1076.625977	154.535751
9903.063830	4720.585000	1075.479492	115.161499
9903.063830	4720.585000	1074.332031	36.694347
9903.063830	4720.585000	1073.185547	68.007904
9903.063830	4720.585000	1072.038086	-5.560369
9903.063830	4720.585000	1070.890625	80.977173
9903.063830	4720.585000	1069.743164	54.407246
9903.063830	4720.585000	1068.594727	164.605057
9903.063830	4720.585000	1067.447266	106.313164
9903.063830	4720.585000	1066.298828	196.334091
9903.063830	4720.585000	1065.149414	178.145920
9903.063830	4720.585000	1064.000977	209.376587
9903.063830	4720.585000	1062.851563	145.980865
9903.063830	4720.585000	1061.702148	164.265457
9903.063830	4720.585000	1060.552734	26.502962
9903.063830	4720.585000	1059.402344	111.348694
9903.063830	4720.585000	1058.252930	309.257507
9903.063830	4720.585000	1057.102539	140.631714
9903.063830	4720.585000	1055.951172	113.126633
9903.063830	4720.585000	1054.800781	51.291531
9903.063830	4720.585000	1053.649414	80.127174
9903.063830	4720.585000	1052.498047	216.232513
9903.063830	4720.585000	1051.346680	213.627731
9903.063830	4720.585000	1050.194336	269.831207
9903.063830	4720.585000	1049.042969	117.562943
9903.063830	4720.585000	1047.890625	190.320023
9903.063830	4720.585000	1046.738281	189.739609
9903.063830	4720.585000	1045.584961	263.786835
9903.063830	4720.585000	1044.431641	70.344528
9903.063830	4720.585000	1043.278320	50.943111
9903.063830	4720.585000	1042.125000	55.039318
9903.063830	4720.585000	1040.971680	33.128433
9903.063830	4720.585000	1039.817383	142.580750
9903.063830	4720.585000	1038.663086	72.053154
9903.063830	4720.585000	1037.508789	301.224030
9903.063830	4720.585000	1036.353516	160.137482
9903.063830	4720.585000	1035.198242	173.143280
9903.063830	4720.585000	1034.042969	282.144958
9903.063830	4720.585000	1032.887695	238.895660
9903.063830	4720.585000	1031.732422	258.374542
9903.063830	4720.585000	1030.576172	151.345352
9903.063830	4720.585000	1029.419922	245.831329
9903.063830	4720.585000	1028.263672	460.716003
9903.063830	4720.585000	1027.106445	203.972946
9903.063830	4720.585000	1025.949219	147.913132
9903.063830	4720.585000	1024.792969	61.547298
9903.063830	4720.585000	1023.634766	194.351379
9903.063830	4720.585000	1022.477539	26.283461
9903.063830	4720.585000	1021.319336	150.498901
9903.063830	4720.585000	1020.161133	170.992844
9903.063830	4720.585000	1019.002930	148.309937
9903.063830	4720.585000	1017.843750	-93.924988
9903.063830	4720.585000	1016.684570	78.058670
9903.063830	4720.585000	1015.525391	-96.490334
9903.063830	4720.585000	1014.366211	116.614273
9903.063830	4720.585000	1013.207031	89.798973
9903.063830	4720.585000	1012.046875	75.670464
9903.063830	4720.585000	1010.886719	209.845612
9903.063830	4720.585000	1009.726563	328.189911
9903.063830	4720.585000	1008.565430	2.631753
9903.063830	4720.585000	1007.404297	45.001472
9903.063830	4720.585000	1006.243164	245.633774
9903.063830	4720.585000	1005.082031	65.372169
9903.063830	4720.585000	1003.920898	104.863380
9903.063830	4720.585000	1002.758789	29.950281
9903.063830	4720.585000	1001.596680	-32.771076
9903.063830	4720.585000	1000.433594	145.219406
9903.063830	4720.585000	999.271484	98.998466
9903.063830	4720.585000	998.108398	147.586502
9903.063830	4720.585000	996.945313	19.280806
9903.063830	4720.585000	995.782227	106.402435
9903.063830	4720.585000	994.618164	4.988489
9903.063830	4720.585000	993.454102	31.035049
9903.063830	4720.585000	992.290039	190.785049
9903.063830	4720.585000	991.125977	103.209915
9903.063830	4720.585000	989.960938	141.155319
9903.063830	4720.585000	988.796875	116.481949
9903.063830	4720.585000	987.630859	-70.892418
9903.063830	4720.585000	986.465820	139.778046
9903.063830	4720.585000	985.300781	-160.405136
9903.063830	4720.585000	984.134766	-128.823471
9903.063830	4720.585000	982.968750	-30.521729
9903.063830	4720.585000	981.801758	116.345146
9903.063830	4720.585000	980.635742	-48.446896
9903.063830	4720.585000	979.468750	37.329617
9903.063830	4720.585000	978.301758	10.069874
9903.063830	4720.585000	977.133789	17.057377
9903.063830	4720.585000	975.966797	76.182922
9903.063830	4720.585000	974.798828	86.494675
9903.063830	4720.585000	973.630859	-88.809372
9903.063830	4720.585000	972.461914	49.745621
9903.063830	4720.585000	971.293945	-29.053938
9903.063830	4720.585000	970.125000	-13.935359
9903.063830	4720.585000	968.956055	-58.814392
9903.063830	4720.585000	967.786133	55.057220
9903.063830	4720.585000	966.617188	27.732555
9903.063830	4720.585000	965.447266	-92.206696
9903.063830	4720.585000	964.276367	134.415970
9903.063830	4720.585000	963.106445	92.800659
9903.063830	4720.585000	961.935547	56.420605
9903.063830	4720.585000	960.764648	34.180927
9903.063830	4720.585000	959.593750	88.218117
9903.063830	4720.585000	958.422852	216.469925
9903.063830	4720.585000	957.250977	1.139098
9903.063830	4720.585000	956.079102	170.993591
9903.063830	4720.585000	954.907227	85.894028
9903.063830	4720.585000	953.734375	83.835098
9903.063830	4720.585000	952.562500	-29.534189
9903.063830	4720.585000	951.389648	118.888145
9903.063830	4720.585000	950.215820	81.281525
9903.063830	4720.585000	949.042969	-1.165465
9903.063830	4720.585000	947.869141	-91.382629
9903.063830	4720.585000	946.695313	80.410240
9903.063830	4720.585000	945.521484	55.213387
9903.063830	4720.585000	944.346680	41.562485
9903.063830	4720.585000	943.172852	-103.056946
9903.063830	4720.585000	941.998047	-2.656322
9903.063830	4720.585000	940.822266	-14.226150
9903.063830	4720.585000	939.647461	31.681530
9903.063830	4720.585000	938.471680	-29.751877
9903.063830	4720.585000	937.295898	-26.777855
9903.063830	4720.585000	936.119141	73.511284
9903.063830	4720.585000	934.943359	-92.504814
9903.063830	4720.585000	933.766602	-218.124298
9903.063830	4720.585000	932.589844	-48.645504
9903.063830	4720.585000	931.413086	18.414700
9903.063830	4720.585000	930.235352	116.429306
9903.063830	4720.585000	929.057617	66.980827
9903.063830	4720.585000	927.879883	0.855140
9903.063830	4720.585000	926.702148	-58.115032
9903.063830	4720.585000	925.523438	99.226006
9903.063830	4720.585000	924.344727	37.884602
9903.063830	4720.585000	923.166016	21.704714
9903.063830	4720.585000	921.987305	-68.130829
9903.063830	4720.585000	920.807617	89.115669
9903.063830	4720.585000	919.627930	91.115608
9903.063830	4720.585000	919.497070	-154.851837
9903.063830	4720.585000	918.331055	-14.299891
9903.063830	4720.585000	917.165039	-2.004284
9903.063830	4720.585000	915.999023	71.996109
9903.063830	4720.585000	914.833008	103.249802
9903.063830	4720.585000	913.666016	-112.256500
9903.063830	4720.585000	912.499023	-85.723984
9903.063830	4720.585000	911.332031	23.802614
9903.063830	4720.585000	910.165039	-58.777119
9903.063830	4720.585000	908.997070	-210.071243
9903.063830	4720.585000	907.830078	34.509926
9903.063830	4720.585000	906.661133	46.766369
9903.063830	4720.585000	905.493164	-49.967785
9903.063830	4720.585000	904.325195	-87.444649
9903.063830	4720.585000	903.156250	-179.373856
9903.063830	4720.585000	901.987305	162.031219
9903.063830	4720.585000	900.818359	136.371765
9903.063830	4720.585000	899.648438	165.160828
9903.063830	4720.585000	898.478516	77.990173
9903.063830	4720.585000	897.308594	165.925858
9903.063830	4720.585000	896.138672	116.636963
9903.063830	4720.585000	894.968750	86.287689
9903.063830	4720.585000	893.797852	44.131771
9903.063830	4720.585000	892.626953	146.191132
9903.063830	4720.585000	891.456055	-75.576096
9903.063830	4720.585000	890.284180	177.697083
9903.063830	4720.585000	889.113281	-55.795212
9903.063830	4720.585000	887.941406	159.582245
9903.063830	4720.585000	886.768555	72.606911
9903.063830	4720.585000	885.596680	-61.552513
9903.063830	4720.585000	884.423828	49.839302
9903.063830	4720.585000	883.250977	184.787659
9903.063830	4720.585000	882.078125	140.358063
9903.063830	4720.585000	880.905273	-144.675919
9903.063830	4720.585000	879.731445	-35.706120
9903.063830	4720.585000	878.557617	-294.641815
9903.063830	4720.585000	877.383789	87.802246
9903.063830	4720.585000	876.209961	-232.333344
9903.063830	4720.585000	875.035156	15.619678
9903.063830	4720.585000	873.860352	157.446335
9903.063830	4720.585000	872.685547	7.112514
9903.063830	4720.585000	871.510742	155.953735
9903.063830	4720.585000	870.334961	52.783745
9903.063830	4720.585000	869.159180	-168.052872
9903.063830	4720.585000	867.983398	-120.467705
9903.063830	4720.585000	866.807617	-25.833235
9903.063830	4720.585000	865.630859	-46.519817
9903.063830	4720.585000	864.454102	189.207733
9903.063830	4720.585000	863.277344	-158.412277
9903.063830	4720.585000	862.100586	-155.535553
9903.063830	4720.585000	860.922852	37.765381
9903.063830	4720.585000	859.745117	-116.866585
9903.063830	4720.585000	858.567383	-19.992472
9903.063830	4720.585000	857.389648	-3.034625
9903.063830	4720.585000	856.210938	-134.061646
9903.063830	4720.585000	855.032227	-211.017105
9903.063830	4720.585000	853.853516	66.606323
9903.063830	4720.585000	852.674805	-146.506317
9903.063830	4720.585000	851.495117	48.853733
9903.063830	4720.585000	850.315430	51.721367
9903.063830	4720.585000	849.135742	0.632226
9903.063830	4720.585000	847.956055	17.588732
9903.063830	4720.585000	846.775391	36.888485
9903.063830	4720.585000	845.595703	-250.960266
9903.063830	4720.585000	844.415039	9.837406
9903.063830	4720.585000	843.233398	99.447983
9903.063830	4720.585000	842.052734	-40.605679
9903.063830	4720.585000	840.871094	-25.980785
9903.063830	4720.585000	839.689453	51.880447
9903.063830	4720.585000	838.506836	120.347878
9903.063830	4720.585000	837.325195	-47.675289
9903.063830	4720.585000	836.142578	91.012604
9903.063830	4720.585000	834.959961	-67.566795
9903.063830	4720.585000	833.777344	28.958508
9903.063830	4720.585000	832.593750	-117.838516
9903.063830	4720.585000	831.410156	-96.177956
9903.063830	4720.585000	830.226563	11.995286
9903.063830	4720.585000	829.042969	-36.509792
9903.063830	4720.585000	827.858398	15.516487
9903.063830	4720.585000	826.673828	51.165535
9903.063830	4720.585000	825.489258	5.028076
9903.063830	4720.585000	824.304688	157.465332
9903.063830	4720.585000	823.120117	15.576325
9903.063830	4720.585000	821.934570	60.546299
9903.063830	4720.585000	820.749023	-41.572910
9903.063830	4720.585000	819.562500	131.765762
9903.063830	4720.585000	818.376953	-54.328571
9903.063830	4720.585000	817.190430	-11.705504
9903.063830	4720.585000	816.003906	42.564205
9903.063830	4720.585000	814.817383	-31.451220
9903.063830	4720.585000	813.629883	-5.174946
9903.063830	4720.585000	812.442383	98.018547
9903.063830	4720.585000	811.254883	124.258995
9903.063830	4720.585000	810.067383	103.887070
9903.063830	4720.585000	808.878906	-21.309486
9903.063830	4720.585000	807.690430	51.526772
9903.063830	4720.585000	806.501953	-10.731761
9903.063830	4720.585000	805.313477	-3.117482
9903.063830	4720.585000	804.124023	95.276970
9903.063830	4720.585000	802.934570	198.284607
9903.063830	4720.585000	801.745117	40.650860
9903.063830	4720.585000	800.555664	125.016159
9903.063830	4720.585000	799.365234	120.966072
9903.063830	4720.585000	798.175781	65.758095
9903.063830	4720.585000	796.985352	19.873116
9903.063830	4720.585000	795.793945	-60.858505
9903.063830	4720.585000	794.603516	4.844646
9903.063830	4720.585000	793.412109	-34.032166
9903.063830	4720.585000	792.220703	10.729776
9903.063830	4720.585000	791.028320	-18.845028
9903.063830	4720.585000	789.836914	0.349054
9903.063830	4720.585000	788.644531	142.572647
9903.063830	4720.585000	787.452148	92.091331
9903.063830	4720.585000	786.258789	-18.703718
9903.063830	4720.585000	785.066406	169.826828
9903.063830	4720.585000	783.873047	70.652557
9903.063830	4720.585000	782.679688	92.106903
9903.063830	4720.585000	781.485352	60.222622
9903.063830	4720.585000	780.291992	-48.152447
9903.063830	4720.585000	779.097656	38.195854
9903.063830	4720.585000	777.903320	-12.208587
9903.063830	4720.585000	776.708008	18.487745
9903.063830	4720.585000	775.512695	44.533352
9903.063830	4720.585000	774.318359	-19.751471
9903.063830	4720.585000	773.122070	-2.979048
9903.063830	4720.585000	771.926758	2.204599
9903.063830	4720.585000	770.730469	-29.647102
9903.063830	4720.585000	769.534180	-77.688477
9903.063830	4720.585000	768.337891	249.037231
9903.063830	4720.585000	767.141602	-39.589874
9903.063830	4720.585000	765.944336	-9.000060
9903.063830	4720.585000	764.747070	44.687527
9903.063830	4720.585000	763.549805	22.068789
9903.063830	4720.585000	762.351563	124.241280
9903.063830	4720.585000	761.154297	34.596428
9903.063830	4720.585000	759.956055	196.764175
9903.063830	4720.585000	758.757813	88.649323
9903.063830	4720.585000	757.558594	-24.047113
9903.063830	4720.585000	756.359375	24.888277
9903.063830	4720.585000	755.160156	76.100700
9903.063830	4720.585000	753.960938	97.283203
9903.063830	4720.585000	752.761719	136.902283
9903.063830	4720.585000	751.561523	70.393288
9903.063830	4720.585000	750.361328	142.265060
9903.063830	4720.585000	749.160156	-11.852254
9903.063830	4720.585000	747.959961	23.100908
9903.063830	4720.585000	746.758789	-11.110467
9903.063830	4720.585000	745.557617	69.887245
9903.063830	4720.585000	744.356445	102.460419
9903.063830	4720.585000	743.154297	93.551163
9903.063830	4720.585000	741.952148	61.603928
9903.063830	4720.585000	740.750000	135.558807
9903.063830	4720.585000	739.547852	-46.026386
9903.063830	4720.585000	738.344727	-54.953770
9903.063830	4720.585000	737.142578	12.032218
9903.063830	4720.585000	735.939453	-68.244080
9903.063830	4720.585000	734.735352	0.988460
9903.063830	4720.585000	733.532227	187.441025
9903.063830	4720.585000	732.328125	-12.409761
9903.063830	4720.585000	731.124023	8.451437
9903.063830	4720.585000	729.918945	15.500755
9903.063830	4720.585000	728.714844	-57.882046
9903.063830	4720.585000	727.509766	109.929428
9903.063830	4720.585000	726.303711	-32.370365
9903.063830	4720.585000	725.098633	66.449005
9903.063830	4720.585000	723.892578	29.774586
9903.063830	4720.585000	722.686523	130.797623
9903.063830	4720.585000	721.480469	82.612984
9903.063830	4720.585000	720.274414	227.130524
9903.063830	4720.585000	719.067383	151.383835
9903.063830	4720.585000	717.860352	-4.610569
9903.063830	4720.585000	716.653320	64.117188
9903.063830	4720.585000	715.445313	43.402428
9903.063830	4720.585000	714.238281	50.173149
9903.063830	4720.585000	713.030273	-69.095024
9903.063830	4720.585000	711.821289	20.119997
9903.063830	4720.585000	710.613281	17.665268
9903.063830	4720.585000	709.404297	-53.503220
9903.063830	4720.585000	708.195313	-67.433281
9903.063830	4720.585000	706.986328	-69.937721
9903.063830	4720.585000	705.776367	-8.390844
9903.063830	4720.585000	704.566406	284.176208
9903.063830	4720.585000	703.356445	34.495068
9903.063830	4720.585000	702.146484	162.226074
9903.063830	4720.585000	700.935547	63.527565
9903.063830	4720.585000	699.724609	106.570641
9903.063830	4720.585000	698.513672	78.721695
9903.063830	4720.585000	697.302734	121.691376
9903.063830	4720.585000	696.090820	-31.846416
9903.063830	4720.585000	694.878906	-25.468063
9903.063830	4720.585000	693.666992	42.535622
9903.063830	4720.585000	692.455078	135.596481
9903.063830	4720.585000	691.242188	-59.009598
9903.063830	4720.585000	690.029297	202.851532
9903.063830	4720.585000	688.816406	-130.920471
9903.063830	4720.585000	687.602539	41.826153
9903.063830	4720.585000	686.389648	75.352432
9903.063830	4720.585000	685.175781	-48.494816
9903.063830	4720.585000	683.960938	30.572151
9903.063830	4720.585000	682.747070	-27.176218
9903.063830	4720.585000	681.532227	13.054996
9903.063830	4720.585000	680.317383	87.412376
9903.063830	4720.585000	679.102539	161.707703
9903.063830	4720.585000	677.886719	306.536926
9903.063830	4720.585000	676.670898	203.103867
9903.063830	4720.585000	675.455078	26.840908
9903.063830	4720.585000	674.239258	141.927017
9903.063830	4720.585000	673.022461	245.556213
9903.063830	4720.585000	671.805664	30.627747
9903.063830	4720.585000	670.588867	259.263947
9903.063830	4720.585000	669.372070	35.262493
9903.063830	4720.585000	668.154297	2.290934
9903.063830	4720.585000	666.936523	167.047943
9903.063830	4720.585000	665.718750	113.544090
9903.063830	4720.585000	664.500977	157.725464
9903.063830	4720.585000	663.282227	251.827911
9903.063830	4720.585000	662.063477	50.622028
9903.063830	4720.585000	660.844727	205.944550
9903.063830	4720.585000	659.625000	134.159195
9903.063830	4720.585000	658.405273	200.815933
9903.063830	4720.585000	657.185547	94.956131
9903.063830	4720.585000	655.965820	88.926315
9903.063830	4720.585000	654.745117	46.574001
9903.063830	4720.585000	653.525391	49.557724
9903.063830	4720.585000	652.303711	168.132172
9903.063830	4720.585000	651.083008	-62.454182
9903.063830	4720.585000	649.861328	216.926361
9903.063830	4720.585000	648.640625	120.036095
9903.063830	4720.585000	647.417969	138.680176
9903.063830	4720.585000	646.196289	19.127464
9903.063830	4720.585000	644.973633	148.665131
9903.063830	4720.585000	643.750977	87.948036
9903.063830	4720.585000	642.528320	113.229050
9903.063830	4720.585000	641.305664	68.312790
9903.063830	4720.585000	640.082031	-103.316261
9903.063830	4720.585000	638.858398	-21.572432
9903.063830	4720.585000	637.634766	-68.802437
9903.063830	4720.585000	636.410156	82.916115
9903.063830	4720.585000	635.185547	105.685127
9903.063830	4720.585000	633.960938	56.087105
9903.063830	4720.585000	632.736328	33.588345
9903.063830	4720.585000	631.510742	166.936356
9903.063830	4720.585000	630.285156	67.557404
9903.063830	4720.585000	629.059570	53.991058
9903.063830	4720.585000	627.833984	146.502472
9903.063830	4720.585000	626.607422	-72.549110
9903.063830	4720.585000	625.380859	-47.824677
9903.063830	4720.585000	624.154297	236.313995
9903.063830	4720.585000	622.927734	-59.422089
9903.063830	4720.585000	621.700195	95.975632
9903.063830	4720.585000	620.472656	-19.299181
9903.063830	4720.585000	619.245117	59.305790
9903.063830	4720.585000	618.016602	218.976303
9903.063830	4720.585000	616.788086	196.023804
9903.063830	4720.585000	615.559570	15.345366
9903.063830	4720.585000	614.331055	172.562195
9903.063830	4720.585000	613.101563	54.944439
9903.063830	4720.585000	611.872070	-35.642597
9903.063830	4720.585000	610.642578	-31.688038
9903.063830	4720.585000	609.413086	-50.276211
9903.063830	4720.585000	608.182617	25.605639
9903.063830	4720.585000	606.952148	36.184277
9903.063830	4720.585000	605.721680	-29.743736
9903.063830	4720.585000	604.491211	-1.240721
9903.063830	4720.585000	603.259766	87.911079
9903.063830	4720.585000	602.028320	100.572365
9903.063830	4720.585000	600.796875	-46.350906
9903.063830	4720.585000	599.564453	-11.271390
9903.063830	4720.585000	598.332031	41.727863
9903.063830	4720.585000	597.099609	-40.070198
9903.063830	4720.585000	595.867188	-106.150688
9903.063830	4720.585000	594.633789	-125.100174
9903.063830	4720.585000	593.400391	129.722076
9903.063830	4720.585000	592.166992	5.206932
9903.063830	4720.585000	590.933594	-132.748337
9903.063830	4720.585000	589.699219	-111.439873
9903.063830	4720.585000	588.464844	69.031517
9903.063830	4720.585000	587.230469	31.934183
9903.063830	4720.585000	585.995117	12.750282
9903.063830	4720.585000	584.760742	-71.441620
9903.063830	4720.585000	583.525391	-108.582306
9903.063830	4720.585000	582.289063	-74.062637
9903.063830	4720.585000	581.053711	-97.812187
9903.063830	4720.585000	579.817383	8.276492
9903.063830	4720.585000	578.581055	0.125763
9903.063830	4720.585000	577.343750	16.565329
9903.063830	4720.585000	576.107422	28.494440
9903.063830	4720.585000	574.870117	-33.436157
9903.063830	4720.585000	573.631836	-14.853116
9903.063830	4720.585000	572.394531	-79.041595
9903.063830	4720.585000	571.156250	-18.037498
9903.063830	4720.585000	569.917969	112.203331
9903.063830	4720.585000	568.679688	-23.566753
9903.063830	4720.585000	567.440430	59.643932
9903.063830	4720.585000	566.202148	-4.631674
9903.063830	4720.585000	564.961914	71.784760
9903.063830	4720.585000	563.722656	-155.512787
9903.063830	4720.585000	562.482422	-3.250404
9903.063830	4720.585000	561.243164	30.637266
9903.063830	4720.585000	560.001953	-56.011028
9903.063830	4720.585000	558.761719	-33.332500
9903.063830	4720.585000	557.520508	36.148785
9903.063830	4720.585000	556.279297	-21.528616
9903.063830	4720.585000	555.038086	1.055660
9903.063830	4720.585000	553.795898	68.184158
9903.063830	4720.585000	552.554688	8.240370
9903.063830	4720.585000	551.311523	220.112991
9903.063830	4720.585000	550.069336	10.872233
9903.063830	4720.585000	548.826172	106.804344
9903.063830	4720.585000	547.583984	17.871069
9903.063830	4720.585000	546.339844	64.743164
9903.063830	4720.585000	545.096680	-6.380085
9903.063830	4720.585000	543.852539	209.549194
9903.063830	4720.585000	542.608398	89.442291
9903.063830	4720.585000	541.364258	76.129745
9903.063830	4720.585000	540.119141	24.998932
9903.063830	4720.585000	538.875000	140.618225
9903.063830	4720.585000	537.628906	191.705933
9903.063830	4720.585000	536.383789	-88.363564
9903.063830	4720.585000	535.137695	-59.500122
9903.063830	4720.585000	533.892578	-12.891154
9903.063830	4720.585000	532.645508	-28.506958
9903.063830	4720.585000	531.399414	-97.417885
9903.063830	4720.585000	530.152344	-37.561226
9903.063830	4720.585000	528.905273	28.913383
9903.063830	4720.585000	527.658203	-11.164061
9903.063830	4720.585000	526.410156	92.960838
9903.063830	4720.585000	525.163086	55.078316
9903.063830	4720.585000	523.914063	-36.025833
9903.063830	4720.585000	522.666016	21.441471
9903.063830	4720.585000	521.416992	-34.175995
9903.063830	4720.585000	520.167969	-74.268097
9903.063830	4720.585000	518.918945	-198.548355
9903.063830	4720.585000	517.669922	-72.473953
9903.063830	4720.585000	516.419922	-35.054325
9903.063830	4720.585000	515.169922	-6.517222
9903.063830	4720.585000	513.919922	-298.992737
9903.063830	4720.585000	512.668945	-102.227150
9903.063830	4720.585000	511.417969	8.145979
9903.063830	4720.585000	510.166992	-1.001038
9903.063830	4720.585000	508.916016	-63.237309
9903.063830	4720.585000	507.664063	-167.473755
9903.063830	4720.585000	506.412109	71.010490
9903.063830	4720.585000	505.160156	-8.912791
9903.063830	4720.585000	503.907227	-113.121414
9903.063830	4720.585000	502.655273	-192.987778
9903.063830	4720.585000	501.402344	89.440346
9903.063830	4720.585000	500.148438	60.339279
9903.063830	4720.585000	498.895508	82.029472
9903.063830	4720.585000	497.641602	-46.413445
9903.063830	4720.585000	496.387695	105.488609
9903.063830	4720.585000	495.132813	-42.781540
9903.063830	4720.585000	493.878906	-111.573433
9903.063830	4720.585000	492.624023	-41.391174
9903.063830	4720.585000	491.368164	4.493628
9903.063830	4720.585000	490.113281	-37.835529
9903.063830	4720.585000	488.857422	-93.382385
9903.063830	4720.585000	487.601563	71.459862
9903.063830	4720.585000	486.344727	-28.172403
9903.063830	4720.585000	485.088867	17.615250
9903.063830	4720.585000	483.832031	-4.900830
9903.063830	4720.585000	482.575195	43.042282
9903.063830	4720.585000	481.317383	66.736061
9903.063830	4720.585000	480.059570	-57.050774
9903.063830	4720.585000	478.801758	43.646626
9903.063830	4720.585000	477.543945	-9.706928
9903.063830	4720.585000	476.285156	233.875641
9903.063830	4720.585000	475.027344	99.115677
9903.063830	4720.585000	473.767578	116.092133
9903.063830	4720.585000	472.508789	122.059647
9903.063830	4720.585000	471.249023	240.082535
9903.063830	4720.585000	469.989258	239.395493
9903.063830	4720.585000	468.729492	166.202744
9903.063830	4720.585000	467.469727	152.319748
9903.063830	4720.585000	466.208984	68.159355
9903.063830	4720.585000	464.948242	128.898941
9903.063830	4720.585000	463.686523	46.930698
9903.063830	4720.585000	462.425781	162.461487
9903.063830	4720.585000	461.164063	100.219505
9903.063830	4720.585000	459.901367	314.333771
9903.063830	4720.585000	458.639648	278.348938
9903.063830	4720.585000	457.376953	220.425018
9903.063830	4720.585000	456.114258	289.626740
9903.063830	4720.585000	454.851563	205.368546
9903.063830	4720.585000	453.587891	92.629280
9903.063830	4720.585000	452.324219	277.807495
9903.063830	4720.585000	451.060547	66.480988
9903.063830	4720.585000	449.796875	93.865105
9903.063830	4720.585000	448.532227	101.492989
9903.063830	4720.585000	447.267578	174.732193
9903.063830	4720.585000	446.002930	215.073700
9903.063830	4720.585000	444.737305	80.338387
9903.063830	4720.585000	443.471680	205.883347
9903.063830	4720.585000	442.206055	180.440994
9903.063830	4720.585000	440.940430	176.817917
9903.063830	4720.585000	439.673828	111.935944
9903.063830	4720.585000	438.407227	186.879013
9903.063830	4720.585000	437.140625	281.389862
9903.063830	4720.585000	435.873047	367.053528
9903.063830	4720.585000	434.605469	247.331116
9903.063830	4720.585000	433.337891	149.422119
9903.063830	4720.585000	432.070313	394.194366
9903.063830	4720.585000	430.801758	287.408905
9903.063830	4720.585000	429.533203	156.585724
9903.063830	4720.585000	428.264648	75.907234
9903.063830	4720.585000	426.996094	-0.463841
9903.063830	4720.585000	425.726563	202.208405
9903.063830	4720.585000	424.457031	260.810883
9903.063830	4720.585000	423.186523	201.584412
9903.063830	4720.585000	421.916992	179.326157
9903.063830	4720.585000	420.646484	278.966431
9903.063830	4720.585000	419.375977	337.062286
9903.063830	4720.585000	418.104492	218.615356
9903.063830	4720.585000	416.833008	272.094208
9903.063830	4720.585000	415.561523	303.652039
9903.063830	4720.585000	414.290039	145.724106
9903.063830	4720.585000	413.017578	192.244125
9903.063830	4720.585000	411.746094	-5.035407
9903.063830	4720.585000	410.472656	213.007263
9903.063830	4720.585000	409.200195	182.920532
9903.063830	4720.585000	407.926758	233.112091
9903.063830	4720.585000	406.653320	144.009964
9903.063830	4720.585000	405.379883	93.882225
9903.063830	4720.585000	404.105469	60.966640
9903.063830	4720.585000	402.831055	255.937195
9903.063830	4720.585000	401.556641	27.170729
9903.063830	4720.585000	400.282227	286.792969
9903.063830	4720.585000	399.006836	153.201462
9903.063830	4720.585000	397.731445	284.204712
9903.063830	4720.585000	396.456055	215.312592
9903.063830	4720.585000	395.179688	170.067978
9903.063830	4720.585000	393.903320	202.672318
9903.063830	4720.585000	392.626953	146.109909
9903.063830	4720.585000	391.350586	280.075317
9903.063830	4720.585000	390.073242	69.099998
9903.063830	4720.585000	388.795898	37.783665
9903.063830	4720.585000	387.518555	272.654633
9903.063830	4720.585000	386.240234	199.557465
9903.063830	4720.585000	384.961914	126.181099
9903.063830	4720.585000	383.683594	117.465736
9903.063830	4720.585000	382.405273	93.271744
9903.063830	4720.585000	381.125977	148.805893
9903.063830	4720.585000	379.846680	54.678482
9903.063830	4720.585000	378.567383	269.548370
9903.063830	4720.585000	377.287109	77.368279
9903.063830	4720.585000	376.006836	159.475967
9903.063830	4720.585000	374.726563	117.932327
9903.063830	4720.585000	373.446289	229.440506
9903.063830	4720.585000	372.165039	81.175484
9903.063830	4720.585000	370.883789	-112.828209
9903.063830	4720.585000	369.602539	198.191269
9903.063830	4720.585000	368.320313	22.750683
9903.063830	4720.585000	367.039063	43.374889
9903.063830	4720.585000	365.755859	-14.231477
9903.063830	4720.585000	364.473633	52.849987
9903.063830	4720.585000	363.190430	46.012577
9903.063830	4720.585000	361.907227	45.108887
9903.063830	4720.585000	360.624023	-120.242638
9903.063830	4720.585000	359.340820	20.062445
9903.063830	4720.585000	358.056641	181.259109
9903.063830	4720.585000	356.772461	240.491165
9903.063830	4720.585000	355.487305	128.844452
9903.063830	4720.585000	354.202148	23.068382
9903.063830	4720.585000	352.916992	-10.093836
9903.063830	4720.585000	351.631836	-0.854456
9903.063830	4720.585000	350.346680	-31.062830
9903.063830	4720.585000	349.060547	-150.234283
9903.063830	4720.585000	347.774414	18.253153
9903.063830	4720.585000	346.487305	-20.634424
9903.063830	4720.585000	345.200195	49.412670
9903.063830	4720.585000	343.913086	-10.390601
9903.063830	4720.585000	342.625977	-17.236923
9903.063830	4720.585000	341.338867	46.012627
9903.063830	4720.585000	340.050781	-7.695737
9903.063830	4720.585000	338.762695	-165.394363
9903.063830	4720.585000	337.473633	-81.226250
9903.063830	4720.585000	336.184570	6.266830
9903.063830	4720.585000	334.895508	-12.443599
9903.063830	4720.585000	333.606445	32.272709
9903.063830	4720.585000	332.317383	13.723259
9903.063830	4720.585000	331.027344	-115.308449
9903.063830	4720.585000	329.736328	-37.283905
9903.063830	4720.585000	328.446289	13.911385
9903.063830	4720.585000	327.155273	-23.975389
9903.063830	4720.585000	325.864258	-206.624802
9903.063830	4720.585000	324.573242	-109.584084
9903.063830	4720.585000	323.281250	-157.391495
9903.063830	4720.585000	321.989258	106.385536
9903.063830	4720.585000	320.697266	-102.444466
9903.063830	4720.585000	319.405273	-49.068668
9903.063830	4720.585000	318.112305	-46.319550
9903.063830	4720.585000	316.819336	42.835438
9903.063830	4720.585000	315.526367	21.419247
9903.063830	4720.585000	314.232422	124.789757
9903.063830	4720.585000	312.938477	-25.761549
9903.063830	4720.585000	311.644531	-6.642307
9903.063830	4720.585000	310.349609	-76.768463
9903.063830	4720.585000	309.054688	84.588272
9903.063830	4720.585000	307.759766	94.664772
9903.063830	4720.585000	306.464844	24.038095
9903.063830	4720.585000	305.168945	62.810154
9903.063830	4720.585000	303.873047	-2.672606
9903.063830	4720.585000	302.577148	263.243866
9903.063830	4720.585000	301.281250	192.063522
9903.063830	4720.585000	299.984375	289.784454
