#X		#Y		#Wave		#Intensity
10056.193085	4806.580000	1999.946289	-111.863831
10056.193085	4806.580000	1998.981445	3.559457
10056.193085	4806.580000	1998.017578	78.076401
10056.193085	4806.580000	1997.052734	-23.363865
10056.193085	4806.580000	1996.088867	93.285858
10056.193085	4806.580000	1995.124023	95.957207
10056.193085	4806.580000	1994.159180	-22.715807
10056.193085	4806.580000	1993.193359	-57.135868
10056.193085	4806.580000	1992.228516	57.022896
10056.193085	4806.580000	1991.262695	89.467667
10056.193085	4806.580000	1990.296875	42.719112
10056.193085	4806.580000	1989.331055	52.915096
10056.193085	4806.580000	1988.365234	-18.519417
10056.193085	4806.580000	1987.398438	-82.493355
10056.193085	4806.580000	1986.432617	-92.020370
10056.193085	4806.580000	1985.465820	-24.880884
10056.193085	4806.580000	1984.499023	-17.083586
10056.193085	4806.580000	1983.532227	-4.332893
10056.193085	4806.580000	1982.565430	-95.364952
10056.193085	4806.580000	1981.597656	-45.518291
10056.193085	4806.580000	1980.629883	-5.558482
10056.193085	4806.580000	1979.662109	-2.648922
10056.193085	4806.580000	1978.694336	20.026495
10056.193085	4806.580000	1977.726563	198.247253
10056.193085	4806.580000	1976.758789	55.512081
10056.193085	4806.580000	1975.790039	43.644661
10056.193085	4806.580000	1974.821289	-140.937073
10056.193085	4806.580000	1973.852539	59.428226
10056.193085	4806.580000	1972.883789	0.731464
10056.193085	4806.580000	1971.915039	-82.595024
10056.193085	4806.580000	1970.945313	-8.075638
10056.193085	4806.580000	1969.975586	98.474121
10056.193085	4806.580000	1969.005859	10.273203
10056.193085	4806.580000	1968.036133	65.045944
10056.193085	4806.580000	1967.066406	-124.118576
10056.193085	4806.580000	1966.096680	132.677307
10056.193085	4806.580000	1965.125977	29.790611
10056.193085	4806.580000	1964.155273	197.826691
10056.193085	4806.580000	1963.184570	45.739845
10056.193085	4806.580000	1962.213867	194.032272
10056.193085	4806.580000	1961.242188	-4.746136
10056.193085	4806.580000	1960.271484	69.693169
10056.193085	4806.580000	1959.299805	13.718361
10056.193085	4806.580000	1958.328125	-71.746887
10056.193085	4806.580000	1957.356445	44.489544
10056.193085	4806.580000	1956.384766	-97.492043
10056.193085	4806.580000	1955.412109	-104.203682
10056.193085	4806.580000	1954.439453	14.447212
10056.193085	4806.580000	1953.467773	-7.017584
10056.193085	4806.580000	1952.495117	-3.899714
10056.193085	4806.580000	1951.521484	136.788376
10056.193085	4806.580000	1950.548828	4.799954
10056.193085	4806.580000	1949.575195	52.127354
10056.193085	4806.580000	1948.601563	-30.685196
10056.193085	4806.580000	1947.627930	-52.094971
10056.193085	4806.580000	1946.654297	56.583328
10056.193085	4806.580000	1945.680664	20.448574
10056.193085	4806.580000	1944.706055	62.836933
10056.193085	4806.580000	1943.732422	-7.621913
10056.193085	4806.580000	1942.757813	7.783181
10056.193085	4806.580000	1941.783203	15.828363
10056.193085	4806.580000	1940.807617	60.645218
10056.193085	4806.580000	1939.833008	110.349258
10056.193085	4806.580000	1938.857422	-28.663780
10056.193085	4806.580000	1937.881836	-111.269608
10056.193085	4806.580000	1936.906250	-61.559284
10056.193085	4806.580000	1935.930664	95.901039
10056.193085	4806.580000	1934.955078	-13.617376
10056.193085	4806.580000	1933.978516	36.047337
10056.193085	4806.580000	1933.001953	-4.878972
10056.193085	4806.580000	1932.025391	69.239700
10056.193085	4806.580000	1931.048828	96.836723
10056.193085	4806.580000	1930.072266	117.083252
10056.193085	4806.580000	1929.094727	22.355032
10056.193085	4806.580000	1928.118164	37.714352
10056.193085	4806.580000	1927.140625	145.981781
10056.193085	4806.580000	1926.163086	-63.605110
10056.193085	4806.580000	1925.184570	69.078941
10056.193085	4806.580000	1924.207031	8.651892
10056.193085	4806.580000	1923.228516	133.938705
10056.193085	4806.580000	1922.250000	-16.870413
10056.193085	4806.580000	1921.271484	-40.619900
10056.193085	4806.580000	1920.292969	87.038651
10056.193085	4806.580000	1919.314453	-9.973091
10056.193085	4806.580000	1918.334961	56.598045
10056.193085	4806.580000	1917.355469	-123.360435
10056.193085	4806.580000	1916.375977	77.407608
10056.193085	4806.580000	1915.396484	-70.779678
10056.193085	4806.580000	1914.416992	93.306496
10056.193085	4806.580000	1913.436523	23.202995
10056.193085	4806.580000	1912.457031	-137.097137
10056.193085	4806.580000	1911.476563	-148.632782
10056.193085	4806.580000	1910.496094	5.575887
10056.193085	4806.580000	1909.515625	20.813824
10056.193085	4806.580000	1908.534180	45.786320
10056.193085	4806.580000	1907.552734	-38.879326
10056.193085	4806.580000	1906.572266	-33.401489
10056.193085	4806.580000	1905.590820	-8.451430
10056.193085	4806.580000	1904.608398	-44.384827
10056.193085	4806.580000	1903.626953	34.098103
10056.193085	4806.580000	1902.644531	217.196686
10056.193085	4806.580000	1901.663086	-8.578333
10056.193085	4806.580000	1900.680664	-27.483219
10056.193085	4806.580000	1899.698242	7.125007
10056.193085	4806.580000	1898.714844	163.309982
10056.193085	4806.580000	1897.732422	-6.392570
10056.193085	4806.580000	1896.749023	-35.039272
10056.193085	4806.580000	1895.765625	62.707222
10056.193085	4806.580000	1894.782227	48.622612
10056.193085	4806.580000	1893.798828	134.151047
10056.193085	4806.580000	1892.814453	129.757004
10056.193085	4806.580000	1891.831055	23.347387
10056.193085	4806.580000	1890.846680	-34.466038
10056.193085	4806.580000	1889.862305	2.419750
10056.193085	4806.580000	1888.877930	19.862482
10056.193085	4806.580000	1887.892578	93.108826
10056.193085	4806.580000	1886.908203	86.243523
10056.193085	4806.580000	1885.922852	-71.045593
10056.193085	4806.580000	1884.937500	-97.303383
10056.193085	4806.580000	1883.952148	-109.011475
10056.193085	4806.580000	1882.965820	-47.985241
10056.193085	4806.580000	1881.980469	42.098423
10056.193085	4806.580000	1880.994141	18.218784
10056.193085	4806.580000	1880.007813	42.803188
10056.193085	4806.580000	1879.021484	135.207916
10056.193085	4806.580000	1878.035156	9.548036
10056.193085	4806.580000	1877.047852	31.663382
10056.193085	4806.580000	1876.061523	-33.415760
10056.193085	4806.580000	1875.074219	107.306831
10056.193085	4806.580000	1874.086914	163.243454
10056.193085	4806.580000	1873.098633	115.079094
10056.193085	4806.580000	1872.111328	-44.385338
10056.193085	4806.580000	1871.123047	-85.260651
10056.193085	4806.580000	1870.135742	-58.406055
10056.193085	4806.580000	1869.147461	14.372787
10056.193085	4806.580000	1868.158203	-67.634766
10056.193085	4806.580000	1867.169922	-79.518318
10056.193085	4806.580000	1866.180664	-57.574333
10056.193085	4806.580000	1865.192383	65.842995
10056.193085	4806.580000	1864.203125	-20.999369
10056.193085	4806.580000	1863.213867	49.192360
10056.193085	4806.580000	1862.223633	54.132854
10056.193085	4806.580000	1861.234375	73.546631
10056.193085	4806.580000	1860.244141	18.095581
10056.193085	4806.580000	1859.253906	204.031067
10056.193085	4806.580000	1858.263672	80.972580
10056.193085	4806.580000	1857.273438	-87.899345
10056.193085	4806.580000	1856.282227	182.341309
10056.193085	4806.580000	1855.291992	37.603313
10056.193085	4806.580000	1854.300781	8.657299
10056.193085	4806.580000	1853.309570	-41.992844
10056.193085	4806.580000	1852.317383	42.354248
10056.193085	4806.580000	1851.326172	20.607471
10056.193085	4806.580000	1850.333984	3.670638
10056.193085	4806.580000	1849.342773	-87.961349
10056.193085	4806.580000	1848.350586	133.569839
10056.193085	4806.580000	1847.357422	44.321198
10056.193085	4806.580000	1846.365234	-30.461813
10056.193085	4806.580000	1845.372070	325.701141
10056.193085	4806.580000	1844.379883	84.776314
10056.193085	4806.580000	1843.386719	-16.495279
10056.193085	4806.580000	1842.393555	55.493462
10056.193085	4806.580000	1841.399414	2.343163
10056.193085	4806.580000	1840.406250	-17.130674
10056.193085	4806.580000	1839.412109	93.241074
10056.193085	4806.580000	1838.417969	-116.217636
10056.193085	4806.580000	1837.423828	37.365185
10056.193085	4806.580000	1836.429688	58.686199
10056.193085	4806.580000	1835.434570	128.038818
10056.193085	4806.580000	1834.440430	67.614746
10056.193085	4806.580000	1833.445313	91.265511
10056.193085	4806.580000	1832.450195	-41.214104
10056.193085	4806.580000	1831.454102	47.240746
10056.193085	4806.580000	1830.458984	-5.994527
10056.193085	4806.580000	1829.462891	123.187363
10056.193085	4806.580000	1828.466797	14.725314
10056.193085	4806.580000	1827.470703	163.011826
10056.193085	4806.580000	1826.474609	49.747978
10056.193085	4806.580000	1825.478516	18.054314
10056.193085	4806.580000	1824.481445	48.698673
10056.193085	4806.580000	1823.484375	12.182559
10056.193085	4806.580000	1822.487305	-60.294888
10056.193085	4806.580000	1821.490234	8.635890
10056.193085	4806.580000	1820.493164	-71.039818
10056.193085	4806.580000	1819.495117	203.856888
10056.193085	4806.580000	1818.498047	181.621292
10056.193085	4806.580000	1817.500000	37.238728
10056.193085	4806.580000	1816.500977	-16.125416
10056.193085	4806.580000	1815.502930	7.117246
10056.193085	4806.580000	1814.504883	-41.472084
10056.193085	4806.580000	1813.505859	130.091064
10056.193085	4806.580000	1812.506836	153.231750
10056.193085	4806.580000	1811.507813	73.484581
10056.193085	4806.580000	1810.508789	41.580475
10056.193085	4806.580000	1809.508789	-54.895580
10056.193085	4806.580000	1808.508789	154.658310
10056.193085	4806.580000	1807.508789	-11.160732
10056.193085	4806.580000	1806.508789	26.197548
10056.193085	4806.580000	1805.508789	-24.884562
10056.193085	4806.580000	1804.508789	41.088997
10056.193085	4806.580000	1803.507813	11.477040
10056.193085	4806.580000	1802.506836	-3.816168
10056.193085	4806.580000	1801.505859	133.680054
10056.193085	4806.580000	1800.504883	-8.188154
10056.193085	4806.580000	1799.502930	155.467773
10056.193085	4806.580000	1798.501953	-38.888630
10056.193085	4806.580000	1797.500000	96.040733
10056.193085	4806.580000	1796.498047	-5.246980
10056.193085	4806.580000	1795.496094	74.732094
10056.193085	4806.580000	1794.493164	123.660851
10056.193085	4806.580000	1793.491211	-11.011607
10056.193085	4806.580000	1792.488281	-36.015209
10056.193085	4806.580000	1791.485352	22.376806
10056.193085	4806.580000	1790.482422	125.995483
10056.193085	4806.580000	1789.478516	48.508984
10056.193085	4806.580000	1788.475586	-9.913668
10056.193085	4806.580000	1787.471680	-127.867805
10056.193085	4806.580000	1786.467773	-67.238869
10056.193085	4806.580000	1785.463867	-32.837406
10056.193085	4806.580000	1784.459961	-122.223953
10056.193085	4806.580000	1783.455078	-85.489243
10056.193085	4806.580000	1782.450195	-51.168537
10056.193085	4806.580000	1781.445313	56.852928
10056.193085	4806.580000	1780.440430	-82.508331
10056.193085	4806.580000	1779.435547	-102.955902
10056.193085	4806.580000	1778.429688	19.212355
10056.193085	4806.580000	1777.424805	27.232817
10056.193085	4806.580000	1776.418945	73.247055
10056.193085	4806.580000	1775.413086	2.807845
10056.193085	4806.580000	1774.406250	-24.871490
10056.193085	4806.580000	1773.400391	51.938732
10056.193085	4806.580000	1772.393555	-96.879326
10056.193085	4806.580000	1771.386719	105.694481
10056.193085	4806.580000	1770.379883	66.065948
10056.193085	4806.580000	1769.373047	52.536392
10056.193085	4806.580000	1768.365234	-13.210263
10056.193085	4806.580000	1767.358398	79.989494
10056.193085	4806.580000	1766.350586	-28.470661
10056.193085	4806.580000	1765.342773	59.910004
10056.193085	4806.580000	1764.334961	39.175980
10056.193085	4806.580000	1763.326172	-7.647583
10056.193085	4806.580000	1762.318359	-18.921385
10056.193085	4806.580000	1761.309570	36.132343
10056.193085	4806.580000	1760.300781	98.252243
10056.193085	4806.580000	1759.291016	56.105968
10056.193085	4806.580000	1758.282227	68.426254
10056.193085	4806.580000	1757.272461	-23.460945
10056.193085	4806.580000	1756.262695	81.150391
10056.193085	4806.580000	1755.252930	-34.412525
10056.193085	4806.580000	1754.243164	-0.870318
10056.193085	4806.580000	1753.233398	20.809801
10056.193085	4806.580000	1752.222656	-47.429218
10056.193085	4806.580000	1751.211914	40.429272
10056.193085	4806.580000	1750.201172	21.829205
10056.193085	4806.580000	1749.190430	-72.435387
10056.193085	4806.580000	1748.179688	-152.501633
10056.193085	4806.580000	1747.167969	-78.950562
10056.193085	4806.580000	1746.156250	-104.683426
10056.193085	4806.580000	1745.144531	-97.353424
10056.193085	4806.580000	1744.132813	49.304173
10056.193085	4806.580000	1743.121094	4.612715
10056.193085	4806.580000	1742.108398	-2.308736
10056.193085	4806.580000	1741.095703	73.371124
10056.193085	4806.580000	1740.083008	5.040089
10056.193085	4806.580000	1739.070313	-11.373014
10056.193085	4806.580000	1738.057617	94.878014
10056.193085	4806.580000	1737.043945	153.892639
10056.193085	4806.580000	1736.030273	-44.183784
10056.193085	4806.580000	1735.016602	69.027283
10056.193085	4806.580000	1734.002930	33.663166
10056.193085	4806.580000	1732.989258	31.291370
10056.193085	4806.580000	1731.974609	-34.725533
10056.193085	4806.580000	1730.959961	-93.667374
10056.193085	4806.580000	1729.945313	-13.626327
10056.193085	4806.580000	1728.930664	-82.005569
10056.193085	4806.580000	1727.916016	16.804399
10056.193085	4806.580000	1726.900391	-2.154708
10056.193085	4806.580000	1725.885742	0.063370
10056.193085	4806.580000	1724.870117	42.266033
10056.193085	4806.580000	1723.853516	-87.326408
10056.193085	4806.580000	1722.837891	11.300269
10056.193085	4806.580000	1721.822266	-52.412334
10056.193085	4806.580000	1720.805664	3.805933
10056.193085	4806.580000	1719.789063	36.475220
10056.193085	4806.580000	1718.772461	97.323219
10056.193085	4806.580000	1717.754883	-137.991776
10056.193085	4806.580000	1716.738281	-65.417747
10056.193085	4806.580000	1715.720703	-140.894608
10056.193085	4806.580000	1714.703125	6.778526
10056.193085	4806.580000	1713.685547	-125.075417
10056.193085	4806.580000	1712.667969	-71.409393
10056.193085	4806.580000	1711.649414	162.970947
10056.193085	4806.580000	1710.630859	202.444290
10056.193085	4806.580000	1709.612305	-81.936928
10056.193085	4806.580000	1708.593750	-136.306335
10056.193085	4806.580000	1707.575195	90.809860
10056.193085	4806.580000	1706.555664	59.847202
10056.193085	4806.580000	1705.536133	66.398308
10056.193085	4806.580000	1704.516602	21.357893
10056.193085	4806.580000	1703.497070	27.885315
10056.193085	4806.580000	1702.477539	-21.845415
10056.193085	4806.580000	1701.457031	-36.430565
10056.193085	4806.580000	1700.437500	9.885432
10056.193085	4806.580000	1699.416992	-11.753225
10056.193085	4806.580000	1698.395508	-2.959666
10056.193085	4806.580000	1697.375000	160.337189
10056.193085	4806.580000	1696.354492	12.244653
10056.193085	4806.580000	1695.333008	126.301193
10056.193085	4806.580000	1694.311523	83.534157
10056.193085	4806.580000	1693.290039	94.576546
10056.193085	4806.580000	1692.267578	-16.024912
10056.193085	4806.580000	1691.246094	-54.099892
10056.193085	4806.580000	1690.223633	207.090363
10056.193085	4806.580000	1689.201172	-1.682125
10056.193085	4806.580000	1688.178711	172.900742
10056.193085	4806.580000	1687.155273	29.615604
10056.193085	4806.580000	1686.132813	26.550877
10056.193085	4806.580000	1685.109375	-165.723724
10056.193085	4806.580000	1684.085938	-108.056717
10056.193085	4806.580000	1683.062500	204.078003
10056.193085	4806.580000	1682.039063	266.300262
10056.193085	4806.580000	1681.014648	139.433090
10056.193085	4806.580000	1679.990234	12.605065
10056.193085	4806.580000	1678.965820	81.793930
10056.193085	4806.580000	1677.941406	78.635170
10056.193085	4806.580000	1676.916992	19.497175
10056.193085	4806.580000	1675.891602	74.622849
10056.193085	4806.580000	1674.866211	31.805847
10056.193085	4806.580000	1673.840820	65.913101
10056.193085	4806.580000	1672.815430	39.410172
10056.193085	4806.580000	1671.790039	148.044357
10056.193085	4806.580000	1670.763672	79.584915
10056.193085	4806.580000	1669.737305	8.815284
10056.193085	4806.580000	1668.710938	-43.305313
10056.193085	4806.580000	1667.684570	190.946014
10056.193085	4806.580000	1666.658203	50.343906
10056.193085	4806.580000	1665.630859	91.309471
10056.193085	4806.580000	1664.603516	13.587601
10056.193085	4806.580000	1663.576172	105.710770
10056.193085	4806.580000	1662.548828	51.262215
10056.193085	4806.580000	1661.520508	-63.635796
10056.193085	4806.580000	1660.493164	149.331055
10056.193085	4806.580000	1659.464844	90.236122
10056.193085	4806.580000	1658.436523	-24.619005
10056.193085	4806.580000	1657.408203	97.575974
10056.193085	4806.580000	1656.378906	-17.249075
10056.193085	4806.580000	1655.350586	186.184555
10056.193085	4806.580000	1654.321289	141.046402
10056.193085	4806.580000	1653.291992	-85.180786
10056.193085	4806.580000	1652.261719	2.059318
10056.193085	4806.580000	1651.232422	103.191925
10056.193085	4806.580000	1650.202148	215.880707
10056.193085	4806.580000	1649.171875	231.081558
10056.193085	4806.580000	1648.141602	95.500313
10056.193085	4806.580000	1647.111328	136.224625
10056.193085	4806.580000	1646.080078	292.861115
10056.193085	4806.580000	1645.049805	182.841827
10056.193085	4806.580000	1644.018555	265.236237
10056.193085	4806.580000	1642.987305	243.316620
10056.193085	4806.580000	1641.955078	200.549011
10056.193085	4806.580000	1640.923828	266.674042
10056.193085	4806.580000	1639.891602	91.905685
10056.193085	4806.580000	1638.859375	269.167633
10056.193085	4806.580000	1637.827148	328.291199
10056.193085	4806.580000	1636.794922	195.276184
10056.193085	4806.580000	1635.761719	279.843933
10056.193085	4806.580000	1634.729492	186.225357
10056.193085	4806.580000	1633.696289	238.378098
10056.193085	4806.580000	1632.662109	230.373718
10056.193085	4806.580000	1631.628906	178.442596
10056.193085	4806.580000	1630.594727	114.969635
10056.193085	4806.580000	1629.561523	305.793610
10056.193085	4806.580000	1628.527344	263.125122
10056.193085	4806.580000	1627.493164	331.384888
10056.193085	4806.580000	1626.458008	355.724579
10056.193085	4806.580000	1625.423828	269.195740
10056.193085	4806.580000	1624.388672	445.955841
10056.193085	4806.580000	1623.353516	467.960754
10056.193085	4806.580000	1622.318359	363.001251
10056.193085	4806.580000	1621.282227	271.930664
10056.193085	4806.580000	1620.247070	464.722382
10056.193085	4806.580000	1619.210938	442.887482
10056.193085	4806.580000	1618.174805	344.949615
10056.193085	4806.580000	1617.137695	512.255310
10056.193085	4806.580000	1616.101563	405.130463
10056.193085	4806.580000	1615.064453	512.435303
10056.193085	4806.580000	1614.027344	333.912689
10056.193085	4806.580000	1612.990234	593.288574
10056.193085	4806.580000	1611.953125	525.419067
10056.193085	4806.580000	1610.916016	554.327515
10056.193085	4806.580000	1609.877930	684.560120
10056.193085	4806.580000	1608.839844	835.471069
10056.193085	4806.580000	1607.801758	767.634460
10056.193085	4806.580000	1606.763672	610.069031
10056.193085	4806.580000	1605.724609	694.193115
10056.193085	4806.580000	1604.685547	571.228210
10056.193085	4806.580000	1603.646484	731.255066
10056.193085	4806.580000	1602.607422	700.342834
10056.193085	4806.580000	1601.568359	503.895630
10056.193085	4806.580000	1600.528320	514.436279
10056.193085	4806.580000	1599.489258	589.344666
10056.193085	4806.580000	1598.449219	845.776672
10056.193085	4806.580000	1597.408203	543.799500
10056.193085	4806.580000	1596.368164	533.692810
10056.193085	4806.580000	1595.327148	576.421692
10056.193085	4806.580000	1594.287109	497.448334
10056.193085	4806.580000	1593.246094	503.458557
10056.193085	4806.580000	1592.204102	502.589417
10056.193085	4806.580000	1591.163086	588.943115
10056.193085	4806.580000	1590.121094	514.659729
10056.193085	4806.580000	1589.079102	596.411133
10056.193085	4806.580000	1588.037109	586.402100
10056.193085	4806.580000	1586.995117	491.565613
10056.193085	4806.580000	1585.953125	417.414093
10056.193085	4806.580000	1584.910156	496.880341
10056.193085	4806.580000	1583.867188	427.365143
10056.193085	4806.580000	1582.824219	465.584106
10056.193085	4806.580000	1581.781250	441.950104
10056.193085	4806.580000	1580.737305	521.405762
10056.193085	4806.580000	1579.693359	497.797577
10056.193085	4806.580000	1578.649414	714.614624
10056.193085	4806.580000	1577.605469	393.429382
10056.193085	4806.580000	1576.561523	276.074677
10056.193085	4806.580000	1575.516602	485.989319
10056.193085	4806.580000	1574.472656	380.134857
10056.193085	4806.580000	1573.427734	315.507294
10056.193085	4806.580000	1572.381836	561.928284
10056.193085	4806.580000	1571.336914	595.640503
10056.193085	4806.580000	1570.291016	581.350098
10056.193085	4806.580000	1569.246094	599.083313
10056.193085	4806.580000	1568.200195	404.315948
10056.193085	4806.580000	1567.153320	522.629761
10056.193085	4806.580000	1566.107422	682.034851
10056.193085	4806.580000	1565.060547	606.173157
10056.193085	4806.580000	1564.013672	639.956177
10056.193085	4806.580000	1562.966797	682.877502
10056.193085	4806.580000	1561.919922	406.273682
10056.193085	4806.580000	1560.872070	611.277161
10056.193085	4806.580000	1559.825195	615.455505
10056.193085	4806.580000	1558.777344	480.509247
10056.193085	4806.580000	1557.729492	466.507233
10056.193085	4806.580000	1556.680664	500.411499
10056.193085	4806.580000	1555.632813	333.717590
10056.193085	4806.580000	1554.583984	319.815308
10056.193085	4806.580000	1553.535156	438.109222
10056.193085	4806.580000	1552.486328	396.897949
10056.193085	4806.580000	1551.436523	335.221344
10056.193085	4806.580000	1550.387695	312.311951
10056.193085	4806.580000	1549.337891	537.621338
10056.193085	4806.580000	1548.288086	289.349854
10056.193085	4806.580000	1547.238281	314.328339
10056.193085	4806.580000	1546.187500	302.909241
10056.193085	4806.580000	1545.136719	400.726929
10056.193085	4806.580000	1544.086914	223.292221
10056.193085	4806.580000	1543.035156	287.020477
10056.193085	4806.580000	1541.984375	482.633972
10056.193085	4806.580000	1540.933594	373.562378
10056.193085	4806.580000	1539.881836	323.652863
10056.193085	4806.580000	1538.830078	291.969391
10056.193085	4806.580000	1537.778320	314.853485
10056.193085	4806.580000	1536.725586	285.506439
10056.193085	4806.580000	1535.673828	326.605469
10056.193085	4806.580000	1534.621094	285.967499
10056.193085	4806.580000	1533.568359	372.506927
10056.193085	4806.580000	1532.515625	261.567200
10056.193085	4806.580000	1531.461914	257.356140
10056.193085	4806.580000	1530.409180	328.051147
10056.193085	4806.580000	1529.355469	192.314117
10056.193085	4806.580000	1528.301758	238.099854
10056.193085	4806.580000	1527.247070	258.951172
10056.193085	4806.580000	1526.193359	232.215698
10056.193085	4806.580000	1525.138672	189.651260
10056.193085	4806.580000	1524.083984	217.385849
10056.193085	4806.580000	1523.029297	154.508041
10056.193085	4806.580000	1521.974609	37.317364
10056.193085	4806.580000	1520.918945	300.699585
10056.193085	4806.580000	1519.863281	235.666351
10056.193085	4806.580000	1518.807617	206.912689
10056.193085	4806.580000	1517.751953	191.782547
10056.193085	4806.580000	1516.696289	151.795639
10056.193085	4806.580000	1515.639648	68.863274
10056.193085	4806.580000	1514.583008	-79.608040
10056.193085	4806.580000	1513.526367	50.204636
10056.193085	4806.580000	1512.469727	-9.950459
10056.193085	4806.580000	1511.412109	11.338575
10056.193085	4806.580000	1510.355469	64.298798
10056.193085	4806.580000	1509.297852	26.871044
10056.193085	4806.580000	1508.240234	18.863501
10056.193085	4806.580000	1507.181641	89.957718
10056.193085	4806.580000	1506.124023	181.385376
10056.193085	4806.580000	1505.065430	56.025543
10056.193085	4806.580000	1504.006836	-80.539307
10056.193085	4806.580000	1502.948242	-187.672791
10056.193085	4806.580000	1501.888672	138.576813
10056.193085	4806.580000	1500.830078	36.023384
10056.193085	4806.580000	1499.770508	-3.291101
10056.193085	4806.580000	1498.710938	-153.073898
10056.193085	4806.580000	1497.650391	-70.497208
10056.193085	4806.580000	1496.590820	115.793617
10056.193085	4806.580000	1495.530273	-81.157257
10056.193085	4806.580000	1494.469727	12.729398
10056.193085	4806.580000	1493.409180	-197.572159
10056.193085	4806.580000	1492.348633	31.537838
10056.193085	4806.580000	1491.287109	-50.230778
10056.193085	4806.580000	1490.225586	48.219627
10056.193085	4806.580000	1489.164063	-6.431126
10056.193085	4806.580000	1488.102539	-103.793251
10056.193085	4806.580000	1487.041016	66.734459
10056.193085	4806.580000	1485.978516	228.229675
10056.193085	4806.580000	1484.916016	-8.492861
10056.193085	4806.580000	1483.853516	-78.639572
10056.193085	4806.580000	1482.791016	-49.777222
10056.193085	4806.580000	1481.727539	-16.394905
10056.193085	4806.580000	1480.664063	-84.145317
10056.193085	4806.580000	1479.600586	-95.632347
10056.193085	4806.580000	1478.537109	-44.181076
10056.193085	4806.580000	1477.473633	-39.891499
10056.193085	4806.580000	1476.409180	-37.759361
10056.193085	4806.580000	1475.344727	-62.576721
10056.193085	4806.580000	1474.280273	22.611122
10056.193085	4806.580000	1473.215820	-69.419373
10056.193085	4806.580000	1472.151367	-170.381470
10056.193085	4806.580000	1471.085938	-69.426056
10056.193085	4806.580000	1470.020508	60.702496
10056.193085	4806.580000	1468.955078	63.151249
10056.193085	4806.580000	1467.888672	33.995998
10056.193085	4806.580000	1466.823242	179.705078
10056.193085	4806.580000	1465.756836	128.525223
10056.193085	4806.580000	1464.690430	28.107395
10056.193085	4806.580000	1463.624023	113.348625
10056.193085	4806.580000	1462.556641	124.790215
10056.193085	4806.580000	1461.490234	9.012904
10056.193085	4806.580000	1460.422852	-17.724472
10056.193085	4806.580000	1459.355469	159.300598
10056.193085	4806.580000	1458.287109	-43.306492
10056.193085	4806.580000	1457.219727	89.174347
10056.193085	4806.580000	1456.151367	183.316681
10056.193085	4806.580000	1455.083008	56.712502
10056.193085	4806.580000	1454.014648	86.468788
10056.193085	4806.580000	1452.945313	89.676949
10056.193085	4806.580000	1451.876953	-41.209419
10056.193085	4806.580000	1450.807617	159.629211
10056.193085	4806.580000	1449.738281	95.632278
10056.193085	4806.580000	1448.668945	258.910156
10056.193085	4806.580000	1447.598633	273.108185
10056.193085	4806.580000	1446.528320	53.859024
10056.193085	4806.580000	1445.458008	101.742775
10056.193085	4806.580000	1444.387695	26.115913
10056.193085	4806.580000	1443.317383	65.928177
10056.193085	4806.580000	1442.246094	158.038910
10056.193085	4806.580000	1441.174805	234.963394
10056.193085	4806.580000	1440.103516	141.335449
10056.193085	4806.580000	1439.032227	173.560349
10056.193085	4806.580000	1437.960938	199.762131
10056.193085	4806.580000	1436.888672	254.734909
10056.193085	4806.580000	1435.816406	199.581619
10056.193085	4806.580000	1434.744141	137.078171
10056.193085	4806.580000	1433.670898	20.300499
10056.193085	4806.580000	1432.598633	121.406342
10056.193085	4806.580000	1431.525391	222.696518
10056.193085	4806.580000	1430.452148	194.844101
10056.193085	4806.580000	1429.378906	108.189934
10056.193085	4806.580000	1428.304688	-2.464314
10056.193085	4806.580000	1427.231445	103.290184
10056.193085	4806.580000	1426.157227	-8.133569
10056.193085	4806.580000	1425.083008	56.777637
10056.193085	4806.580000	1424.007813	72.815872
10056.193085	4806.580000	1422.933594	84.345215
10056.193085	4806.580000	1421.858398	212.432266
10056.193085	4806.580000	1420.783203	-95.289314
10056.193085	4806.580000	1419.708008	-26.805386
10056.193085	4806.580000	1418.631836	21.534678
10056.193085	4806.580000	1417.555664	-131.270828
10056.193085	4806.580000	1416.479492	42.070026
10056.193085	4806.580000	1415.403320	-145.426666
10056.193085	4806.580000	1414.327148	-31.661364
10056.193085	4806.580000	1413.250000	42.130039
10056.193085	4806.580000	1412.173828	-2.630569
10056.193085	4806.580000	1411.096680	35.546017
10056.193085	4806.580000	1410.018555	-34.597961
10056.193085	4806.580000	1408.941406	-52.524147
10056.193085	4806.580000	1407.863281	68.044479
10056.193085	4806.580000	1406.785156	-63.032383
10056.193085	4806.580000	1405.707031	-35.017006
10056.193085	4806.580000	1404.628906	152.488480
10056.193085	4806.580000	1403.549805	95.848587
10056.193085	4806.580000	1402.470703	165.067368
10056.193085	4806.580000	1401.391602	153.264389
10056.193085	4806.580000	1400.312500	69.607529
10056.193085	4806.580000	1399.233398	166.398941
10056.193085	4806.580000	1398.153320	157.908585
10056.193085	4806.580000	1397.073242	130.899597
10056.193085	4806.580000	1395.993164	121.844551
10056.193085	4806.580000	1394.913086	27.298517
10056.193085	4806.580000	1393.832031	41.751793
10056.193085	4806.580000	1392.750977	79.764732
10056.193085	4806.580000	1391.669922	104.536942
10056.193085	4806.580000	1390.588867	222.014603
10056.193085	4806.580000	1389.506836	366.956696
10056.193085	4806.580000	1388.425781	241.853256
10056.193085	4806.580000	1387.343750	281.275116
10056.193085	4806.580000	1386.261719	214.217484
10056.193085	4806.580000	1385.178711	134.144531
10056.193085	4806.580000	1384.096680	302.873169
10056.193085	4806.580000	1383.013672	205.315796
10056.193085	4806.580000	1381.930664	220.718918
10056.193085	4806.580000	1380.846680	379.086395
10056.193085	4806.580000	1379.763672	227.241699
10056.193085	4806.580000	1378.679688	43.294754
10056.193085	4806.580000	1377.595703	207.749725
10056.193085	4806.580000	1376.511719	136.198273
10056.193085	4806.580000	1375.427734	10.317014
10056.193085	4806.580000	1374.342773	117.276993
10056.193085	4806.580000	1373.257813	68.697464
10056.193085	4806.580000	1372.172852	173.934723
10056.193085	4806.580000	1371.087891	68.841621
10056.193085	4806.580000	1370.001953	129.555191
10056.193085	4806.580000	1368.916992	113.540222
10056.193085	4806.580000	1367.831055	147.403442
10056.193085	4806.580000	1366.744141	222.182861
10056.193085	4806.580000	1365.658203	159.850906
10056.193085	4806.580000	1364.571289	116.772293
10056.193085	4806.580000	1363.484375	197.941910
10056.193085	4806.580000	1362.397461	146.268265
10056.193085	4806.580000	1361.310547	53.923077
10056.193085	4806.580000	1360.222656	189.529449
10056.193085	4806.580000	1359.135742	321.345520
10056.193085	4806.580000	1358.047852	133.516205
10056.193085	4806.580000	1356.958984	215.286011
10056.193085	4806.580000	1355.871094	77.945580
10056.193085	4806.580000	1354.782227	39.697140
10056.193085	4806.580000	1353.693359	-8.244533
10056.193085	4806.580000	1352.604492	237.272705
10056.193085	4806.580000	1351.515625	152.610977
10056.193085	4806.580000	1350.425781	126.797478
10056.193085	4806.580000	1349.335938	131.241669
10056.193085	4806.580000	1348.246094	177.864746
10056.193085	4806.580000	1347.156250	76.541496
10056.193085	4806.580000	1346.066406	146.333237
10056.193085	4806.580000	1344.975586	277.594452
10056.193085	4806.580000	1343.884766	200.084564
10056.193085	4806.580000	1342.793945	127.897095
10056.193085	4806.580000	1341.702148	67.173729
10056.193085	4806.580000	1340.611328	243.796021
10056.193085	4806.580000	1339.519531	93.476746
10056.193085	4806.580000	1338.427734	128.095779
10056.193085	4806.580000	1337.334961	188.814926
10056.193085	4806.580000	1336.243164	165.398300
10056.193085	4806.580000	1335.150391	102.061852
10056.193085	4806.580000	1334.057617	174.312744
10056.193085	4806.580000	1332.964844	149.449600
10056.193085	4806.580000	1331.871094	-76.195747
10056.193085	4806.580000	1330.778320	244.682037
10056.193085	4806.580000	1329.684570	11.771359
10056.193085	4806.580000	1328.590820	63.005005
10056.193085	4806.580000	1327.496094	82.962006
10056.193085	4806.580000	1326.402344	74.544159
10056.193085	4806.580000	1325.307617	24.734970
10056.193085	4806.580000	1324.212891	156.684418
10056.193085	4806.580000	1323.117188	37.707962
10056.193085	4806.580000	1322.022461	60.143684
10056.193085	4806.580000	1320.926758	8.633030
10056.193085	4806.580000	1319.831055	210.931808
10056.193085	4806.580000	1318.735352	2.710672
10056.193085	4806.580000	1317.638672	79.229523
10056.193085	4806.580000	1316.542969	-100.684067
10056.193085	4806.580000	1315.446289	-4.405502
10056.193085	4806.580000	1314.349609	47.056740
10056.193085	4806.580000	1313.251953	19.217051
10056.193085	4806.580000	1312.155273	-61.130402
10056.193085	4806.580000	1311.057617	65.187508
10056.193085	4806.580000	1309.959961	57.631916
10056.193085	4806.580000	1308.862305	32.795818
10056.193085	4806.580000	1307.763672	-22.282356
10056.193085	4806.580000	1306.665039	3.157289
10056.193085	4806.580000	1305.566406	10.352760
10056.193085	4806.580000	1304.467773	-2.854913
10056.193085	4806.580000	1303.369141	39.590145
10056.193085	4806.580000	1302.269531	72.700592
10056.193085	4806.580000	1301.169922	9.564327
10056.193085	4806.580000	1300.070313	-9.958580
10056.193085	4806.580000	1298.970703	36.282951
10056.193085	4806.580000	1297.870117	72.777740
10056.193085	4806.580000	1296.769531	53.292290
10056.193085	4806.580000	1295.668945	-63.001308
10056.193085	4806.580000	1294.568359	23.410810
10056.193085	4806.580000	1293.466797	-53.821335
10056.193085	4806.580000	1292.366211	105.238190
10056.193085	4806.580000	1291.264648	80.998604
10056.193085	4806.580000	1290.162109	47.737507
10056.193085	4806.580000	1289.060547	30.034271
10056.193085	4806.580000	1287.958008	150.638565
10056.193085	4806.580000	1286.855469	125.357727
10056.193085	4806.580000	1285.752930	103.828194
10056.193085	4806.580000	1284.650391	-20.766268
10056.193085	4806.580000	1283.546875	6.430092
10056.193085	4806.580000	1282.444336	-26.215988
10056.193085	4806.580000	1281.339844	-92.395432
10056.193085	4806.580000	1280.236328	-86.196236
10056.193085	4806.580000	1279.132813	4.482952
10056.193085	4806.580000	1278.028320	-190.806732
10056.193085	4806.580000	1276.923828	11.998233
10056.193085	4806.580000	1275.819336	5.961512
10056.193085	4806.580000	1274.713867	-37.071777
10056.193085	4806.580000	1273.608398	2.801688
10056.193085	4806.580000	1272.503906	-123.597847
10056.193085	4806.580000	1271.397461	98.326241
10056.193085	4806.580000	1270.291992	36.125141
10056.193085	4806.580000	1269.185547	-52.577377
10056.193085	4806.580000	1268.080078	44.667030
10056.193085	4806.580000	1266.972656	77.224678
10056.193085	4806.580000	1265.866211	6.304310
10056.193085	4806.580000	1264.759766	-122.703941
10056.193085	4806.580000	1263.652344	-16.812735
10056.193085	4806.580000	1262.544922	-51.899666
10056.193085	4806.580000	1261.436523	-112.176582
10056.193085	4806.580000	1260.329102	-147.754883
10056.193085	4806.580000	1259.220703	-136.907578
10056.193085	4806.580000	1258.112305	-113.414627
10056.193085	4806.580000	1257.003906	-42.306149
10056.193085	4806.580000	1255.895508	-166.459412
10056.193085	4806.580000	1254.786133	-105.709717
10056.193085	4806.580000	1253.676758	-82.830292
10056.193085	4806.580000	1252.567383	27.220072
10056.193085	4806.580000	1251.458008	-50.046741
10056.193085	4806.580000	1250.347656	16.278610
10056.193085	4806.580000	1249.237305	-41.682579
10056.193085	4806.580000	1248.126953	-15.748984
10056.193085	4806.580000	1247.016602	-82.710960
10056.193085	4806.580000	1245.905273	45.057171
10056.193085	4806.580000	1244.793945	33.454021
10056.193085	4806.580000	1243.682617	91.909927
10056.193085	4806.580000	1242.571289	71.121361
10056.193085	4806.580000	1241.459961	58.524025
10056.193085	4806.580000	1240.347656	50.961430
10056.193085	4806.580000	1239.235352	194.851166
10056.193085	4806.580000	1238.123047	134.554260
10056.193085	4806.580000	1237.009766	208.155426
10056.193085	4806.580000	1235.897461	130.414948
10056.193085	4806.580000	1234.784180	52.695938
10056.193085	4806.580000	1233.670898	117.413544
10056.193085	4806.580000	1232.556641	35.682774
10056.193085	4806.580000	1231.443359	-14.855759
10056.193085	4806.580000	1230.329102	31.112772
10056.193085	4806.580000	1229.214844	82.048889
10056.193085	4806.580000	1228.099609	123.338135
10056.193085	4806.580000	1226.985352	205.457520
10056.193085	4806.580000	1225.870117	98.016800
10056.193085	4806.580000	1224.754883	168.814407
10056.193085	4806.580000	1223.639648	97.423744
10056.193085	4806.580000	1222.523438	164.903702
10056.193085	4806.580000	1221.408203	231.481277
10056.193085	4806.580000	1220.291992	368.798004
10056.193085	4806.580000	1219.174805	239.369202
10056.193085	4806.580000	1218.058594	245.583939
10056.193085	4806.580000	1216.941406	115.913391
10056.193085	4806.580000	1215.824219	87.586098
10056.193085	4806.580000	1214.707031	163.894714
10056.193085	4806.580000	1213.589844	42.932224
10056.193085	4806.580000	1212.471680	62.677441
10056.193085	4806.580000	1211.353516	-127.749466
10056.193085	4806.580000	1210.235352	57.638008
10056.193085	4806.580000	1209.117188	-2.511992
10056.193085	4806.580000	1207.998047	4.398019
10056.193085	4806.580000	1206.878906	51.230392
10056.193085	4806.580000	1205.759766	-77.233925
10056.193085	4806.580000	1204.640625	6.568254
10056.193085	4806.580000	1203.520508	7.071320
10056.193085	4806.580000	1202.401367	58.145809
10056.193085	4806.580000	1201.281250	-17.715149
10056.193085	4806.580000	1200.160156	-137.485504
10056.193085	4806.580000	1199.040039	-104.976807
10056.193085	4806.580000	1197.918945	-18.443047
10056.193085	4806.580000	1196.797852	52.269188
10056.193085	4806.580000	1195.676758	-5.679757
10056.193085	4806.580000	1194.555664	105.024284
10056.193085	4806.580000	1193.433594	81.150658
10056.193085	4806.580000	1192.311523	-59.027119
10056.193085	4806.580000	1191.189453	-53.271530
10056.193085	4806.580000	1190.066406	10.409408
10056.193085	4806.580000	1188.944336	-1.848530
10056.193085	4806.580000	1187.821289	37.603458
10056.193085	4806.580000	1186.698242	25.108761
10056.193085	4806.580000	1185.574219	-114.253738
10056.193085	4806.580000	1184.451172	-63.839924
10056.193085	4806.580000	1183.327148	-146.874069
10056.193085	4806.580000	1182.203125	-105.190994
10056.193085	4806.580000	1181.078125	-57.035557
10056.193085	4806.580000	1179.954102	2.615815
10056.193085	4806.580000	1178.829102	-75.394806
10056.193085	4806.580000	1177.704102	-191.755219
10056.193085	4806.580000	1176.579102	-162.971558
10056.193085	4806.580000	1175.453125	-141.872208
10056.193085	4806.580000	1174.327148	-63.734318
10056.193085	4806.580000	1173.201172	-85.966835
10056.193085	4806.580000	1172.075195	-107.148140
10056.193085	4806.580000	1170.949219	-40.808285
10056.193085	4806.580000	1169.822266	-19.643379
10056.193085	4806.580000	1168.695313	6.160316
10056.193085	4806.580000	1167.568359	-35.429680
10056.193085	4806.580000	1166.440430	-129.022583
10056.193085	4806.580000	1165.313477	-72.597992
10056.193085	4806.580000	1164.185547	-90.376053
10056.193085	4806.580000	1163.057617	0.299805
10056.193085	4806.580000	1161.928711	-43.301258
10056.193085	4806.580000	1160.800781	67.953568
10056.193085	4806.580000	1159.671875	-41.035831
10056.193085	4806.580000	1158.541992	30.516399
10056.193085	4806.580000	1157.413086	78.524879
10056.193085	4806.580000	1156.283203	93.334259
10056.193085	4806.580000	1155.154297	25.497881
10056.193085	4806.580000	1154.023438	-67.056366
10056.193085	4806.580000	1152.893555	-131.350586
10056.193085	4806.580000	1151.763672	-90.066353
10056.193085	4806.580000	1150.632813	83.037552
10056.193085	4806.580000	1149.501953	100.593460
10056.193085	4806.580000	1148.370117	17.518345
10056.193085	4806.580000	1147.239258	105.135284
10056.193085	4806.580000	1146.107422	87.214973
10056.193085	4806.580000	1144.975586	108.078270
10056.193085	4806.580000	1143.843750	32.384640
10056.193085	4806.580000	1142.710938	102.965546
10056.193085	4806.580000	1141.578125	54.327938
10056.193085	4806.580000	1140.445313	1.711348
10056.193085	4806.580000	1139.312500	-34.599270
10056.193085	4806.580000	1138.178711	120.423798
10056.193085	4806.580000	1137.045898	97.520889
10056.193085	4806.580000	1135.912109	45.594788
10056.193085	4806.580000	1134.777344	26.266838
10056.193085	4806.580000	1133.643555	32.330696
10056.193085	4806.580000	1132.508789	-16.506250
10056.193085	4806.580000	1131.374023	19.621494
10056.193085	4806.580000	1130.239258	11.627316
10056.193085	4806.580000	1129.104492	123.421188
10056.193085	4806.580000	1127.968750	65.861755
10056.193085	4806.580000	1126.833008	8.098278
10056.193085	4806.580000	1125.697266	100.685753
10056.193085	4806.580000	1124.560547	59.090202
10056.193085	4806.580000	1123.424805	77.922989
10056.193085	4806.580000	1122.288086	141.069443
10056.193085	4806.580000	1121.151367	28.024134
10056.193085	4806.580000	1120.013672	81.662209
10056.193085	4806.580000	1118.876953	-4.012738
10056.193085	4806.580000	1117.739258	206.816635
10056.193085	4806.580000	1116.601563	118.246521
10056.193085	4806.580000	1115.462891	13.030920
10056.193085	4806.580000	1114.324219	17.382786
10056.193085	4806.580000	1113.186523	97.856941
10056.193085	4806.580000	1112.046875	-4.855732
10056.193085	4806.580000	1110.908203	-41.859009
10056.193085	4806.580000	1109.769531	4.520022
10056.193085	4806.580000	1108.629883	50.555267
10056.193085	4806.580000	1107.490234	-15.459137
10056.193085	4806.580000	1106.349609	150.577347
10056.193085	4806.580000	1105.209961	37.876789
10056.193085	4806.580000	1104.069336	-14.723867
10056.193085	4806.580000	1102.928711	43.857685
10056.193085	4806.580000	1101.787109	-57.944107
10056.193085	4806.580000	1100.646484	54.725586
10056.193085	4806.580000	1099.504883	84.142021
10056.193085	4806.580000	1098.363281	91.496002
10056.193085	4806.580000	1097.221680	169.451477
10056.193085	4806.580000	1096.079102	79.779709
10056.193085	4806.580000	1094.936523	128.298523
10056.193085	4806.580000	1093.793945	143.329605
10056.193085	4806.580000	1092.651367	228.027603
10056.193085	4806.580000	1091.507813	27.780945
10056.193085	4806.580000	1090.364258	59.519333
10056.193085	4806.580000	1089.220703	115.523926
10056.193085	4806.580000	1088.077148	194.002151
10056.193085	4806.580000	1086.933594	-15.016784
10056.193085	4806.580000	1085.789063	67.350540
10056.193085	4806.580000	1084.644531	58.986111
10056.193085	4806.580000	1083.499023	93.605339
10056.193085	4806.580000	1082.354492	-31.973837
10056.193085	4806.580000	1081.208984	3.900661
10056.193085	4806.580000	1080.063477	139.340897
10056.193085	4806.580000	1078.917969	207.246216
10056.193085	4806.580000	1077.771484	142.646896
10056.193085	4806.580000	1076.625977	112.930397
10056.193085	4806.580000	1075.479492	114.871666
10056.193085	4806.580000	1074.332031	161.940796
10056.193085	4806.580000	1073.185547	137.800797
10056.193085	4806.580000	1072.038086	74.950615
10056.193085	4806.580000	1070.890625	82.951721
10056.193085	4806.580000	1069.743164	-65.931297
10056.193085	4806.580000	1068.594727	110.852180
10056.193085	4806.580000	1067.447266	57.916100
10056.193085	4806.580000	1066.298828	232.080460
10056.193085	4806.580000	1065.149414	106.550255
10056.193085	4806.580000	1064.000977	159.869720
10056.193085	4806.580000	1062.851563	247.266937
10056.193085	4806.580000	1061.702148	230.790909
10056.193085	4806.580000	1060.552734	69.688667
10056.193085	4806.580000	1059.402344	89.933525
10056.193085	4806.580000	1058.252930	27.336559
10056.193085	4806.580000	1057.102539	-44.385563
10056.193085	4806.580000	1055.951172	106.974586
10056.193085	4806.580000	1054.800781	118.520721
10056.193085	4806.580000	1053.649414	11.309693
10056.193085	4806.580000	1052.498047	-9.569274
10056.193085	4806.580000	1051.346680	188.004410
10056.193085	4806.580000	1050.194336	125.009773
10056.193085	4806.580000	1049.042969	-77.919952
10056.193085	4806.580000	1047.890625	167.483795
10056.193085	4806.580000	1046.738281	225.044724
10056.193085	4806.580000	1045.584961	114.267677
10056.193085	4806.580000	1044.431641	85.350899
10056.193085	4806.580000	1043.278320	118.833481
10056.193085	4806.580000	1042.125000	27.875587
10056.193085	4806.580000	1040.971680	44.025570
10056.193085	4806.580000	1039.817383	-17.965763
10056.193085	4806.580000	1038.663086	75.819717
10056.193085	4806.580000	1037.508789	144.707718
10056.193085	4806.580000	1036.353516	73.530037
10056.193085	4806.580000	1035.198242	254.366516
10056.193085	4806.580000	1034.042969	158.161972
10056.193085	4806.580000	1032.887695	38.431610
10056.193085	4806.580000	1031.732422	159.707672
10056.193085	4806.580000	1030.576172	116.128510
10056.193085	4806.580000	1029.419922	237.209610
10056.193085	4806.580000	1028.263672	188.995956
10056.193085	4806.580000	1027.106445	103.037910
10056.193085	4806.580000	1025.949219	-65.496590
10056.193085	4806.580000	1024.792969	293.068268
10056.193085	4806.580000	1023.634766	184.454239
10056.193085	4806.580000	1022.477539	78.540245
10056.193085	4806.580000	1021.319336	71.678856
10056.193085	4806.580000	1020.161133	-25.453596
10056.193085	4806.580000	1019.002930	123.928589
10056.193085	4806.580000	1017.843750	16.873688
10056.193085	4806.580000	1016.684570	117.720718
10056.193085	4806.580000	1015.525391	82.187019
10056.193085	4806.580000	1014.366211	59.514854
10056.193085	4806.580000	1013.207031	-39.656059
10056.193085	4806.580000	1012.046875	-33.776558
10056.193085	4806.580000	1010.886719	67.602837
10056.193085	4806.580000	1009.726563	44.659439
10056.193085	4806.580000	1008.565430	-3.409688
10056.193085	4806.580000	1007.404297	-197.998260
10056.193085	4806.580000	1006.243164	185.935303
10056.193085	4806.580000	1005.082031	-13.295921
10056.193085	4806.580000	1003.920898	147.028366
10056.193085	4806.580000	1002.758789	-10.799651
10056.193085	4806.580000	1001.596680	134.209229
10056.193085	4806.580000	1000.433594	65.423325
10056.193085	4806.580000	999.271484	141.050110
10056.193085	4806.580000	998.108398	50.457951
10056.193085	4806.580000	996.945313	60.456444
10056.193085	4806.580000	995.782227	116.314255
10056.193085	4806.580000	994.618164	384.033386
10056.193085	4806.580000	993.454102	349.143738
10056.193085	4806.580000	992.290039	421.609772
10056.193085	4806.580000	991.125977	584.590759
10056.193085	4806.580000	989.960938	462.157013
10056.193085	4806.580000	988.796875	567.428467
10056.193085	4806.580000	987.630859	637.702209
10056.193085	4806.580000	986.465820	523.884583
10056.193085	4806.580000	985.300781	424.982788
10056.193085	4806.580000	984.134766	366.127625
10056.193085	4806.580000	982.968750	304.713440
10056.193085	4806.580000	981.801758	314.282562
10056.193085	4806.580000	980.635742	202.885437
10056.193085	4806.580000	979.468750	390.621735
10056.193085	4806.580000	978.301758	116.550926
10056.193085	4806.580000	977.133789	-50.636787
10056.193085	4806.580000	975.966797	-47.196457
10056.193085	4806.580000	974.798828	137.315186
10056.193085	4806.580000	973.630859	2.787773
10056.193085	4806.580000	972.461914	111.165352
10056.193085	4806.580000	971.293945	131.687164
10056.193085	4806.580000	970.125000	27.911554
10056.193085	4806.580000	968.956055	50.213112
10056.193085	4806.580000	967.786133	246.126633
10056.193085	4806.580000	966.617188	-34.135349
10056.193085	4806.580000	965.447266	26.011257
10056.193085	4806.580000	964.276367	-97.236687
10056.193085	4806.580000	963.106445	-202.163101
10056.193085	4806.580000	961.935547	-30.589787
10056.193085	4806.580000	960.764648	62.226158
10056.193085	4806.580000	959.593750	112.488968
10056.193085	4806.580000	958.422852	69.142639
10056.193085	4806.580000	957.250977	71.627090
10056.193085	4806.580000	956.079102	32.394753
10056.193085	4806.580000	954.907227	-16.359404
10056.193085	4806.580000	953.734375	-45.570507
10056.193085	4806.580000	952.562500	-171.325882
10056.193085	4806.580000	951.389648	-112.929054
10056.193085	4806.580000	950.215820	-38.011261
10056.193085	4806.580000	949.042969	27.920832
10056.193085	4806.580000	947.869141	144.814102
10056.193085	4806.580000	946.695313	-28.102535
10056.193085	4806.580000	945.521484	67.193558
10056.193085	4806.580000	944.346680	-4.513158
10056.193085	4806.580000	943.172852	48.637527
10056.193085	4806.580000	941.998047	4.554731
10056.193085	4806.580000	940.822266	-146.392792
10056.193085	4806.580000	939.647461	-18.836428
10056.193085	4806.580000	938.471680	-100.421852
10056.193085	4806.580000	937.295898	-10.235431
10056.193085	4806.580000	936.119141	164.183975
10056.193085	4806.580000	934.943359	129.992676
10056.193085	4806.580000	933.766602	152.941864
10056.193085	4806.580000	932.589844	180.701111
10056.193085	4806.580000	931.413086	176.255905
10056.193085	4806.580000	930.235352	137.091736
10056.193085	4806.580000	929.057617	127.607674
10056.193085	4806.580000	927.879883	61.059757
10056.193085	4806.580000	926.702148	113.618057
10056.193085	4806.580000	925.523438	47.063892
10056.193085	4806.580000	924.344727	87.178726
10056.193085	4806.580000	923.166016	33.005215
10056.193085	4806.580000	921.987305	68.115768
10056.193085	4806.580000	920.807617	-33.170753
10056.193085	4806.580000	919.627930	-31.585516
10056.193085	4806.580000	919.497070	-37.575142
10056.193085	4806.580000	918.331055	-42.187614
10056.193085	4806.580000	917.165039	12.658785
10056.193085	4806.580000	915.999023	35.260597
10056.193085	4806.580000	914.833008	109.854790
10056.193085	4806.580000	913.666016	45.722546
10056.193085	4806.580000	912.499023	-139.721237
10056.193085	4806.580000	911.332031	14.035781
10056.193085	4806.580000	910.165039	-37.705936
10056.193085	4806.580000	908.997070	-27.578356
10056.193085	4806.580000	907.830078	-183.225327
10056.193085	4806.580000	906.661133	-93.947845
10056.193085	4806.580000	905.493164	-148.153122
10056.193085	4806.580000	904.325195	-105.924286
10056.193085	4806.580000	903.156250	20.321470
10056.193085	4806.580000	901.987305	-38.855820
10056.193085	4806.580000	900.818359	-78.254845
10056.193085	4806.580000	899.648438	3.401521
10056.193085	4806.580000	898.478516	28.203608
10056.193085	4806.580000	897.308594	87.554878
10056.193085	4806.580000	896.138672	-40.769135
10056.193085	4806.580000	894.968750	87.662369
10056.193085	4806.580000	893.797852	80.294930
10056.193085	4806.580000	892.626953	1.362947
10056.193085	4806.580000	891.456055	11.260127
10056.193085	4806.580000	890.284180	134.597000
10056.193085	4806.580000	889.113281	82.791573
10056.193085	4806.580000	887.941406	67.977356
10056.193085	4806.580000	886.768555	151.754562
10056.193085	4806.580000	885.596680	50.655495
10056.193085	4806.580000	884.423828	136.842911
10056.193085	4806.580000	883.250977	121.985397
10056.193085	4806.580000	882.078125	148.991760
10056.193085	4806.580000	880.905273	267.083801
10056.193085	4806.580000	879.731445	232.481369
10056.193085	4806.580000	878.557617	323.412598
10056.193085	4806.580000	877.383789	271.565125
10056.193085	4806.580000	876.209961	190.204208
10056.193085	4806.580000	875.035156	290.896790
10056.193085	4806.580000	873.860352	39.849609
10056.193085	4806.580000	872.685547	231.489029
10056.193085	4806.580000	871.510742	56.744873
10056.193085	4806.580000	870.334961	267.946228
10056.193085	4806.580000	869.159180	39.185616
10056.193085	4806.580000	867.983398	41.452385
10056.193085	4806.580000	866.807617	55.990299
10056.193085	4806.580000	865.630859	48.411152
10056.193085	4806.580000	864.454102	55.557457
10056.193085	4806.580000	863.277344	-28.137083
10056.193085	4806.580000	862.100586	-47.994144
10056.193085	4806.580000	860.922852	162.807983
10056.193085	4806.580000	859.745117	57.036160
10056.193085	4806.580000	858.567383	61.675835
10056.193085	4806.580000	857.389648	31.971737
10056.193085	4806.580000	856.210938	-112.962959
10056.193085	4806.580000	855.032227	-218.626022
10056.193085	4806.580000	853.853516	33.563202
10056.193085	4806.580000	852.674805	126.370926
10056.193085	4806.580000	851.495117	35.397594
10056.193085	4806.580000	850.315430	-9.009817
10056.193085	4806.580000	849.135742	32.300144
10056.193085	4806.580000	847.956055	107.861252
10056.193085	4806.580000	846.775391	129.532211
10056.193085	4806.580000	845.595703	19.032373
10056.193085	4806.580000	844.415039	-10.686086
10056.193085	4806.580000	843.233398	103.931580
10056.193085	4806.580000	842.052734	-28.530025
10056.193085	4806.580000	840.871094	-6.892681
10056.193085	4806.580000	839.689453	107.630089
10056.193085	4806.580000	838.506836	24.112755
10056.193085	4806.580000	837.325195	-103.366386
10056.193085	4806.580000	836.142578	-108.636986
10056.193085	4806.580000	834.959961	-47.958447
10056.193085	4806.580000	833.777344	-106.982567
10056.193085	4806.580000	832.593750	-31.693031
10056.193085	4806.580000	831.410156	-37.003521
10056.193085	4806.580000	830.226563	-22.792412
10056.193085	4806.580000	829.042969	-57.399982
10056.193085	4806.580000	827.858398	51.944935
10056.193085	4806.580000	826.673828	-53.414986
10056.193085	4806.580000	825.489258	-41.679901
10056.193085	4806.580000	824.304688	43.190262
10056.193085	4806.580000	823.120117	-20.682871
10056.193085	4806.580000	821.934570	0.766259
10056.193085	4806.580000	820.749023	-2.167508
10056.193085	4806.580000	819.562500	55.798660
10056.193085	4806.580000	818.376953	91.812065
10056.193085	4806.580000	817.190430	13.349460
10056.193085	4806.580000	816.003906	-13.959335
10056.193085	4806.580000	814.817383	109.657181
10056.193085	4806.580000	813.629883	14.182478
10056.193085	4806.580000	812.442383	-35.028519
10056.193085	4806.580000	811.254883	-23.408905
10056.193085	4806.580000	810.067383	134.130676
10056.193085	4806.580000	808.878906	-14.794485
10056.193085	4806.580000	807.690430	89.178345
10056.193085	4806.580000	806.501953	-40.244286
10056.193085	4806.580000	805.313477	-21.379766
10056.193085	4806.580000	804.124023	55.783634
10056.193085	4806.580000	802.934570	-136.731659
10056.193085	4806.580000	801.745117	76.415169
10056.193085	4806.580000	800.555664	-91.756859
10056.193085	4806.580000	799.365234	75.153114
10056.193085	4806.580000	798.175781	38.104057
10056.193085	4806.580000	796.985352	141.810287
10056.193085	4806.580000	795.793945	-6.854193
10056.193085	4806.580000	794.603516	99.230232
10056.193085	4806.580000	793.412109	-112.432602
10056.193085	4806.580000	792.220703	-74.275322
10056.193085	4806.580000	791.028320	-26.443998
10056.193085	4806.580000	789.836914	11.665409
10056.193085	4806.580000	788.644531	-100.483849
10056.193085	4806.580000	787.452148	36.939281
10056.193085	4806.580000	786.258789	-4.940798
10056.193085	4806.580000	785.066406	45.211437
10056.193085	4806.580000	783.873047	44.491505
10056.193085	4806.580000	782.679688	-38.538086
10056.193085	4806.580000	781.485352	-63.456577
10056.193085	4806.580000	780.291992	15.671197
10056.193085	4806.580000	779.097656	7.669703
10056.193085	4806.580000	777.903320	96.409081
10056.193085	4806.580000	776.708008	37.598133
10056.193085	4806.580000	775.512695	-91.308022
10056.193085	4806.580000	774.318359	-19.547621
10056.193085	4806.580000	773.122070	-39.656273
10056.193085	4806.580000	771.926758	41.712036
10056.193085	4806.580000	770.730469	43.323059
10056.193085	4806.580000	769.534180	3.867769
10056.193085	4806.580000	768.337891	225.198624
10056.193085	4806.580000	767.141602	130.180267
10056.193085	4806.580000	765.944336	283.794373
10056.193085	4806.580000	764.747070	367.355988
10056.193085	4806.580000	763.549805	462.936737
10056.193085	4806.580000	762.351563	522.287354
10056.193085	4806.580000	761.154297	670.832886
10056.193085	4806.580000	759.956055	710.808167
10056.193085	4806.580000	758.757813	690.492188
10056.193085	4806.580000	757.558594	624.383545
10056.193085	4806.580000	756.359375	772.746582
10056.193085	4806.580000	755.160156	687.356506
10056.193085	4806.580000	753.960938	447.842133
10056.193085	4806.580000	752.761719	444.409882
10056.193085	4806.580000	751.561523	371.149231
10056.193085	4806.580000	750.361328	389.378174
10056.193085	4806.580000	749.160156	450.907349
10056.193085	4806.580000	747.959961	502.776215
10056.193085	4806.580000	746.758789	494.473358
10056.193085	4806.580000	745.557617	284.136597
10056.193085	4806.580000	744.356445	299.906464
10056.193085	4806.580000	743.154297	380.569092
10056.193085	4806.580000	741.952148	355.429840
10056.193085	4806.580000	740.750000	25.099401
10056.193085	4806.580000	739.547852	192.227051
10056.193085	4806.580000	738.344727	212.747330
10056.193085	4806.580000	737.142578	185.215515
10056.193085	4806.580000	735.939453	212.908066
10056.193085	4806.580000	734.735352	266.983002
10056.193085	4806.580000	733.532227	258.621094
10056.193085	4806.580000	732.328125	159.067535
10056.193085	4806.580000	731.124023	167.500259
10056.193085	4806.580000	729.918945	-1.576410
10056.193085	4806.580000	728.714844	249.063782
10056.193085	4806.580000	727.509766	281.408600
10056.193085	4806.580000	726.303711	186.683395
10056.193085	4806.580000	725.098633	77.604759
10056.193085	4806.580000	723.892578	81.172569
10056.193085	4806.580000	722.686523	151.799713
10056.193085	4806.580000	721.480469	42.755070
10056.193085	4806.580000	720.274414	115.727417
10056.193085	4806.580000	719.067383	-0.474849
10056.193085	4806.580000	717.860352	77.234039
10056.193085	4806.580000	716.653320	-34.154873
10056.193085	4806.580000	715.445313	-6.744380
10056.193085	4806.580000	714.238281	-20.025740
10056.193085	4806.580000	713.030273	198.662323
10056.193085	4806.580000	711.821289	80.106720
10056.193085	4806.580000	710.613281	191.076996
10056.193085	4806.580000	709.404297	55.811001
10056.193085	4806.580000	708.195313	63.957115
10056.193085	4806.580000	706.986328	172.423340
10056.193085	4806.580000	705.776367	37.197128
10056.193085	4806.580000	704.566406	21.412207
10056.193085	4806.580000	703.356445	74.855011
10056.193085	4806.580000	702.146484	97.227013
10056.193085	4806.580000	700.935547	105.252884
10056.193085	4806.580000	699.724609	153.820328
10056.193085	4806.580000	698.513672	47.290489
10056.193085	4806.580000	697.302734	215.065018
10056.193085	4806.580000	696.090820	172.912476
10056.193085	4806.580000	694.878906	92.615143
10056.193085	4806.580000	693.666992	131.508774
10056.193085	4806.580000	692.455078	3.556053
10056.193085	4806.580000	691.242188	18.588469
10056.193085	4806.580000	690.029297	-30.719061
10056.193085	4806.580000	688.816406	108.114220
10056.193085	4806.580000	687.602539	6.387045
10056.193085	4806.580000	686.389648	130.831406
10056.193085	4806.580000	685.175781	-37.538536
10056.193085	4806.580000	683.960938	-29.774313
10056.193085	4806.580000	682.747070	-5.380642
10056.193085	4806.580000	681.532227	-28.589079
10056.193085	4806.580000	680.317383	-4.248026
10056.193085	4806.580000	679.102539	-27.489035
10056.193085	4806.580000	677.886719	-100.659012
10056.193085	4806.580000	676.670898	-12.217648
10056.193085	4806.580000	675.455078	64.284081
10056.193085	4806.580000	674.239258	78.969009
10056.193085	4806.580000	673.022461	155.374451
10056.193085	4806.580000	671.805664	75.008057
10056.193085	4806.580000	670.588867	175.077148
10056.193085	4806.580000	669.372070	201.502441
10056.193085	4806.580000	668.154297	213.654144
10056.193085	4806.580000	666.936523	142.740204
10056.193085	4806.580000	665.718750	161.968414
10056.193085	4806.580000	664.500977	124.248268
10056.193085	4806.580000	663.282227	10.647659
10056.193085	4806.580000	662.063477	131.749603
10056.193085	4806.580000	660.844727	193.526077
10056.193085	4806.580000	659.625000	84.646980
10056.193085	4806.580000	658.405273	188.999100
10056.193085	4806.580000	657.185547	132.223343
10056.193085	4806.580000	655.965820	77.814629
10056.193085	4806.580000	654.745117	-16.845770
10056.193085	4806.580000	653.525391	-78.352539
10056.193085	4806.580000	652.303711	80.222618
10056.193085	4806.580000	651.083008	158.262054
10056.193085	4806.580000	649.861328	127.427803
10056.193085	4806.580000	648.640625	56.375351
10056.193085	4806.580000	647.417969	75.175331
10056.193085	4806.580000	646.196289	63.209370
10056.193085	4806.580000	644.973633	105.580254
10056.193085	4806.580000	643.750977	-147.469040
10056.193085	4806.580000	642.528320	27.173141
10056.193085	4806.580000	641.305664	-43.934818
10056.193085	4806.580000	640.082031	69.155495
10056.193085	4806.580000	638.858398	45.231106
10056.193085	4806.580000	637.634766	7.125324
10056.193085	4806.580000	636.410156	53.965691
10056.193085	4806.580000	635.185547	119.633041
10056.193085	4806.580000	633.960938	189.961197
10056.193085	4806.580000	632.736328	125.795662
10056.193085	4806.580000	631.510742	-84.569099
10056.193085	4806.580000	630.285156	148.334763
10056.193085	4806.580000	629.059570	-62.006123
10056.193085	4806.580000	627.833984	3.422734
10056.193085	4806.580000	626.607422	134.760422
10056.193085	4806.580000	625.380859	-75.536842
10056.193085	4806.580000	624.154297	-104.439919
10056.193085	4806.580000	622.927734	-109.817139
10056.193085	4806.580000	621.700195	-46.958214
10056.193085	4806.580000	620.472656	-68.883865
10056.193085	4806.580000	619.245117	123.291969
10056.193085	4806.580000	618.016602	23.641830
10056.193085	4806.580000	616.788086	-97.165977
10056.193085	4806.580000	615.559570	-119.191170
10056.193085	4806.580000	614.331055	157.338562
10056.193085	4806.580000	613.101563	114.047882
10056.193085	4806.580000	611.872070	63.692627
10056.193085	4806.580000	610.642578	-125.295219
10056.193085	4806.580000	609.413086	33.417686
10056.193085	4806.580000	608.182617	-63.959106
10056.193085	4806.580000	606.952148	-29.839592
10056.193085	4806.580000	605.721680	1.884492
10056.193085	4806.580000	604.491211	59.378529
10056.193085	4806.580000	603.259766	-7.552814
10056.193085	4806.580000	602.028320	-22.877617
10056.193085	4806.580000	600.796875	43.862968
10056.193085	4806.580000	599.564453	155.094620
10056.193085	4806.580000	598.332031	36.481197
10056.193085	4806.580000	597.099609	11.644620
10056.193085	4806.580000	595.867188	-41.339066
10056.193085	4806.580000	594.633789	-7.644853
10056.193085	4806.580000	593.400391	77.535248
10056.193085	4806.580000	592.166992	3.386162
10056.193085	4806.580000	590.933594	90.798401
10056.193085	4806.580000	589.699219	-62.990543
10056.193085	4806.580000	588.464844	94.541298
10056.193085	4806.580000	587.230469	85.827408
10056.193085	4806.580000	585.995117	-23.520784
10056.193085	4806.580000	584.760742	56.605495
10056.193085	4806.580000	583.525391	-27.038551
10056.193085	4806.580000	582.289063	55.314453
10056.193085	4806.580000	581.053711	-19.016594
10056.193085	4806.580000	579.817383	-48.951458
10056.193085	4806.580000	578.581055	68.291824
10056.193085	4806.580000	577.343750	0.898234
10056.193085	4806.580000	576.107422	-103.870720
10056.193085	4806.580000	574.870117	108.932159
10056.193085	4806.580000	573.631836	83.480026
10056.193085	4806.580000	572.394531	62.671749
10056.193085	4806.580000	571.156250	-37.509010
10056.193085	4806.580000	569.917969	-32.697086
10056.193085	4806.580000	568.679688	-32.590824
10056.193085	4806.580000	567.440430	233.329483
10056.193085	4806.580000	566.202148	81.751114
10056.193085	4806.580000	564.961914	72.388603
10056.193085	4806.580000	563.722656	-18.575842
10056.193085	4806.580000	562.482422	-62.941696
10056.193085	4806.580000	561.243164	51.085949
10056.193085	4806.580000	560.001953	20.618277
10056.193085	4806.580000	558.761719	94.912529
10056.193085	4806.580000	557.520508	157.492249
10056.193085	4806.580000	556.279297	196.730225
10056.193085	4806.580000	555.038086	91.632706
10056.193085	4806.580000	553.795898	-36.728191
10056.193085	4806.580000	552.554688	-120.876015
10056.193085	4806.580000	551.311523	27.524902
10056.193085	4806.580000	550.069336	171.174774
10056.193085	4806.580000	548.826172	40.417526
10056.193085	4806.580000	547.583984	123.495949
10056.193085	4806.580000	546.339844	-37.486111
10056.193085	4806.580000	545.096680	66.396042
10056.193085	4806.580000	543.852539	33.155983
10056.193085	4806.580000	542.608398	9.177572
10056.193085	4806.580000	541.364258	-33.405067
10056.193085	4806.580000	540.119141	-55.124672
10056.193085	4806.580000	538.875000	15.950931
10056.193085	4806.580000	537.628906	140.310150
10056.193085	4806.580000	536.383789	-13.776947
10056.193085	4806.580000	535.137695	22.323828
10056.193085	4806.580000	533.892578	-32.056190
10056.193085	4806.580000	532.645508	-44.736603
10056.193085	4806.580000	531.399414	-27.322006
10056.193085	4806.580000	530.152344	-118.866943
10056.193085	4806.580000	528.905273	-124.701149
10056.193085	4806.580000	527.658203	-30.982050
10056.193085	4806.580000	526.410156	83.489616
10056.193085	4806.580000	525.163086	-40.588688
10056.193085	4806.580000	523.914063	-18.842474
10056.193085	4806.580000	522.666016	16.737574
10056.193085	4806.580000	521.416992	-40.292271
10056.193085	4806.580000	520.167969	-2.503756
10056.193085	4806.580000	518.918945	-87.348320
10056.193085	4806.580000	517.669922	-93.588928
10056.193085	4806.580000	516.419922	-125.305466
10056.193085	4806.580000	515.169922	64.817139
10056.193085	4806.580000	513.919922	76.889412
10056.193085	4806.580000	512.668945	-79.737984
10056.193085	4806.580000	511.417969	-107.004326
10056.193085	4806.580000	510.166992	-168.944626
10056.193085	4806.580000	508.916016	-48.520164
10056.193085	4806.580000	507.664063	-41.302372
10056.193085	4806.580000	506.412109	-41.060013
10056.193085	4806.580000	505.160156	92.949684
10056.193085	4806.580000	503.907227	33.084343
10056.193085	4806.580000	502.655273	-29.108425
10056.193085	4806.580000	501.402344	44.707584
10056.193085	4806.580000	500.148438	-26.793406
10056.193085	4806.580000	498.895508	-33.779419
10056.193085	4806.580000	497.641602	5.265150
10056.193085	4806.580000	496.387695	-107.807205
10056.193085	4806.580000	495.132813	103.866615
10056.193085	4806.580000	493.878906	6.833162
10056.193085	4806.580000	492.624023	169.934326
10056.193085	4806.580000	491.368164	111.936943
10056.193085	4806.580000	490.113281	178.180267
10056.193085	4806.580000	488.857422	16.559061
10056.193085	4806.580000	487.601563	101.076843
10056.193085	4806.580000	486.344727	153.297913
10056.193085	4806.580000	485.088867	359.492401
10056.193085	4806.580000	483.832031	193.132324
10056.193085	4806.580000	482.575195	215.241730
10056.193085	4806.580000	481.317383	71.834358
10056.193085	4806.580000	480.059570	38.695568
10056.193085	4806.580000	478.801758	246.670700
10056.193085	4806.580000	477.543945	174.343353
10056.193085	4806.580000	476.285156	90.497467
10056.193085	4806.580000	475.027344	190.250854
10056.193085	4806.580000	473.767578	94.824577
10056.193085	4806.580000	472.508789	10.847668
10056.193085	4806.580000	471.249023	176.857742
10056.193085	4806.580000	469.989258	88.166656
10056.193085	4806.580000	468.729492	56.762554
10056.193085	4806.580000	467.469727	29.884052
10056.193085	4806.580000	466.208984	133.571228
10056.193085	4806.580000	464.948242	211.933853
10056.193085	4806.580000	463.686523	150.437576
10056.193085	4806.580000	462.425781	93.475822
10056.193085	4806.580000	461.164063	286.048431
10056.193085	4806.580000	459.901367	343.377472
10056.193085	4806.580000	458.639648	272.428833
10056.193085	4806.580000	457.376953	219.727280
10056.193085	4806.580000	456.114258	155.522797
10056.193085	4806.580000	454.851563	262.813324
10056.193085	4806.580000	453.587891	379.109131
10056.193085	4806.580000	452.324219	374.085022
10056.193085	4806.580000	451.060547	304.964874
10056.193085	4806.580000	449.796875	311.198639
10056.193085	4806.580000	448.532227	171.092377
10056.193085	4806.580000	447.267578	309.647705
10056.193085	4806.580000	446.002930	114.589226
10056.193085	4806.580000	444.737305	323.673889
10056.193085	4806.580000	443.471680	203.820251
10056.193085	4806.580000	442.206055	293.896362
10056.193085	4806.580000	440.940430	151.065582
10056.193085	4806.580000	439.673828	311.612091
10056.193085	4806.580000	438.407227	234.755295
10056.193085	4806.580000	437.140625	322.009491
10056.193085	4806.580000	435.873047	146.902512
10056.193085	4806.580000	434.605469	261.244202
10056.193085	4806.580000	433.337891	284.253174
10056.193085	4806.580000	432.070313	270.668976
10056.193085	4806.580000	430.801758	302.513916
10056.193085	4806.580000	429.533203	272.720001
10056.193085	4806.580000	428.264648	181.324356
10056.193085	4806.580000	426.996094	155.848999
10056.193085	4806.580000	425.726563	275.900940
10056.193085	4806.580000	424.457031	291.081146
10056.193085	4806.580000	423.186523	353.874725
10056.193085	4806.580000	421.916992	432.419464
10056.193085	4806.580000	420.646484	372.049194
10056.193085	4806.580000	419.375977	304.725891
10056.193085	4806.580000	418.104492	323.637848
10056.193085	4806.580000	416.833008	326.467255
10056.193085	4806.580000	415.561523	188.256256
10056.193085	4806.580000	414.290039	308.892639
10056.193085	4806.580000	413.017578	179.469162
10056.193085	4806.580000	411.746094	320.130615
10056.193085	4806.580000	410.472656	403.773254
10056.193085	4806.580000	409.200195	357.830353
10056.193085	4806.580000	407.926758	143.786057
10056.193085	4806.580000	406.653320	206.408691
10056.193085	4806.580000	405.379883	178.074081
10056.193085	4806.580000	404.105469	324.140686
10056.193085	4806.580000	402.831055	304.426788
10056.193085	4806.580000	401.556641	187.035309
10056.193085	4806.580000	400.282227	132.923172
10056.193085	4806.580000	399.006836	151.094696
10056.193085	4806.580000	397.731445	107.862877
10056.193085	4806.580000	396.456055	297.672485
10056.193085	4806.580000	395.179688	149.774475
10056.193085	4806.580000	393.903320	268.806183
10056.193085	4806.580000	392.626953	147.625076
10056.193085	4806.580000	391.350586	150.682220
10056.193085	4806.580000	390.073242	314.072906
10056.193085	4806.580000	388.795898	60.953255
10056.193085	4806.580000	387.518555	126.496040
10056.193085	4806.580000	386.240234	184.923920
10056.193085	4806.580000	384.961914	175.219284
10056.193085	4806.580000	383.683594	165.213669
10056.193085	4806.580000	382.405273	130.047516
10056.193085	4806.580000	381.125977	44.869160
10056.193085	4806.580000	379.846680	241.688095
10056.193085	4806.580000	378.567383	140.054428
10056.193085	4806.580000	377.287109	286.412109
10056.193085	4806.580000	376.006836	-9.985029
10056.193085	4806.580000	374.726563	45.375984
10056.193085	4806.580000	373.446289	64.251076
10056.193085	4806.580000	372.165039	84.979843
10056.193085	4806.580000	370.883789	-27.723597
10056.193085	4806.580000	369.602539	-111.467148
10056.193085	4806.580000	368.320313	95.156647
10056.193085	4806.580000	367.039063	-45.730709
10056.193085	4806.580000	365.755859	54.046776
10056.193085	4806.580000	364.473633	56.509464
10056.193085	4806.580000	363.190430	22.478827
10056.193085	4806.580000	361.907227	-48.014908
10056.193085	4806.580000	360.624023	-10.897995
10056.193085	4806.580000	359.340820	-8.029514
10056.193085	4806.580000	358.056641	-1.168518
10056.193085	4806.580000	356.772461	-1.557752
10056.193085	4806.580000	355.487305	22.262228
10056.193085	4806.580000	354.202148	-134.329987
10056.193085	4806.580000	352.916992	30.076328
10056.193085	4806.580000	351.631836	56.766678
10056.193085	4806.580000	350.346680	49.181095
10056.193085	4806.580000	349.060547	-116.251587
10056.193085	4806.580000	347.774414	34.494431
10056.193085	4806.580000	346.487305	141.888550
10056.193085	4806.580000	345.200195	66.773285
10056.193085	4806.580000	343.913086	35.955986
10056.193085	4806.580000	342.625977	24.709084
10056.193085	4806.580000	341.338867	-41.034145
10056.193085	4806.580000	340.050781	13.685104
10056.193085	4806.580000	338.762695	159.642365
10056.193085	4806.580000	337.473633	24.544807
10056.193085	4806.580000	336.184570	110.711311
10056.193085	4806.580000	334.895508	41.468685
10056.193085	4806.580000	333.606445	-1.604121
10056.193085	4806.580000	332.317383	15.061278
10056.193085	4806.580000	331.027344	-67.636497
10056.193085	4806.580000	329.736328	63.833851
10056.193085	4806.580000	328.446289	-27.172527
10056.193085	4806.580000	327.155273	37.670303
10056.193085	4806.580000	325.864258	3.170395
10056.193085	4806.580000	324.573242	-101.540939
10056.193085	4806.580000	323.281250	-12.534787
10056.193085	4806.580000	321.989258	-54.182957
10056.193085	4806.580000	320.697266	-145.931396
10056.193085	4806.580000	319.405273	-39.651192
10056.193085	4806.580000	318.112305	-117.677505
10056.193085	4806.580000	316.819336	-122.932686
10056.193085	4806.580000	315.526367	-64.419846
10056.193085	4806.580000	314.232422	-80.708046
10056.193085	4806.580000	312.938477	-4.269441
10056.193085	4806.580000	311.644531	-29.403276
10056.193085	4806.580000	310.349609	111.718124
10056.193085	4806.580000	309.054688	-51.820656
10056.193085	4806.580000	307.759766	71.343925
10056.193085	4806.580000	306.464844	101.828896
10056.193085	4806.580000	305.168945	139.974319
10056.193085	4806.580000	303.873047	134.513824
10056.193085	4806.580000	302.577148	254.851181
10056.193085	4806.580000	301.281250	371.626007
10056.193085	4806.580000	299.984375	397.875946
