#X		#Y		#Wave		#Intensity
9066.756915	4933.590000	1999.946289	-78.922165
9066.756915	4933.590000	1998.981445	-23.102457
9066.756915	4933.590000	1998.017578	113.825432
9066.756915	4933.590000	1997.052734	-81.344269
9066.756915	4933.590000	1996.088867	87.795784
9066.756915	4933.590000	1995.124023	108.261116
9066.756915	4933.590000	1994.159180	103.972054
9066.756915	4933.590000	1993.193359	45.226105
9066.756915	4933.590000	1992.228516	132.596222
9066.756915	4933.590000	1991.262695	202.625183
9066.756915	4933.590000	1990.296875	101.880241
9066.756915	4933.590000	1989.331055	18.512991
9066.756915	4933.590000	1988.365234	-49.960205
9066.756915	4933.590000	1987.398438	54.756577
9066.756915	4933.590000	1986.432617	-60.648216
9066.756915	4933.590000	1985.465820	46.541561
9066.756915	4933.590000	1984.499023	146.293655
9066.756915	4933.590000	1983.532227	40.876884
9066.756915	4933.590000	1982.565430	19.538809
9066.756915	4933.590000	1981.597656	146.471481
9066.756915	4933.590000	1980.629883	-45.295170
9066.756915	4933.590000	1979.662109	59.408562
9066.756915	4933.590000	1978.694336	70.253586
9066.756915	4933.590000	1977.726563	4.574635
9066.756915	4933.590000	1976.758789	62.360256
9066.756915	4933.590000	1975.790039	1.675170
9066.756915	4933.590000	1974.821289	232.200821
9066.756915	4933.590000	1973.852539	161.670654
9066.756915	4933.590000	1972.883789	41.849548
9066.756915	4933.590000	1971.915039	50.330090
9066.756915	4933.590000	1970.945313	108.136543
9066.756915	4933.590000	1969.975586	52.534519
9066.756915	4933.590000	1969.005859	6.827510
9066.756915	4933.590000	1968.036133	-31.454914
9066.756915	4933.590000	1967.066406	53.486107
9066.756915	4933.590000	1966.096680	-66.055206
9066.756915	4933.590000	1965.125977	53.370087
9066.756915	4933.590000	1964.155273	0.388824
9066.756915	4933.590000	1963.184570	-30.400566
9066.756915	4933.590000	1962.213867	-71.011238
9066.756915	4933.590000	1961.242188	9.002153
9066.756915	4933.590000	1960.271484	2.875276
9066.756915	4933.590000	1959.299805	-17.998293
9066.756915	4933.590000	1958.328125	66.919098
9066.756915	4933.590000	1957.356445	55.904106
9066.756915	4933.590000	1956.384766	-78.037621
9066.756915	4933.590000	1955.412109	-39.829319
9066.756915	4933.590000	1954.439453	-36.034698
9066.756915	4933.590000	1953.467773	58.697994
9066.756915	4933.590000	1952.495117	-23.499926
9066.756915	4933.590000	1951.521484	-39.328579
9066.756915	4933.590000	1950.548828	-87.069138
9066.756915	4933.590000	1949.575195	-66.023079
9066.756915	4933.590000	1948.601563	28.682327
9066.756915	4933.590000	1947.627930	-16.557602
9066.756915	4933.590000	1946.654297	21.675875
9066.756915	4933.590000	1945.680664	153.150879
9066.756915	4933.590000	1944.706055	46.609077
9066.756915	4933.590000	1943.732422	13.704720
9066.756915	4933.590000	1942.757813	88.730705
9066.756915	4933.590000	1941.783203	46.041634
9066.756915	4933.590000	1940.807617	-28.492590
9066.756915	4933.590000	1939.833008	36.722607
9066.756915	4933.590000	1938.857422	1.446040
9066.756915	4933.590000	1937.881836	83.800087
9066.756915	4933.590000	1936.906250	-127.834831
9066.756915	4933.590000	1935.930664	-25.876385
9066.756915	4933.590000	1934.955078	39.320248
9066.756915	4933.590000	1933.978516	-22.814177
9066.756915	4933.590000	1933.001953	76.643707
9066.756915	4933.590000	1932.025391	48.805038
9066.756915	4933.590000	1931.048828	62.582951
9066.756915	4933.590000	1930.072266	-11.711960
9066.756915	4933.590000	1929.094727	80.360626
9066.756915	4933.590000	1928.118164	96.591873
9066.756915	4933.590000	1927.140625	-38.776794
9066.756915	4933.590000	1926.163086	75.271935
9066.756915	4933.590000	1925.184570	-8.700261
9066.756915	4933.590000	1924.207031	41.773994
9066.756915	4933.590000	1923.228516	4.274811
9066.756915	4933.590000	1922.250000	-77.176384
9066.756915	4933.590000	1921.271484	-7.161075
9066.756915	4933.590000	1920.292969	-51.939220
9066.756915	4933.590000	1919.314453	-6.359402
9066.756915	4933.590000	1918.334961	63.618870
9066.756915	4933.590000	1917.355469	23.748686
9066.756915	4933.590000	1916.375977	40.021557
9066.756915	4933.590000	1915.396484	46.533970
9066.756915	4933.590000	1914.416992	-17.689844
9066.756915	4933.590000	1913.436523	154.676514
9066.756915	4933.590000	1912.457031	144.107849
9066.756915	4933.590000	1911.476563	-39.542648
9066.756915	4933.590000	1910.496094	-11.065370
9066.756915	4933.590000	1909.515625	10.093693
9066.756915	4933.590000	1908.534180	-88.140900
9066.756915	4933.590000	1907.552734	62.141617
9066.756915	4933.590000	1906.572266	10.216009
9066.756915	4933.590000	1905.590820	82.504837
9066.756915	4933.590000	1904.608398	162.073120
9066.756915	4933.590000	1903.626953	32.269611
9066.756915	4933.590000	1902.644531	33.940746
9066.756915	4933.590000	1901.663086	33.179920
9066.756915	4933.590000	1900.680664	95.675583
9066.756915	4933.590000	1899.698242	-9.687388
9066.756915	4933.590000	1898.714844	23.612263
9066.756915	4933.590000	1897.732422	-1.455605
9066.756915	4933.590000	1896.749023	-26.513311
9066.756915	4933.590000	1895.765625	152.609650
9066.756915	4933.590000	1894.782227	105.662598
9066.756915	4933.590000	1893.798828	-67.610504
9066.756915	4933.590000	1892.814453	70.123634
9066.756915	4933.590000	1891.831055	-30.214220
9066.756915	4933.590000	1890.846680	37.040001
9066.756915	4933.590000	1889.862305	50.855389
9066.756915	4933.590000	1888.877930	115.640694
9066.756915	4933.590000	1887.892578	-76.856987
9066.756915	4933.590000	1886.908203	17.044609
9066.756915	4933.590000	1885.922852	91.501488
9066.756915	4933.590000	1884.937500	-6.288258
9066.756915	4933.590000	1883.952148	136.046524
9066.756915	4933.590000	1882.965820	-136.295883
9066.756915	4933.590000	1881.980469	-57.023598
9066.756915	4933.590000	1880.994141	7.674404
9066.756915	4933.590000	1880.007813	-17.317253
9066.756915	4933.590000	1879.021484	57.036167
9066.756915	4933.590000	1878.035156	53.841423
9066.756915	4933.590000	1877.047852	-65.608986
9066.756915	4933.590000	1876.061523	-32.462360
9066.756915	4933.590000	1875.074219	-81.646942
9066.756915	4933.590000	1874.086914	128.188446
9066.756915	4933.590000	1873.098633	-88.005241
9066.756915	4933.590000	1872.111328	49.154739
9066.756915	4933.590000	1871.123047	-9.699333
9066.756915	4933.590000	1870.135742	-49.184689
9066.756915	4933.590000	1869.147461	68.532349
9066.756915	4933.590000	1868.158203	-65.259102
9066.756915	4933.590000	1867.169922	-29.784389
9066.756915	4933.590000	1866.180664	155.524994
9066.756915	4933.590000	1865.192383	24.195427
9066.756915	4933.590000	1864.203125	-34.607918
9066.756915	4933.590000	1863.213867	-33.003769
9066.756915	4933.590000	1862.223633	-19.329803
9066.756915	4933.590000	1861.234375	42.628132
9066.756915	4933.590000	1860.244141	-8.913302
9066.756915	4933.590000	1859.253906	38.524837
9066.756915	4933.590000	1858.263672	35.258797
9066.756915	4933.590000	1857.273438	3.033281
9066.756915	4933.590000	1856.282227	110.734955
9066.756915	4933.590000	1855.291992	-10.749104
9066.756915	4933.590000	1854.300781	55.905609
9066.756915	4933.590000	1853.309570	76.717865
9066.756915	4933.590000	1852.317383	37.249123
9066.756915	4933.590000	1851.326172	113.477318
9066.756915	4933.590000	1850.333984	33.036976
9066.756915	4933.590000	1849.342773	61.036930
9066.756915	4933.590000	1848.350586	-2.516748
9066.756915	4933.590000	1847.357422	261.483917
9066.756915	4933.590000	1846.365234	-26.035528
9066.756915	4933.590000	1845.372070	-75.115944
9066.756915	4933.590000	1844.379883	87.630653
9066.756915	4933.590000	1843.386719	-60.138134
9066.756915	4933.590000	1842.393555	8.689335
9066.756915	4933.590000	1841.399414	192.953247
9066.756915	4933.590000	1840.406250	47.627075
9066.756915	4933.590000	1839.412109	53.845192
9066.756915	4933.590000	1838.417969	-16.885469
9066.756915	4933.590000	1837.423828	-75.579704
9066.756915	4933.590000	1836.429688	24.362452
9066.756915	4933.590000	1835.434570	167.509888
9066.756915	4933.590000	1834.440430	130.407486
9066.756915	4933.590000	1833.445313	59.680714
9066.756915	4933.590000	1832.450195	37.001862
9066.756915	4933.590000	1831.454102	83.953949
9066.756915	4933.590000	1830.458984	15.645899
9066.756915	4933.590000	1829.462891	-26.244879
9066.756915	4933.590000	1828.466797	-63.330975
9066.756915	4933.590000	1827.470703	-16.437719
9066.756915	4933.590000	1826.474609	-12.752741
9066.756915	4933.590000	1825.478516	0.513626
9066.756915	4933.590000	1824.481445	-36.593746
9066.756915	4933.590000	1823.484375	118.102402
9066.756915	4933.590000	1822.487305	68.978661
9066.756915	4933.590000	1821.490234	36.638172
9066.756915	4933.590000	1820.493164	9.090580
9066.756915	4933.590000	1819.495117	113.304535
9066.756915	4933.590000	1818.498047	25.847979
9066.756915	4933.590000	1817.500000	115.626587
9066.756915	4933.590000	1816.500977	-65.202332
9066.756915	4933.590000	1815.502930	70.019096
9066.756915	4933.590000	1814.504883	176.455536
9066.756915	4933.590000	1813.505859	215.835098
9066.756915	4933.590000	1812.506836	87.709465
9066.756915	4933.590000	1811.507813	26.597807
9066.756915	4933.590000	1810.508789	44.420174
9066.756915	4933.590000	1809.508789	-62.119286
9066.756915	4933.590000	1808.508789	-104.082130
9066.756915	4933.590000	1807.508789	-40.870071
9066.756915	4933.590000	1806.508789	146.575607
9066.756915	4933.590000	1805.508789	28.097120
9066.756915	4933.590000	1804.508789	12.373298
9066.756915	4933.590000	1803.507813	58.741280
9066.756915	4933.590000	1802.506836	-21.487116
9066.756915	4933.590000	1801.505859	46.330101
9066.756915	4933.590000	1800.504883	63.978001
9066.756915	4933.590000	1799.502930	74.444542
9066.756915	4933.590000	1798.501953	139.776459
9066.756915	4933.590000	1797.500000	11.821831
9066.756915	4933.590000	1796.498047	65.184799
9066.756915	4933.590000	1795.496094	-5.499705
9066.756915	4933.590000	1794.493164	121.732773
9066.756915	4933.590000	1793.491211	136.857346
9066.756915	4933.590000	1792.488281	-10.117885
9066.756915	4933.590000	1791.485352	45.507248
9066.756915	4933.590000	1790.482422	29.618160
9066.756915	4933.590000	1789.478516	23.247866
9066.756915	4933.590000	1788.475586	121.660187
9066.756915	4933.590000	1787.471680	27.138245
9066.756915	4933.590000	1786.467773	56.437946
9066.756915	4933.590000	1785.463867	83.330956
9066.756915	4933.590000	1784.459961	19.762272
9066.756915	4933.590000	1783.455078	37.102230
9066.756915	4933.590000	1782.450195	30.629993
9066.756915	4933.590000	1781.445313	-56.726028
9066.756915	4933.590000	1780.440430	46.182541
9066.756915	4933.590000	1779.435547	63.441093
9066.756915	4933.590000	1778.429688	75.921852
9066.756915	4933.590000	1777.424805	83.629456
9066.756915	4933.590000	1776.418945	105.574509
9066.756915	4933.590000	1775.413086	8.703532
9066.756915	4933.590000	1774.406250	-52.517067
9066.756915	4933.590000	1773.400391	45.390621
9066.756915	4933.590000	1772.393555	17.396317
9066.756915	4933.590000	1771.386719	-88.946457
9066.756915	4933.590000	1770.379883	-17.247366
9066.756915	4933.590000	1769.373047	49.662014
9066.756915	4933.590000	1768.365234	-32.950241
9066.756915	4933.590000	1767.358398	-25.402155
9066.756915	4933.590000	1766.350586	-17.874580
9066.756915	4933.590000	1765.342773	120.056229
9066.756915	4933.590000	1764.334961	44.539406
9066.756915	4933.590000	1763.326172	123.110550
9066.756915	4933.590000	1762.318359	140.017227
9066.756915	4933.590000	1761.309570	2.880429
9066.756915	4933.590000	1760.300781	-37.089378
9066.756915	4933.590000	1759.291016	36.631870
9066.756915	4933.590000	1758.282227	8.477896
9066.756915	4933.590000	1757.272461	39.509537
9066.756915	4933.590000	1756.262695	84.715874
9066.756915	4933.590000	1755.252930	73.084450
9066.756915	4933.590000	1754.243164	78.004890
9066.756915	4933.590000	1753.233398	40.319973
9066.756915	4933.590000	1752.222656	26.285595
9066.756915	4933.590000	1751.211914	54.809628
9066.756915	4933.590000	1750.201172	-20.734880
9066.756915	4933.590000	1749.190430	-34.801060
9066.756915	4933.590000	1748.179688	92.940926
9066.756915	4933.590000	1747.167969	55.190521
9066.756915	4933.590000	1746.156250	-48.719761
9066.756915	4933.590000	1745.144531	-29.767450
9066.756915	4933.590000	1744.132813	-46.267475
9066.756915	4933.590000	1743.121094	-13.188581
9066.756915	4933.590000	1742.108398	22.219875
9066.756915	4933.590000	1741.095703	-48.625511
9066.756915	4933.590000	1740.083008	-51.019161
9066.756915	4933.590000	1739.070313	-10.955924
9066.756915	4933.590000	1738.057617	43.229748
9066.756915	4933.590000	1737.043945	-67.733795
9066.756915	4933.590000	1736.030273	2.913882
9066.756915	4933.590000	1735.016602	141.893997
9066.756915	4933.590000	1734.002930	-46.868858
9066.756915	4933.590000	1732.989258	-25.811668
9066.756915	4933.590000	1731.974609	35.278229
9066.756915	4933.590000	1730.959961	-59.168720
9066.756915	4933.590000	1729.945313	67.825790
9066.756915	4933.590000	1728.930664	32.252518
9066.756915	4933.590000	1727.916016	64.960625
9066.756915	4933.590000	1726.900391	149.430542
9066.756915	4933.590000	1725.885742	-22.706676
9066.756915	4933.590000	1724.870117	-27.711912
9066.756915	4933.590000	1723.853516	9.617469
9066.756915	4933.590000	1722.837891	-105.988724
9066.756915	4933.590000	1721.822266	-35.762985
9066.756915	4933.590000	1720.805664	1.496212
9066.756915	4933.590000	1719.789063	-12.998515
9066.756915	4933.590000	1718.772461	-107.425087
9066.756915	4933.590000	1717.754883	-185.382797
9066.756915	4933.590000	1716.738281	119.676720
9066.756915	4933.590000	1715.720703	48.720089
9066.756915	4933.590000	1714.703125	1.262500
9066.756915	4933.590000	1713.685547	-27.406670
9066.756915	4933.590000	1712.667969	35.487305
9066.756915	4933.590000	1711.649414	-19.033846
9066.756915	4933.590000	1710.630859	22.676723
9066.756915	4933.590000	1709.612305	-97.556938
9066.756915	4933.590000	1708.593750	138.847534
9066.756915	4933.590000	1707.575195	-25.961855
9066.756915	4933.590000	1706.555664	121.186485
9066.756915	4933.590000	1705.536133	31.442154
9066.756915	4933.590000	1704.516602	138.638260
9066.756915	4933.590000	1703.497070	4.360075
9066.756915	4933.590000	1702.477539	48.217083
9066.756915	4933.590000	1701.457031	26.436443
9066.756915	4933.590000	1700.437500	42.131218
9066.756915	4933.590000	1699.416992	-0.748989
9066.756915	4933.590000	1698.395508	45.350803
9066.756915	4933.590000	1697.375000	18.843796
9066.756915	4933.590000	1696.354492	60.212753
9066.756915	4933.590000	1695.333008	-66.950233
9066.756915	4933.590000	1694.311523	11.823963
9066.756915	4933.590000	1693.290039	-105.953079
9066.756915	4933.590000	1692.267578	-41.266945
9066.756915	4933.590000	1691.246094	-11.694987
9066.756915	4933.590000	1690.223633	-31.249252
9066.756915	4933.590000	1689.201172	68.405182
9066.756915	4933.590000	1688.178711	139.961533
9066.756915	4933.590000	1687.155273	82.957138
9066.756915	4933.590000	1686.132813	25.963194
9066.756915	4933.590000	1685.109375	-56.718735
9066.756915	4933.590000	1684.085938	77.801514
9066.756915	4933.590000	1683.062500	114.192039
9066.756915	4933.590000	1682.039063	113.204430
9066.756915	4933.590000	1681.014648	58.519493
9066.756915	4933.590000	1679.990234	-17.159315
9066.756915	4933.590000	1678.965820	61.160076
9066.756915	4933.590000	1677.941406	39.133804
9066.756915	4933.590000	1676.916992	-78.516068
9066.756915	4933.590000	1675.891602	27.709084
9066.756915	4933.590000	1674.866211	42.960781
9066.756915	4933.590000	1673.840820	44.209381
9066.756915	4933.590000	1672.815430	85.060974
9066.756915	4933.590000	1671.790039	74.626060
9066.756915	4933.590000	1670.763672	101.452049
9066.756915	4933.590000	1669.737305	-13.815097
9066.756915	4933.590000	1668.710938	-156.992615
9066.756915	4933.590000	1667.684570	-13.767349
9066.756915	4933.590000	1666.658203	50.249989
9066.756915	4933.590000	1665.630859	70.010826
9066.756915	4933.590000	1664.603516	-47.526798
9066.756915	4933.590000	1663.576172	51.317692
9066.756915	4933.590000	1662.548828	140.809830
9066.756915	4933.590000	1661.520508	113.982071
9066.756915	4933.590000	1660.493164	112.730904
9066.756915	4933.590000	1659.464844	62.652321
9066.756915	4933.590000	1658.436523	-6.010664
9066.756915	4933.590000	1657.408203	67.084396
9066.756915	4933.590000	1656.378906	-34.100647
9066.756915	4933.590000	1655.350586	-58.603760
9066.756915	4933.590000	1654.321289	86.416565
9066.756915	4933.590000	1653.291992	31.693619
9066.756915	4933.590000	1652.261719	102.334259
9066.756915	4933.590000	1651.232422	89.387001
9066.756915	4933.590000	1650.202148	162.290482
9066.756915	4933.590000	1649.171875	79.714531
9066.756915	4933.590000	1648.141602	50.511890
9066.756915	4933.590000	1647.111328	127.992287
9066.756915	4933.590000	1646.080078	115.002289
9066.756915	4933.590000	1645.049805	183.150085
9066.756915	4933.590000	1644.018555	114.510925
9066.756915	4933.590000	1642.987305	222.008148
9066.756915	4933.590000	1641.955078	81.544922
9066.756915	4933.590000	1640.923828	87.067879
9066.756915	4933.590000	1639.891602	145.846069
9066.756915	4933.590000	1638.859375	100.394180
9066.756915	4933.590000	1637.827148	133.665985
9066.756915	4933.590000	1636.794922	206.267166
9066.756915	4933.590000	1635.761719	146.921173
9066.756915	4933.590000	1634.729492	150.065414
9066.756915	4933.590000	1633.696289	79.173500
9066.756915	4933.590000	1632.662109	177.138184
9066.756915	4933.590000	1631.628906	113.193291
9066.756915	4933.590000	1630.594727	130.182999
9066.756915	4933.590000	1629.561523	91.686882
9066.756915	4933.590000	1628.527344	208.038330
9066.756915	4933.590000	1627.493164	264.263336
9066.756915	4933.590000	1626.458008	140.265991
9066.756915	4933.590000	1625.423828	184.923737
9066.756915	4933.590000	1624.388672	204.154434
9066.756915	4933.590000	1623.353516	170.270187
9066.756915	4933.590000	1622.318359	249.505112
9066.756915	4933.590000	1621.282227	229.461517
9066.756915	4933.590000	1620.247070	308.645325
9066.756915	4933.590000	1619.210938	173.239471
9066.756915	4933.590000	1618.174805	206.261688
9066.756915	4933.590000	1617.137695	347.653168
9066.756915	4933.590000	1616.101563	223.836319
9066.756915	4933.590000	1615.064453	113.893517
9066.756915	4933.590000	1614.027344	121.534378
9066.756915	4933.590000	1612.990234	147.603836
9066.756915	4933.590000	1611.953125	348.755920
9066.756915	4933.590000	1610.916016	234.257385
9066.756915	4933.590000	1609.877930	287.916168
9066.756915	4933.590000	1608.839844	224.123535
9066.756915	4933.590000	1607.801758	178.770279
9066.756915	4933.590000	1606.763672	375.105652
9066.756915	4933.590000	1605.724609	398.771057
9066.756915	4933.590000	1604.685547	394.817383
9066.756915	4933.590000	1603.646484	374.762939
9066.756915	4933.590000	1602.607422	492.705597
9066.756915	4933.590000	1601.568359	385.261749
9066.756915	4933.590000	1600.528320	512.349182
9066.756915	4933.590000	1599.489258	393.451355
9066.756915	4933.590000	1598.449219	378.009064
9066.756915	4933.590000	1597.408203	406.224670
9066.756915	4933.590000	1596.368164	379.301819
9066.756915	4933.590000	1595.327148	366.167206
9066.756915	4933.590000	1594.287109	589.556213
9066.756915	4933.590000	1593.246094	417.977997
9066.756915	4933.590000	1592.204102	391.072937
9066.756915	4933.590000	1591.163086	389.427460
9066.756915	4933.590000	1590.121094	477.265167
9066.756915	4933.590000	1589.079102	496.250671
9066.756915	4933.590000	1588.037109	350.095184
9066.756915	4933.590000	1586.995117	380.568878
9066.756915	4933.590000	1585.953125	491.276520
9066.756915	4933.590000	1584.910156	471.285309
9066.756915	4933.590000	1583.867188	313.798950
9066.756915	4933.590000	1582.824219	433.627747
9066.756915	4933.590000	1581.781250	335.780182
9066.756915	4933.590000	1580.737305	318.137512
9066.756915	4933.590000	1579.693359	419.584076
9066.756915	4933.590000	1578.649414	363.018555
9066.756915	4933.590000	1577.605469	416.355164
9066.756915	4933.590000	1576.561523	387.285583
9066.756915	4933.590000	1575.516602	353.652954
9066.756915	4933.590000	1574.472656	441.291626
9066.756915	4933.590000	1573.427734	423.683624
9066.756915	4933.590000	1572.381836	346.627991
9066.756915	4933.590000	1571.336914	335.916077
9066.756915	4933.590000	1570.291016	444.080688
9066.756915	4933.590000	1569.246094	355.660248
9066.756915	4933.590000	1568.200195	461.506958
9066.756915	4933.590000	1567.153320	368.556549
9066.756915	4933.590000	1566.107422	492.645752
9066.756915	4933.590000	1565.060547	422.576965
9066.756915	4933.590000	1564.013672	391.358521
9066.756915	4933.590000	1562.966797	328.201050
9066.756915	4933.590000	1561.919922	379.193604
9066.756915	4933.590000	1560.872070	348.023254
9066.756915	4933.590000	1559.825195	271.247253
9066.756915	4933.590000	1558.777344	329.086578
9066.756915	4933.590000	1557.729492	293.408875
9066.756915	4933.590000	1556.680664	184.788376
9066.756915	4933.590000	1555.632813	301.909241
9066.756915	4933.590000	1554.583984	232.095078
9066.756915	4933.590000	1553.535156	144.087967
9066.756915	4933.590000	1552.486328	167.763107
9066.756915	4933.590000	1551.436523	200.547852
9066.756915	4933.590000	1550.387695	110.351822
9066.756915	4933.590000	1549.337891	270.666718
9066.756915	4933.590000	1548.288086	203.276505
9066.756915	4933.590000	1547.238281	336.218567
9066.756915	4933.590000	1546.187500	257.483704
9066.756915	4933.590000	1545.136719	315.301727
9066.756915	4933.590000	1544.086914	243.451721
9066.756915	4933.590000	1543.035156	221.671021
9066.756915	4933.590000	1541.984375	218.104019
9066.756915	4933.590000	1540.933594	148.622925
9066.756915	4933.590000	1539.881836	113.272896
9066.756915	4933.590000	1538.830078	282.474060
9066.756915	4933.590000	1537.778320	249.409225
9066.756915	4933.590000	1536.725586	327.676300
9066.756915	4933.590000	1535.673828	260.575195
9066.756915	4933.590000	1534.621094	257.091125
9066.756915	4933.590000	1533.568359	317.188995
9066.756915	4933.590000	1532.515625	229.740173
9066.756915	4933.590000	1531.461914	174.108200
9066.756915	4933.590000	1530.409180	408.935150
9066.756915	4933.590000	1529.355469	260.312317
9066.756915	4933.590000	1528.301758	309.079590
9066.756915	4933.590000	1527.247070	235.392105
9066.756915	4933.590000	1526.193359	170.819550
9066.756915	4933.590000	1525.138672	119.885437
9066.756915	4933.590000	1524.083984	189.096603
9066.756915	4933.590000	1523.029297	67.971802
9066.756915	4933.590000	1521.974609	64.707489
9066.756915	4933.590000	1520.918945	113.550217
9066.756915	4933.590000	1519.863281	-41.408264
9066.756915	4933.590000	1518.807617	116.140320
9066.756915	4933.590000	1517.751953	78.979836
9066.756915	4933.590000	1516.696289	91.638306
9066.756915	4933.590000	1515.639648	20.589893
9066.756915	4933.590000	1514.583008	8.403294
9066.756915	4933.590000	1513.526367	134.205154
9066.756915	4933.590000	1512.469727	-49.821751
9066.756915	4933.590000	1511.412109	60.149368
9066.756915	4933.590000	1510.355469	16.390291
9066.756915	4933.590000	1509.297852	2.044160
9066.756915	4933.590000	1508.240234	-16.797005
9066.756915	4933.590000	1507.181641	-35.613979
9066.756915	4933.590000	1506.124023	-11.489128
9066.756915	4933.590000	1505.065430	87.162231
9066.756915	4933.590000	1504.006836	14.207438
9066.756915	4933.590000	1502.948242	27.077314
9066.756915	4933.590000	1501.888672	-32.258636
9066.756915	4933.590000	1500.830078	-35.140293
9066.756915	4933.590000	1499.770508	92.840454
9066.756915	4933.590000	1498.710938	8.776416
9066.756915	4933.590000	1497.650391	-104.551300
9066.756915	4933.590000	1496.590820	-12.645823
9066.756915	4933.590000	1495.530273	-89.817162
9066.756915	4933.590000	1494.469727	62.937584
9066.756915	4933.590000	1493.409180	-70.507423
9066.756915	4933.590000	1492.348633	-12.391778
9066.756915	4933.590000	1491.287109	-3.831244
9066.756915	4933.590000	1490.225586	-42.542740
9066.756915	4933.590000	1489.164063	6.589112
9066.756915	4933.590000	1488.102539	87.237297
9066.756915	4933.590000	1487.041016	-7.667862
9066.756915	4933.590000	1485.978516	-116.014984
9066.756915	4933.590000	1484.916016	-10.581652
9066.756915	4933.590000	1483.853516	-13.126514
9066.756915	4933.590000	1482.791016	-132.580109
9066.756915	4933.590000	1481.727539	35.812103
9066.756915	4933.590000	1480.664063	42.314926
9066.756915	4933.590000	1479.600586	-9.581280
9066.756915	4933.590000	1478.537109	50.899002
9066.756915	4933.590000	1477.473633	88.912148
9066.756915	4933.590000	1476.409180	-1.056258
9066.756915	4933.590000	1475.344727	-23.602848
9066.756915	4933.590000	1474.280273	99.735390
9066.756915	4933.590000	1473.215820	52.497620
9066.756915	4933.590000	1472.151367	83.890511
9066.756915	4933.590000	1471.085938	61.513527
9066.756915	4933.590000	1470.020508	7.622931
9066.756915	4933.590000	1468.955078	32.352139
9066.756915	4933.590000	1467.888672	50.221573
9066.756915	4933.590000	1466.823242	81.743942
9066.756915	4933.590000	1465.756836	148.824265
9066.756915	4933.590000	1464.690430	34.902790
9066.756915	4933.590000	1463.624023	97.634384
9066.756915	4933.590000	1462.556641	89.008331
9066.756915	4933.590000	1461.490234	26.396471
9066.756915	4933.590000	1460.422852	-55.985394
9066.756915	4933.590000	1459.355469	93.986923
9066.756915	4933.590000	1458.287109	36.268604
9066.756915	4933.590000	1457.219727	65.696625
9066.756915	4933.590000	1456.151367	184.129059
9066.756915	4933.590000	1455.083008	77.564499
9066.756915	4933.590000	1454.014648	82.572853
9066.756915	4933.590000	1452.945313	140.415558
9066.756915	4933.590000	1451.876953	199.252609
9066.756915	4933.590000	1450.807617	135.162003
9066.756915	4933.590000	1449.738281	86.594368
9066.756915	4933.590000	1448.668945	124.728485
9066.756915	4933.590000	1447.598633	42.817612
9066.756915	4933.590000	1446.528320	45.189236
9066.756915	4933.590000	1445.458008	-33.450031
9066.756915	4933.590000	1444.387695	-75.439003
9066.756915	4933.590000	1443.317383	64.638405
9066.756915	4933.590000	1442.246094	-78.374588
9066.756915	4933.590000	1441.174805	143.491455
9066.756915	4933.590000	1440.103516	23.069607
9066.756915	4933.590000	1439.032227	25.301313
9066.756915	4933.590000	1437.960938	2.749127
9066.756915	4933.590000	1436.888672	-64.903763
9066.756915	4933.590000	1435.816406	64.255295
9066.756915	4933.590000	1434.744141	27.573032
9066.756915	4933.590000	1433.670898	111.274696
9066.756915	4933.590000	1432.598633	35.688740
9066.756915	4933.590000	1431.525391	113.702652
9066.756915	4933.590000	1430.452148	148.659134
9066.756915	4933.590000	1429.378906	15.087525
9066.756915	4933.590000	1428.304688	-87.295616
9066.756915	4933.590000	1427.231445	-9.481914
9066.756915	4933.590000	1426.157227	151.889511
9066.756915	4933.590000	1425.083008	185.592850
9066.756915	4933.590000	1424.007813	91.998108
9066.756915	4933.590000	1422.933594	14.735983
9066.756915	4933.590000	1421.858398	111.187088
9066.756915	4933.590000	1420.783203	-116.657196
9066.756915	4933.590000	1419.708008	88.869141
9066.756915	4933.590000	1418.631836	191.032227
9066.756915	4933.590000	1417.555664	220.097733
9066.756915	4933.590000	1416.479492	29.555449
9066.756915	4933.590000	1415.403320	32.347740
9066.756915	4933.590000	1414.327148	184.249023
9066.756915	4933.590000	1413.250000	110.542130
9066.756915	4933.590000	1412.173828	323.320129
9066.756915	4933.590000	1411.096680	229.636459
9066.756915	4933.590000	1410.018555	119.877449
9066.756915	4933.590000	1408.941406	104.433350
9066.756915	4933.590000	1407.863281	200.315292
9066.756915	4933.590000	1406.785156	254.227676
9066.756915	4933.590000	1405.707031	86.509354
9066.756915	4933.590000	1404.628906	124.867325
9066.756915	4933.590000	1403.549805	105.584633
9066.756915	4933.590000	1402.470703	96.608231
9066.756915	4933.590000	1401.391602	70.105568
9066.756915	4933.590000	1400.312500	189.928192
9066.756915	4933.590000	1399.233398	330.229401
9066.756915	4933.590000	1398.153320	82.210281
9066.756915	4933.590000	1397.073242	228.028122
9066.756915	4933.590000	1395.993164	133.848419
9066.756915	4933.590000	1394.913086	327.791718
9066.756915	4933.590000	1393.832031	245.663269
9066.756915	4933.590000	1392.750977	250.094818
9066.756915	4933.590000	1391.669922	248.588272
9066.756915	4933.590000	1390.588867	310.437042
9066.756915	4933.590000	1389.506836	261.462036
9066.756915	4933.590000	1388.425781	344.193695
9066.756915	4933.590000	1387.343750	387.751434
9066.756915	4933.590000	1386.261719	317.196564
9066.756915	4933.590000	1385.178711	388.608398
9066.756915	4933.590000	1384.096680	416.012207
9066.756915	4933.590000	1383.013672	396.437378
9066.756915	4933.590000	1381.930664	360.107147
9066.756915	4933.590000	1380.846680	363.924194
9066.756915	4933.590000	1379.763672	497.620148
9066.756915	4933.590000	1378.679688	435.344604
9066.756915	4933.590000	1377.595703	308.030273
9066.756915	4933.590000	1376.511719	312.616486
9066.756915	4933.590000	1375.427734	307.196960
9066.756915	4933.590000	1374.342773	421.807251
9066.756915	4933.590000	1373.257813	123.253494
9066.756915	4933.590000	1372.172852	246.426682
9066.756915	4933.590000	1371.087891	313.398987
9066.756915	4933.590000	1370.001953	193.475677
9066.756915	4933.590000	1368.916992	188.455704
9066.756915	4933.590000	1367.831055	300.959381
9066.756915	4933.590000	1366.744141	280.257690
9066.756915	4933.590000	1365.658203	172.154373
9066.756915	4933.590000	1364.571289	211.204422
9066.756915	4933.590000	1363.484375	115.106270
9066.756915	4933.590000	1362.397461	162.336868
9066.756915	4933.590000	1361.310547	306.723755
9066.756915	4933.590000	1360.222656	194.243240
9066.756915	4933.590000	1359.135742	182.562515
9066.756915	4933.590000	1358.047852	165.536194
9066.756915	4933.590000	1356.958984	137.075867
9066.756915	4933.590000	1355.871094	146.165939
9066.756915	4933.590000	1354.782227	120.405807
9066.756915	4933.590000	1353.693359	116.193359
9066.756915	4933.590000	1352.604492	33.820957
9066.756915	4933.590000	1351.515625	9.483305
9066.756915	4933.590000	1350.425781	142.874695
9066.756915	4933.590000	1349.335938	180.753265
9066.756915	4933.590000	1348.246094	359.859619
9066.756915	4933.590000	1347.156250	153.684845
9066.756915	4933.590000	1346.066406	278.819611
9066.756915	4933.590000	1344.975586	390.945129
9066.756915	4933.590000	1343.884766	299.036743
9066.756915	4933.590000	1342.793945	358.188995
9066.756915	4933.590000	1341.702148	234.682281
9066.756915	4933.590000	1340.611328	257.334351
9066.756915	4933.590000	1339.519531	197.899521
9066.756915	4933.590000	1338.427734	292.343658
9066.756915	4933.590000	1337.334961	173.989746
9066.756915	4933.590000	1336.243164	279.422394
9066.756915	4933.590000	1335.150391	141.168060
9066.756915	4933.590000	1334.057617	243.544128
9066.756915	4933.590000	1332.964844	164.796021
9066.756915	4933.590000	1331.871094	199.246811
9066.756915	4933.590000	1330.778320	51.536083
9066.756915	4933.590000	1329.684570	166.868698
9066.756915	4933.590000	1328.590820	197.945724
9066.756915	4933.590000	1327.496094	167.926682
9066.756915	4933.590000	1326.402344	162.687347
9066.756915	4933.590000	1325.307617	64.021599
9066.756915	4933.590000	1324.212891	161.465836
9066.756915	4933.590000	1323.117188	157.870132
9066.756915	4933.590000	1322.022461	116.384476
9066.756915	4933.590000	1320.926758	112.289719
9066.756915	4933.590000	1319.831055	119.814087
9066.756915	4933.590000	1318.735352	103.472054
9066.756915	4933.590000	1317.638672	79.521469
9066.756915	4933.590000	1316.542969	36.512539
9066.756915	4933.590000	1315.446289	86.842491
9066.756915	4933.590000	1314.349609	11.528522
9066.756915	4933.590000	1313.251953	48.383232
9066.756915	4933.590000	1312.155273	5.069948
9066.756915	4933.590000	1311.057617	92.463097
9066.756915	4933.590000	1309.959961	41.885948
9066.756915	4933.590000	1308.862305	147.619064
9066.756915	4933.590000	1307.763672	26.190475
9066.756915	4933.590000	1306.665039	47.475136
9066.756915	4933.590000	1305.566406	15.665724
9066.756915	4933.590000	1304.467773	-42.045567
9066.756915	4933.590000	1303.369141	-8.323476
9066.756915	4933.590000	1302.269531	39.047588
9066.756915	4933.590000	1301.169922	-43.061901
9066.756915	4933.590000	1300.070313	11.070031
9066.756915	4933.590000	1298.970703	-64.353691
9066.756915	4933.590000	1297.870117	-3.113018
9066.756915	4933.590000	1296.769531	75.413918
9066.756915	4933.590000	1295.668945	46.869499
9066.756915	4933.590000	1294.568359	-54.169334
9066.756915	4933.590000	1293.466797	46.270454
9066.756915	4933.590000	1292.366211	29.156746
9066.756915	4933.590000	1291.264648	34.776165
9066.756915	4933.590000	1290.162109	88.358528
9066.756915	4933.590000	1289.060547	68.697800
9066.756915	4933.590000	1287.958008	52.518661
9066.756915	4933.590000	1286.855469	106.590309
9066.756915	4933.590000	1285.752930	79.188889
9066.756915	4933.590000	1284.650391	44.247791
9066.756915	4933.590000	1283.546875	2.064384
9066.756915	4933.590000	1282.444336	92.047691
9066.756915	4933.590000	1281.339844	77.362755
9066.756915	4933.590000	1280.236328	-44.681774
9066.756915	4933.590000	1279.132813	91.336479
9066.756915	4933.590000	1278.028320	74.528931
9066.756915	4933.590000	1276.923828	36.468807
9066.756915	4933.590000	1275.819336	65.012352
9066.756915	4933.590000	1274.713867	27.563963
9066.756915	4933.590000	1273.608398	-38.473560
9066.756915	4933.590000	1272.503906	-67.301964
9066.756915	4933.590000	1271.397461	2.536610
9066.756915	4933.590000	1270.291992	62.210815
9066.756915	4933.590000	1269.185547	-66.260773
9066.756915	4933.590000	1268.080078	-16.096907
9066.756915	4933.590000	1266.972656	55.695068
9066.756915	4933.590000	1265.866211	8.116191
9066.756915	4933.590000	1264.759766	-26.907593
9066.756915	4933.590000	1263.652344	-91.122658
9066.756915	4933.590000	1262.544922	52.656887
9066.756915	4933.590000	1261.436523	-11.687394
9066.756915	4933.590000	1260.329102	-91.173714
9066.756915	4933.590000	1259.220703	-124.703720
9066.756915	4933.590000	1258.112305	-98.531525
9066.756915	4933.590000	1257.003906	-77.179321
9066.756915	4933.590000	1255.895508	-50.886116
9066.756915	4933.590000	1254.786133	10.681381
9066.756915	4933.590000	1253.676758	-89.712898
9066.756915	4933.590000	1252.567383	-74.545273
9066.756915	4933.590000	1251.458008	0.022425
9066.756915	4933.590000	1250.347656	4.571544
9066.756915	4933.590000	1249.237305	-62.227280
9066.756915	4933.590000	1248.126953	-71.970963
9066.756915	4933.590000	1247.016602	-2.376522
9066.756915	4933.590000	1245.905273	-14.688264
9066.756915	4933.590000	1244.793945	-76.458237
9066.756915	4933.590000	1243.682617	62.916840
9066.756915	4933.590000	1242.571289	14.883020
9066.756915	4933.590000	1241.459961	-23.507677
9066.756915	4933.590000	1240.347656	49.535637
9066.756915	4933.590000	1239.235352	112.558044
9066.756915	4933.590000	1238.123047	49.462627
9066.756915	4933.590000	1237.009766	-24.151108
9066.756915	4933.590000	1235.897461	70.649467
9066.756915	4933.590000	1234.784180	-55.122448
9066.756915	4933.590000	1233.670898	-60.408123
9066.756915	4933.590000	1232.556641	35.920280
9066.756915	4933.590000	1231.443359	126.116638
9066.756915	4933.590000	1230.329102	61.067245
9066.756915	4933.590000	1229.214844	12.268794
9066.756915	4933.590000	1228.099609	38.506851
9066.756915	4933.590000	1226.985352	51.555290
9066.756915	4933.590000	1225.870117	159.871719
9066.756915	4933.590000	1224.754883	48.000660
9066.756915	4933.590000	1223.639648	106.645500
9066.756915	4933.590000	1222.523438	55.851112
9066.756915	4933.590000	1221.408203	140.506561
9066.756915	4933.590000	1220.291992	88.743797
9066.756915	4933.590000	1219.174805	133.071884
9066.756915	4933.590000	1218.058594	131.707520
9066.756915	4933.590000	1216.941406	130.126892
9066.756915	4933.590000	1215.824219	168.910660
9066.756915	4933.590000	1214.707031	33.833015
9066.756915	4933.590000	1213.589844	52.430832
9066.756915	4933.590000	1212.471680	26.915979
9066.756915	4933.590000	1211.353516	27.373011
9066.756915	4933.590000	1210.235352	42.407166
9066.756915	4933.590000	1209.117188	-18.903652
9066.756915	4933.590000	1207.998047	43.690514
9066.756915	4933.590000	1206.878906	-7.901567
9066.756915	4933.590000	1205.759766	68.930229
9066.756915	4933.590000	1204.640625	120.241837
9066.756915	4933.590000	1203.520508	6.306652
9066.756915	4933.590000	1202.401367	-5.109318
9066.756915	4933.590000	1201.281250	25.783627
9066.756915	4933.590000	1200.160156	87.156158
9066.756915	4933.590000	1199.040039	-5.747188
9066.756915	4933.590000	1197.918945	-62.424564
9066.756915	4933.590000	1196.797852	-25.442533
9066.756915	4933.590000	1195.676758	45.456257
9066.756915	4933.590000	1194.555664	49.692734
9066.756915	4933.590000	1193.433594	50.516357
9066.756915	4933.590000	1192.311523	60.830059
9066.756915	4933.590000	1191.189453	85.044273
9066.756915	4933.590000	1190.066406	48.166264
9066.756915	4933.590000	1188.944336	20.732611
9066.756915	4933.590000	1187.821289	25.931402
9066.756915	4933.590000	1186.698242	-56.264828
9066.756915	4933.590000	1185.574219	-154.467468
9066.756915	4933.590000	1184.451172	11.626671
9066.756915	4933.590000	1183.327148	40.476181
9066.756915	4933.590000	1182.203125	-67.128281
9066.756915	4933.590000	1181.078125	13.306136
9066.756915	4933.590000	1179.954102	-27.333591
9066.756915	4933.590000	1178.829102	4.714305
9066.756915	4933.590000	1177.704102	-116.586151
9066.756915	4933.590000	1176.579102	-36.047165
9066.756915	4933.590000	1175.453125	-29.473528
9066.756915	4933.590000	1174.327148	-55.473461
9066.756915	4933.590000	1173.201172	-22.317671
9066.756915	4933.590000	1172.075195	8.996088
9066.756915	4933.590000	1170.949219	-39.476955
9066.756915	4933.590000	1169.822266	-29.673941
9066.756915	4933.590000	1168.695313	4.532790
9066.756915	4933.590000	1167.568359	-15.187524
9066.756915	4933.590000	1166.440430	58.035831
9066.756915	4933.590000	1165.313477	-7.544026
9066.756915	4933.590000	1164.185547	-69.387878
9066.756915	4933.590000	1163.057617	-134.964478
9066.756915	4933.590000	1161.928711	22.294144
9066.756915	4933.590000	1160.800781	-7.910844
9066.756915	4933.590000	1159.671875	-34.751701
9066.756915	4933.590000	1158.541992	114.007454
9066.756915	4933.590000	1157.413086	-9.353289
9066.756915	4933.590000	1156.283203	-55.162735
9066.756915	4933.590000	1155.154297	-80.831917
9066.756915	4933.590000	1154.023438	-93.683601
9066.756915	4933.590000	1152.893555	36.694233
9066.756915	4933.590000	1151.763672	-26.673227
9066.756915	4933.590000	1150.632813	65.279465
9066.756915	4933.590000	1149.501953	43.303165
9066.756915	4933.590000	1148.370117	52.030678
9066.756915	4933.590000	1147.239258	44.726883
9066.756915	4933.590000	1146.107422	142.265717
9066.756915	4933.590000	1144.975586	132.392715
9066.756915	4933.590000	1143.843750	-59.313698
9066.756915	4933.590000	1142.710938	12.180643
9066.756915	4933.590000	1141.578125	31.128365
9066.756915	4933.590000	1140.445313	22.249283
9066.756915	4933.590000	1139.312500	-34.464565
9066.756915	4933.590000	1138.178711	3.640794
9066.756915	4933.590000	1137.045898	-32.095348
9066.756915	4933.590000	1135.912109	46.097023
9066.756915	4933.590000	1134.777344	-16.473194
9066.756915	4933.590000	1133.643555	-1.205896
9066.756915	4933.590000	1132.508789	8.141038
9066.756915	4933.590000	1131.374023	-53.885212
9066.756915	4933.590000	1130.239258	-21.197142
9066.756915	4933.590000	1129.104492	65.221962
9066.756915	4933.590000	1127.968750	9.960563
9066.756915	4933.590000	1126.833008	85.411591
9066.756915	4933.590000	1125.697266	-51.674347
9066.756915	4933.590000	1124.560547	-88.386551
9066.756915	4933.590000	1123.424805	-10.013379
9066.756915	4933.590000	1122.288086	16.337009
9066.756915	4933.590000	1121.151367	40.819820
9066.756915	4933.590000	1120.013672	-67.215805
9066.756915	4933.590000	1118.876953	10.505356
9066.756915	4933.590000	1117.739258	86.368706
9066.756915	4933.590000	1116.601563	-66.667030
9066.756915	4933.590000	1115.462891	-39.046700
9066.756915	4933.590000	1114.324219	-24.108173
9066.756915	4933.590000	1113.186523	-117.861382
9066.756915	4933.590000	1112.046875	15.962537
9066.756915	4933.590000	1110.908203	59.129173
9066.756915	4933.590000	1109.769531	-41.955753
9066.756915	4933.590000	1108.629883	30.798964
9066.756915	4933.590000	1107.490234	-67.984489
9066.756915	4933.590000	1106.349609	1.027017
9066.756915	4933.590000	1105.209961	-46.352615
9066.756915	4933.590000	1104.069336	-7.951416
9066.756915	4933.590000	1102.928711	-22.405689
9066.756915	4933.590000	1101.787109	13.570775
9066.756915	4933.590000	1100.646484	57.767586
9066.756915	4933.590000	1099.504883	4.367346
9066.756915	4933.590000	1098.363281	11.747005
9066.756915	4933.590000	1097.221680	9.489000
9066.756915	4933.590000	1096.079102	47.839199
9066.756915	4933.590000	1094.936523	-26.424036
9066.756915	4933.590000	1093.793945	128.330811
9066.756915	4933.590000	1092.651367	-74.525230
9066.756915	4933.590000	1091.507813	-82.233177
9066.756915	4933.590000	1090.364258	114.754219
9066.756915	4933.590000	1089.220703	174.386337
9066.756915	4933.590000	1088.077148	39.169720
9066.756915	4933.590000	1086.933594	25.478807
9066.756915	4933.590000	1085.789063	57.435822
9066.756915	4933.590000	1084.644531	-22.258120
9066.756915	4933.590000	1083.499023	-19.660021
9066.756915	4933.590000	1082.354492	-25.575481
9066.756915	4933.590000	1081.208984	119.064392
9066.756915	4933.590000	1080.063477	31.295746
9066.756915	4933.590000	1078.917969	41.238895
9066.756915	4933.590000	1077.771484	84.953720
9066.756915	4933.590000	1076.625977	85.801514
9066.756915	4933.590000	1075.479492	33.144749
9066.756915	4933.590000	1074.332031	89.391045
9066.756915	4933.590000	1073.185547	43.751904
9066.756915	4933.590000	1072.038086	141.685898
9066.756915	4933.590000	1070.890625	67.222221
9066.756915	4933.590000	1069.743164	19.976082
9066.756915	4933.590000	1068.594727	51.000908
9066.756915	4933.590000	1067.447266	19.052059
9066.756915	4933.590000	1066.298828	182.312073
9066.756915	4933.590000	1065.149414	25.917618
9066.756915	4933.590000	1064.000977	121.123169
9066.756915	4933.590000	1062.851563	128.612640
9066.756915	4933.590000	1061.702148	80.398308
9066.756915	4933.590000	1060.552734	39.594154
9066.756915	4933.590000	1059.402344	119.495445
9066.756915	4933.590000	1058.252930	57.351463
9066.756915	4933.590000	1057.102539	116.532021
9066.756915	4933.590000	1055.951172	35.296337
9066.756915	4933.590000	1054.800781	9.796634
9066.756915	4933.590000	1053.649414	119.039108
9066.756915	4933.590000	1052.498047	-28.861551
9066.756915	4933.590000	1051.346680	-15.626526
9066.756915	4933.590000	1050.194336	21.458029
9066.756915	4933.590000	1049.042969	56.247135
9066.756915	4933.590000	1047.890625	-11.744854
9066.756915	4933.590000	1046.738281	-22.087975
9066.756915	4933.590000	1045.584961	77.310234
9066.756915	4933.590000	1044.431641	14.669319
9066.756915	4933.590000	1043.278320	150.910690
9066.756915	4933.590000	1042.125000	41.309273
9066.756915	4933.590000	1040.971680	-5.380766
9066.756915	4933.590000	1039.817383	60.719341
9066.756915	4933.590000	1038.663086	7.089005
9066.756915	4933.590000	1037.508789	1.621804
9066.756915	4933.590000	1036.353516	75.302910
9066.756915	4933.590000	1035.198242	43.373749
9066.756915	4933.590000	1034.042969	-27.859253
9066.756915	4933.590000	1032.887695	88.098572
9066.756915	4933.590000	1031.732422	22.843695
9066.756915	4933.590000	1030.576172	1.948134
9066.756915	4933.590000	1029.419922	113.518143
9066.756915	4933.590000	1028.263672	39.870178
9066.756915	4933.590000	1027.106445	15.318157
9066.756915	4933.590000	1025.949219	20.126343
9066.756915	4933.590000	1024.792969	81.382797
9066.756915	4933.590000	1023.634766	98.601128
9066.756915	4933.590000	1022.477539	83.021248
9066.756915	4933.590000	1021.319336	34.853378
9066.756915	4933.590000	1020.161133	51.609913
9066.756915	4933.590000	1019.002930	17.184471
9066.756915	4933.590000	1017.843750	131.754639
9066.756915	4933.590000	1016.684570	56.542076
9066.756915	4933.590000	1015.525391	-55.378918
9066.756915	4933.590000	1014.366211	-62.192856
9066.756915	4933.590000	1013.207031	-46.678967
9066.756915	4933.590000	1012.046875	-12.960751
9066.756915	4933.590000	1010.886719	105.259476
9066.756915	4933.590000	1009.726563	28.655603
9066.756915	4933.590000	1008.565430	11.327245
9066.756915	4933.590000	1007.404297	128.279160
9066.756915	4933.590000	1006.243164	45.830280
9066.756915	4933.590000	1005.082031	34.834679
9066.756915	4933.590000	1003.920898	79.489220
9066.756915	4933.590000	1002.758789	87.290405
9066.756915	4933.590000	1001.596680	34.531662
9066.756915	4933.590000	1000.433594	140.787598
9066.756915	4933.590000	999.271484	72.814751
9066.756915	4933.590000	998.108398	19.835978
9066.756915	4933.590000	996.945313	90.663315
9066.756915	4933.590000	995.782227	105.802704
9066.756915	4933.590000	994.618164	79.783783
9066.756915	4933.590000	993.454102	-18.178534
9066.756915	4933.590000	992.290039	46.189522
9066.756915	4933.590000	991.125977	59.276966
9066.756915	4933.590000	989.960938	33.856541
9066.756915	4933.590000	988.796875	231.989975
9066.756915	4933.590000	987.630859	70.012833
9066.756915	4933.590000	986.465820	51.020901
9066.756915	4933.590000	985.300781	47.515186
9066.756915	4933.590000	984.134766	4.429745
9066.756915	4933.590000	982.968750	206.438614
9066.756915	4933.590000	981.801758	76.838608
9066.756915	4933.590000	980.635742	29.982191
9066.756915	4933.590000	979.468750	41.768562
9066.756915	4933.590000	978.301758	104.137192
9066.756915	4933.590000	977.133789	84.168060
9066.756915	4933.590000	975.966797	43.444195
9066.756915	4933.590000	974.798828	-21.458050
9066.756915	4933.590000	973.630859	59.429413
9066.756915	4933.590000	972.461914	74.114265
9066.756915	4933.590000	971.293945	-26.613106
9066.756915	4933.590000	970.125000	-9.830482
9066.756915	4933.590000	968.956055	-62.667141
9066.756915	4933.590000	967.786133	6.557655
9066.756915	4933.590000	966.617188	-16.385872
9066.756915	4933.590000	965.447266	85.985191
9066.756915	4933.590000	964.276367	-104.794640
9066.756915	4933.590000	963.106445	-18.567371
9066.756915	4933.590000	961.935547	29.996035
9066.756915	4933.590000	960.764648	92.591583
9066.756915	4933.590000	959.593750	-72.705154
9066.756915	4933.590000	958.422852	-50.010765
9066.756915	4933.590000	957.250977	68.882736
9066.756915	4933.590000	956.079102	-54.758522
9066.756915	4933.590000	954.907227	-96.836525
9066.756915	4933.590000	953.734375	26.628174
9066.756915	4933.590000	952.562500	68.622856
9066.756915	4933.590000	951.389648	107.925369
9066.756915	4933.590000	950.215820	23.504784
9066.756915	4933.590000	949.042969	12.175131
9066.756915	4933.590000	947.869141	93.559875
9066.756915	4933.590000	946.695313	49.177677
9066.756915	4933.590000	945.521484	-14.276518
9066.756915	4933.590000	944.346680	102.483536
9066.756915	4933.590000	943.172852	36.775372
9066.756915	4933.590000	941.998047	53.070030
9066.756915	4933.590000	940.822266	48.100513
9066.756915	4933.590000	939.647461	75.790871
9066.756915	4933.590000	938.471680	77.914558
9066.756915	4933.590000	937.295898	26.261793
9066.756915	4933.590000	936.119141	-8.974743
9066.756915	4933.590000	934.943359	-53.656830
9066.756915	4933.590000	933.766602	-0.246670
9066.756915	4933.590000	932.589844	69.447357
9066.756915	4933.590000	931.413086	20.174892
9066.756915	4933.590000	930.235352	36.181789
9066.756915	4933.590000	929.057617	49.855743
9066.756915	4933.590000	927.879883	-22.802881
9066.756915	4933.590000	926.702148	46.828121
9066.756915	4933.590000	925.523438	125.768013
9066.756915	4933.590000	924.344727	57.781212
9066.756915	4933.590000	923.166016	-33.505672
9066.756915	4933.590000	921.987305	117.638924
9066.756915	4933.590000	920.807617	-45.885643
9066.756915	4933.590000	919.627930	-45.526333
9066.756915	4933.590000	919.497070	-29.907295
9066.756915	4933.590000	918.331055	25.613499
9066.756915	4933.590000	917.165039	69.457840
9066.756915	4933.590000	915.999023	6.163701
9066.756915	4933.590000	914.833008	1.088372
9066.756915	4933.590000	913.666016	-8.648134
9066.756915	4933.590000	912.499023	-18.388744
9066.756915	4933.590000	911.332031	-107.239288
9066.756915	4933.590000	910.165039	-107.667191
9066.756915	4933.590000	908.997070	3.530309
9066.756915	4933.590000	907.830078	40.267891
9066.756915	4933.590000	906.661133	-13.681679
9066.756915	4933.590000	905.493164	60.217907
9066.756915	4933.590000	904.325195	80.632759
9066.756915	4933.590000	903.156250	-47.660427
9066.756915	4933.590000	901.987305	-41.183491
9066.756915	4933.590000	900.818359	-102.064980
9066.756915	4933.590000	899.648438	-7.360734
9066.756915	4933.590000	898.478516	-19.487844
9066.756915	4933.590000	897.308594	-17.691065
9066.756915	4933.590000	896.138672	-20.542553
9066.756915	4933.590000	894.968750	-139.399857
9066.756915	4933.590000	893.797852	15.490202
9066.756915	4933.590000	892.626953	35.805313
9066.756915	4933.590000	891.456055	118.707939
9066.756915	4933.590000	890.284180	-39.513596
9066.756915	4933.590000	889.113281	50.311180
9066.756915	4933.590000	887.941406	12.649209
9066.756915	4933.590000	886.768555	102.415375
9066.756915	4933.590000	885.596680	67.062874
9066.756915	4933.590000	884.423828	27.087681
9066.756915	4933.590000	883.250977	82.049820
9066.756915	4933.590000	882.078125	81.428627
9066.756915	4933.590000	880.905273	80.802582
9066.756915	4933.590000	879.731445	77.857666
9066.756915	4933.590000	878.557617	195.204712
9066.756915	4933.590000	877.383789	115.901169
9066.756915	4933.590000	876.209961	-0.373664
9066.756915	4933.590000	875.035156	24.423853
9066.756915	4933.590000	873.860352	33.026127
9066.756915	4933.590000	872.685547	57.797268
9066.756915	4933.590000	871.510742	31.721727
9066.756915	4933.590000	870.334961	72.644394
9066.756915	4933.590000	869.159180	11.923424
9066.756915	4933.590000	867.983398	43.587952
9066.756915	4933.590000	866.807617	-14.802376
9066.756915	4933.590000	865.630859	-24.701029
9066.756915	4933.590000	864.454102	-117.677338
9066.756915	4933.590000	863.277344	-173.703888
9066.756915	4933.590000	862.100586	21.725517
9066.756915	4933.590000	860.922852	34.874161
9066.756915	4933.590000	859.745117	-48.830936
9066.756915	4933.590000	858.567383	-77.177299
9066.756915	4933.590000	857.389648	12.032647
9066.756915	4933.590000	856.210938	-129.237381
9066.756915	4933.590000	855.032227	-3.197791
9066.756915	4933.590000	853.853516	46.772552
9066.756915	4933.590000	852.674805	-6.915397
9066.756915	4933.590000	851.495117	91.380775
9066.756915	4933.590000	850.315430	51.511200
9066.756915	4933.590000	849.135742	89.907806
9066.756915	4933.590000	847.956055	169.704681
9066.756915	4933.590000	846.775391	-3.602013
9066.756915	4933.590000	845.595703	-15.830868
9066.756915	4933.590000	844.415039	-34.956905
9066.756915	4933.590000	843.233398	-88.566269
9066.756915	4933.590000	842.052734	-13.427985
9066.756915	4933.590000	840.871094	-16.464355
9066.756915	4933.590000	839.689453	17.261902
9066.756915	4933.590000	838.506836	138.269135
9066.756915	4933.590000	837.325195	91.554688
9066.756915	4933.590000	836.142578	-28.627016
9066.756915	4933.590000	834.959961	16.541681
9066.756915	4933.590000	833.777344	-9.468975
9066.756915	4933.590000	832.593750	28.786581
9066.756915	4933.590000	831.410156	-1.810514
9066.756915	4933.590000	830.226563	15.776136
9066.756915	4933.590000	829.042969	-19.398272
9066.756915	4933.590000	827.858398	18.816404
9066.756915	4933.590000	826.673828	-32.397675
9066.756915	4933.590000	825.489258	-51.504124
9066.756915	4933.590000	824.304688	-1.856686
9066.756915	4933.590000	823.120117	-34.713905
9066.756915	4933.590000	821.934570	14.904181
9066.756915	4933.590000	820.749023	91.981728
9066.756915	4933.590000	819.562500	15.611965
9066.756915	4933.590000	818.376953	-8.075890
9066.756915	4933.590000	817.190430	32.329708
9066.756915	4933.590000	816.003906	4.066096
9066.756915	4933.590000	814.817383	-99.688026
9066.756915	4933.590000	813.629883	-47.859962
9066.756915	4933.590000	812.442383	-62.376678
9066.756915	4933.590000	811.254883	-47.166420
9066.756915	4933.590000	810.067383	20.611864
9066.756915	4933.590000	808.878906	-78.481842
9066.756915	4933.590000	807.690430	37.254398
9066.756915	4933.590000	806.501953	-45.815434
9066.756915	4933.590000	805.313477	-7.798048
9066.756915	4933.590000	804.124023	107.842842
9066.756915	4933.590000	802.934570	59.047684
9066.756915	4933.590000	801.745117	46.792286
9066.756915	4933.590000	800.555664	-33.926811
9066.756915	4933.590000	799.365234	-23.347025
9066.756915	4933.590000	798.175781	3.193859
9066.756915	4933.590000	796.985352	-9.052640
9066.756915	4933.590000	795.793945	-0.774806
9066.756915	4933.590000	794.603516	157.964722
9066.756915	4933.590000	793.412109	68.185997
9066.756915	4933.590000	792.220703	-30.674425
9066.756915	4933.590000	791.028320	-38.361565
9066.756915	4933.590000	789.836914	6.343933
9066.756915	4933.590000	788.644531	96.576111
9066.756915	4933.590000	787.452148	6.885281
9066.756915	4933.590000	786.258789	117.561081
9066.756915	4933.590000	785.066406	105.280884
9066.756915	4933.590000	783.873047	13.356927
9066.756915	4933.590000	782.679688	-92.183426
9066.756915	4933.590000	781.485352	29.778786
9066.756915	4933.590000	780.291992	-48.439648
9066.756915	4933.590000	779.097656	-12.945470
9066.756915	4933.590000	777.903320	83.906372
9066.756915	4933.590000	776.708008	5.712586
9066.756915	4933.590000	775.512695	-45.185966
9066.756915	4933.590000	774.318359	-41.544613
9066.756915	4933.590000	773.122070	116.540215
9066.756915	4933.590000	771.926758	-7.030783
9066.756915	4933.590000	770.730469	78.319656
9066.756915	4933.590000	769.534180	45.594505
9066.756915	4933.590000	768.337891	110.463585
9066.756915	4933.590000	767.141602	168.493698
9066.756915	4933.590000	765.944336	217.420425
9066.756915	4933.590000	764.747070	252.713043
9066.756915	4933.590000	763.549805	154.200546
9066.756915	4933.590000	762.351563	105.598969
9066.756915	4933.590000	761.154297	147.676117
9066.756915	4933.590000	759.956055	176.132965
9066.756915	4933.590000	758.757813	127.539848
9066.756915	4933.590000	757.558594	187.689713
9066.756915	4933.590000	756.359375	93.807442
9066.756915	4933.590000	755.160156	126.755966
9066.756915	4933.590000	753.960938	123.463882
9066.756915	4933.590000	752.761719	260.491364
9066.756915	4933.590000	751.561523	268.473572
9066.756915	4933.590000	750.361328	305.856354
9066.756915	4933.590000	749.160156	155.479752
9066.756915	4933.590000	747.959961	305.927277
9066.756915	4933.590000	746.758789	275.429077
9066.756915	4933.590000	745.557617	222.331451
9066.756915	4933.590000	744.356445	178.288773
9066.756915	4933.590000	743.154297	134.256470
9066.756915	4933.590000	741.952148	65.385040
9066.756915	4933.590000	740.750000	91.395050
9066.756915	4933.590000	739.547852	194.162094
9066.756915	4933.590000	738.344727	247.209656
9066.756915	4933.590000	737.142578	194.139969
9066.756915	4933.590000	735.939453	290.025543
9066.756915	4933.590000	734.735352	198.595505
9066.756915	4933.590000	733.532227	134.264053
9066.756915	4933.590000	732.328125	49.652802
9066.756915	4933.590000	731.124023	195.058487
9066.756915	4933.590000	729.918945	162.300980
9066.756915	4933.590000	728.714844	127.294067
9066.756915	4933.590000	727.509766	191.441498
9066.756915	4933.590000	726.303711	120.376144
9066.756915	4933.590000	725.098633	114.652245
9066.756915	4933.590000	723.892578	93.156387
9066.756915	4933.590000	722.686523	141.455902
9066.756915	4933.590000	721.480469	59.164654
9066.756915	4933.590000	720.274414	87.175041
9066.756915	4933.590000	719.067383	79.161072
9066.756915	4933.590000	717.860352	-115.579910
9066.756915	4933.590000	716.653320	67.608177
9066.756915	4933.590000	715.445313	66.315559
9066.756915	4933.590000	714.238281	-2.434131
9066.756915	4933.590000	713.030273	81.679611
9066.756915	4933.590000	711.821289	75.854599
9066.756915	4933.590000	710.613281	7.110350
9066.756915	4933.590000	709.404297	10.264879
9066.756915	4933.590000	708.195313	141.419540
9066.756915	4933.590000	706.986328	99.611778
9066.756915	4933.590000	705.776367	80.257652
9066.756915	4933.590000	704.566406	31.720774
9066.756915	4933.590000	703.356445	158.221420
9066.756915	4933.590000	702.146484	62.548737
9066.756915	4933.590000	700.935547	-10.667374
9066.756915	4933.590000	699.724609	50.687210
9066.756915	4933.590000	698.513672	20.076675
9066.756915	4933.590000	697.302734	20.847530
9066.756915	4933.590000	696.090820	35.050541
9066.756915	4933.590000	694.878906	111.971992
9066.756915	4933.590000	693.666992	27.551643
9066.756915	4933.590000	692.455078	26.022493
9066.756915	4933.590000	691.242188	8.803666
9066.756915	4933.590000	690.029297	63.218353
9066.756915	4933.590000	688.816406	72.828644
9066.756915	4933.590000	687.602539	95.845863
9066.756915	4933.590000	686.389648	15.918630
9066.756915	4933.590000	685.175781	41.143578
9066.756915	4933.590000	683.960938	146.853516
9066.756915	4933.590000	682.747070	93.749138
9066.756915	4933.590000	681.532227	13.824471
9066.756915	4933.590000	680.317383	-34.792999
9066.756915	4933.590000	679.102539	-47.653233
9066.756915	4933.590000	677.886719	40.008232
9066.756915	4933.590000	676.670898	74.008865
9066.756915	4933.590000	675.455078	-21.544556
9066.756915	4933.590000	674.239258	30.281652
9066.756915	4933.590000	673.022461	64.210152
9066.756915	4933.590000	671.805664	169.522339
9066.756915	4933.590000	670.588867	69.495651
9066.756915	4933.590000	669.372070	47.571098
9066.756915	4933.590000	668.154297	45.709824
9066.756915	4933.590000	666.936523	48.290455
9066.756915	4933.590000	665.718750	61.998634
9066.756915	4933.590000	664.500977	75.682365
9066.756915	4933.590000	663.282227	9.116700
9066.756915	4933.590000	662.063477	151.989655
9066.756915	4933.590000	660.844727	31.937815
9066.756915	4933.590000	659.625000	47.765488
9066.756915	4933.590000	658.405273	119.231300
9066.756915	4933.590000	657.185547	-125.458092
9066.756915	4933.590000	655.965820	95.091461
9066.756915	4933.590000	654.745117	-29.371675
9066.756915	4933.590000	653.525391	30.847534
9066.756915	4933.590000	652.303711	275.628876
9066.756915	4933.590000	651.083008	19.945366
9066.756915	4933.590000	649.861328	93.392868
9066.756915	4933.590000	648.640625	-6.588801
9066.756915	4933.590000	647.417969	-93.216957
9066.756915	4933.590000	646.196289	115.679604
9066.756915	4933.590000	644.973633	182.296738
9066.756915	4933.590000	643.750977	68.969940
9066.756915	4933.590000	642.528320	93.338043
9066.756915	4933.590000	641.305664	166.514221
9066.756915	4933.590000	640.082031	99.807457
9066.756915	4933.590000	638.858398	90.802605
9066.756915	4933.590000	637.634766	17.441469
9066.756915	4933.590000	636.410156	10.631627
9066.756915	4933.590000	635.185547	134.643280
9066.756915	4933.590000	633.960938	-18.564898
9066.756915	4933.590000	632.736328	-49.812080
9066.756915	4933.590000	631.510742	65.201843
9066.756915	4933.590000	630.285156	58.278160
9066.756915	4933.590000	629.059570	113.363098
9066.756915	4933.590000	627.833984	24.439516
9066.756915	4933.590000	626.607422	-0.253819
9066.756915	4933.590000	625.380859	145.509277
9066.756915	4933.590000	624.154297	60.993637
9066.756915	4933.590000	622.927734	133.610123
9066.756915	4933.590000	621.700195	18.111855
9066.756915	4933.590000	620.472656	79.599854
9066.756915	4933.590000	619.245117	-24.825577
9066.756915	4933.590000	618.016602	-34.155235
9066.756915	4933.590000	616.788086	-19.187460
9066.756915	4933.590000	615.559570	59.845070
9066.756915	4933.590000	614.331055	61.483109
9066.756915	4933.590000	613.101563	85.188194
9066.756915	4933.590000	611.872070	-34.706573
9066.756915	4933.590000	610.642578	-15.453389
9066.756915	4933.590000	609.413086	-73.503662
9066.756915	4933.590000	608.182617	20.750568
9066.756915	4933.590000	606.952148	-19.675619
9066.756915	4933.590000	605.721680	-27.011696
9066.756915	4933.590000	604.491211	-67.456123
9066.756915	4933.590000	603.259766	-30.717880
9066.756915	4933.590000	602.028320	177.969177
9066.756915	4933.590000	600.796875	102.164642
9066.756915	4933.590000	599.564453	59.428322
9066.756915	4933.590000	598.332031	32.112103
9066.756915	4933.590000	597.099609	51.049778
9066.756915	4933.590000	595.867188	34.714798
9066.756915	4933.590000	594.633789	22.766514
9066.756915	4933.590000	593.400391	41.624290
9066.756915	4933.590000	592.166992	-87.029915
9066.756915	4933.590000	590.933594	22.028597
9066.756915	4933.590000	589.699219	25.403208
9066.756915	4933.590000	588.464844	125.545364
9066.756915	4933.590000	587.230469	-121.872482
9066.756915	4933.590000	585.995117	-56.969872
9066.756915	4933.590000	584.760742	78.233788
9066.756915	4933.590000	583.525391	79.282021
9066.756915	4933.590000	582.289063	163.809418
9066.756915	4933.590000	581.053711	112.067421
9066.756915	4933.590000	579.817383	18.589710
9066.756915	4933.590000	578.581055	254.538849
9066.756915	4933.590000	577.343750	132.482941
9066.756915	4933.590000	576.107422	-13.686503
9066.756915	4933.590000	574.870117	114.514519
9066.756915	4933.590000	573.631836	89.044861
9066.756915	4933.590000	572.394531	127.185036
9066.756915	4933.590000	571.156250	60.010044
9066.756915	4933.590000	569.917969	117.831749
9066.756915	4933.590000	568.679688	127.377129
9066.756915	4933.590000	567.440430	-38.451290
9066.756915	4933.590000	566.202148	-105.615005
9066.756915	4933.590000	564.961914	81.370728
9066.756915	4933.590000	563.722656	-16.497978
9066.756915	4933.590000	562.482422	109.030205
9066.756915	4933.590000	561.243164	35.242954
9066.756915	4933.590000	560.001953	18.378277
9066.756915	4933.590000	558.761719	106.555267
9066.756915	4933.590000	557.520508	-65.710419
9066.756915	4933.590000	556.279297	-25.720718
9066.756915	4933.590000	555.038086	-36.071354
9066.756915	4933.590000	553.795898	21.349566
9066.756915	4933.590000	552.554688	111.523781
9066.756915	4933.590000	551.311523	136.063812
9066.756915	4933.590000	550.069336	92.834419
9066.756915	4933.590000	548.826172	-64.007050
9066.756915	4933.590000	547.583984	65.354523
9066.756915	4933.590000	546.339844	83.261002
9066.756915	4933.590000	545.096680	-42.960266
9066.756915	4933.590000	543.852539	108.088936
9066.756915	4933.590000	542.608398	-26.848452
9066.756915	4933.590000	541.364258	12.817677
9066.756915	4933.590000	540.119141	-122.075287
9066.756915	4933.590000	538.875000	11.350202
9066.756915	4933.590000	537.628906	50.932156
9066.756915	4933.590000	536.383789	-27.243532
9066.756915	4933.590000	535.137695	38.456585
9066.756915	4933.590000	533.892578	-13.560800
9066.756915	4933.590000	532.645508	-85.183617
9066.756915	4933.590000	531.399414	-56.585846
9066.756915	4933.590000	530.152344	98.297035
9066.756915	4933.590000	528.905273	44.075047
9066.756915	4933.590000	527.658203	11.632276
9066.756915	4933.590000	526.410156	83.656372
9066.756915	4933.590000	525.163086	-48.899189
9066.756915	4933.590000	523.914063	20.904623
9066.756915	4933.590000	522.666016	38.469219
9066.756915	4933.590000	521.416992	-2.700306
9066.756915	4933.590000	520.167969	21.359158
9066.756915	4933.590000	518.918945	47.571255
9066.756915	4933.590000	517.669922	-26.203121
9066.756915	4933.590000	516.419922	-19.569582
9066.756915	4933.590000	515.169922	-52.048389
9066.756915	4933.590000	513.919922	97.903725
9066.756915	4933.590000	512.668945	-4.088891
9066.756915	4933.590000	511.417969	-73.484230
9066.756915	4933.590000	510.166992	-27.830336
9066.756915	4933.590000	508.916016	2.606484
9066.756915	4933.590000	507.664063	24.341656
9066.756915	4933.590000	506.412109	89.438690
9066.756915	4933.590000	505.160156	-21.146809
9066.756915	4933.590000	503.907227	-75.326195
9066.756915	4933.590000	502.655273	9.236288
9066.756915	4933.590000	501.402344	-3.765523
9066.756915	4933.590000	500.148438	-70.936348
9066.756915	4933.590000	498.895508	-86.094490
9066.756915	4933.590000	497.641602	-21.124258
9066.756915	4933.590000	496.387695	-75.274643
9066.756915	4933.590000	495.132813	2.639858
9066.756915	4933.590000	493.878906	-10.381659
9066.756915	4933.590000	492.624023	-125.104668
9066.756915	4933.590000	491.368164	-19.124165
9066.756915	4933.590000	490.113281	75.994720
9066.756915	4933.590000	488.857422	104.030418
9066.756915	4933.590000	487.601563	58.543243
9066.756915	4933.590000	486.344727	-19.353155
9066.756915	4933.590000	485.088867	-28.064501
9066.756915	4933.590000	483.832031	69.088715
9066.756915	4933.590000	482.575195	68.992439
9066.756915	4933.590000	481.317383	77.529091
9066.756915	4933.590000	480.059570	-0.308232
9066.756915	4933.590000	478.801758	10.391726
9066.756915	4933.590000	477.543945	-19.922443
9066.756915	4933.590000	476.285156	-39.440407
9066.756915	4933.590000	475.027344	27.341944
9066.756915	4933.590000	473.767578	-28.852131
9066.756915	4933.590000	472.508789	78.861877
9066.756915	4933.590000	471.249023	113.223137
9066.756915	4933.590000	469.989258	26.862818
9066.756915	4933.590000	468.729492	0.875643
9066.756915	4933.590000	467.469727	54.614128
9066.756915	4933.590000	466.208984	155.712692
9066.756915	4933.590000	464.948242	34.946465
9066.756915	4933.590000	463.686523	64.944458
9066.756915	4933.590000	462.425781	62.639309
9066.756915	4933.590000	461.164063	43.111809
9066.756915	4933.590000	459.901367	118.262199
9066.756915	4933.590000	458.639648	79.363388
9066.756915	4933.590000	457.376953	6.062001
9066.756915	4933.590000	456.114258	20.951393
9066.756915	4933.590000	454.851563	12.182186
9066.756915	4933.590000	453.587891	140.970093
9066.756915	4933.590000	452.324219	5.380045
9066.756915	4933.590000	451.060547	-44.218647
9066.756915	4933.590000	449.796875	-20.769234
9066.756915	4933.590000	448.532227	34.874527
9066.756915	4933.590000	447.267578	-46.924187
9066.756915	4933.590000	446.002930	15.127612
9066.756915	4933.590000	444.737305	68.558380
9066.756915	4933.590000	443.471680	44.713127
9066.756915	4933.590000	442.206055	35.886696
9066.756915	4933.590000	440.940430	27.055044
9066.756915	4933.590000	439.673828	22.503284
9066.756915	4933.590000	438.407227	13.655405
9066.756915	4933.590000	437.140625	13.373471
9066.756915	4933.590000	435.873047	-10.494557
9066.756915	4933.590000	434.605469	62.044048
9066.756915	4933.590000	433.337891	25.297510
9066.756915	4933.590000	432.070313	-49.994839
9066.756915	4933.590000	430.801758	-9.656639
9066.756915	4933.590000	429.533203	-67.818855
9066.756915	4933.590000	428.264648	38.815323
9066.756915	4933.590000	426.996094	27.703781
9066.756915	4933.590000	425.726563	119.255043
9066.756915	4933.590000	424.457031	78.145126
9066.756915	4933.590000	423.186523	105.451836
9066.756915	4933.590000	421.916992	160.517654
9066.756915	4933.590000	420.646484	-13.162761
9066.756915	4933.590000	419.375977	90.998047
9066.756915	4933.590000	418.104492	141.672806
9066.756915	4933.590000	416.833008	-2.075050
9066.756915	4933.590000	415.561523	12.233837
9066.756915	4933.590000	414.290039	11.558718
9066.756915	4933.590000	413.017578	49.267765
9066.756915	4933.590000	411.746094	10.100252
9066.756915	4933.590000	410.472656	0.775301
9066.756915	4933.590000	409.200195	234.597290
9066.756915	4933.590000	407.926758	-26.513502
9066.756915	4933.590000	406.653320	-48.745453
9066.756915	4933.590000	405.379883	108.054527
9066.756915	4933.590000	404.105469	34.552216
9066.756915	4933.590000	402.831055	-21.922848
9066.756915	4933.590000	401.556641	45.134724
9066.756915	4933.590000	400.282227	63.118416
9066.756915	4933.590000	399.006836	23.536274
9066.756915	4933.590000	397.731445	-9.703729
9066.756915	4933.590000	396.456055	103.874634
9066.756915	4933.590000	395.179688	-21.012028
9066.756915	4933.590000	393.903320	130.674484
9066.756915	4933.590000	392.626953	122.685020
9066.756915	4933.590000	391.350586	69.961723
9066.756915	4933.590000	390.073242	80.963280
9066.756915	4933.590000	388.795898	113.134422
9066.756915	4933.590000	387.518555	21.936535
9066.756915	4933.590000	386.240234	70.922493
9066.756915	4933.590000	384.961914	53.936325
9066.756915	4933.590000	383.683594	117.567978
9066.756915	4933.590000	382.405273	79.143608
9066.756915	4933.590000	381.125977	-57.032684
9066.756915	4933.590000	379.846680	25.358995
9066.756915	4933.590000	378.567383	-77.019600
9066.756915	4933.590000	377.287109	47.532928
9066.756915	4933.590000	376.006836	44.638603
9066.756915	4933.590000	374.726563	50.098442
9066.756915	4933.590000	373.446289	42.701111
9066.756915	4933.590000	372.165039	-15.711789
9066.756915	4933.590000	370.883789	131.328278
9066.756915	4933.590000	369.602539	-3.650678
9066.756915	4933.590000	368.320313	41.330353
9066.756915	4933.590000	367.039063	56.486042
9066.756915	4933.590000	365.755859	-165.697021
9066.756915	4933.590000	364.473633	-57.700241
9066.756915	4933.590000	363.190430	-70.576637
9066.756915	4933.590000	361.907227	-26.498543
9066.756915	4933.590000	360.624023	-39.752483
9066.756915	4933.590000	359.340820	20.831875
9066.756915	4933.590000	358.056641	-22.440685
9066.756915	4933.590000	356.772461	58.833572
9066.756915	4933.590000	355.487305	-8.116937
9066.756915	4933.590000	354.202148	-32.997902
9066.756915	4933.590000	352.916992	-106.697479
9066.756915	4933.590000	351.631836	94.003899
9066.756915	4933.590000	350.346680	62.057568
9066.756915	4933.590000	349.060547	15.080247
9066.756915	4933.590000	347.774414	-0.476597
9066.756915	4933.590000	346.487305	13.238799
9066.756915	4933.590000	345.200195	-17.646351
9066.756915	4933.590000	343.913086	162.152756
9066.756915	4933.590000	342.625977	-14.875196
9066.756915	4933.590000	341.338867	29.277819
9066.756915	4933.590000	340.050781	-85.035194
9066.756915	4933.590000	338.762695	40.659676
9066.756915	4933.590000	337.473633	12.116326
9066.756915	4933.590000	336.184570	69.617279
9066.756915	4933.590000	334.895508	21.412573
9066.756915	4933.590000	333.606445	10.765212
9066.756915	4933.590000	332.317383	3.952121
9066.756915	4933.590000	331.027344	-62.202621
9066.756915	4933.590000	329.736328	-34.039211
9066.756915	4933.590000	328.446289	-77.832504
9066.756915	4933.590000	327.155273	124.079247
9066.756915	4933.590000	325.864258	89.905075
9066.756915	4933.590000	324.573242	6.930601
9066.756915	4933.590000	323.281250	-30.237011
9066.756915	4933.590000	321.989258	-72.071701
9066.756915	4933.590000	320.697266	-15.617771
9066.756915	4933.590000	319.405273	-68.940804
9066.756915	4933.590000	318.112305	-7.252196
9066.756915	4933.590000	316.819336	20.274679
9066.756915	4933.590000	315.526367	-22.043840
9066.756915	4933.590000	314.232422	-16.645424
9066.756915	4933.590000	312.938477	166.549744
9066.756915	4933.590000	311.644531	-68.458878
9066.756915	4933.590000	310.349609	67.294518
9066.756915	4933.590000	309.054688	164.610260
9066.756915	4933.590000	307.759766	-53.274899
9066.756915	4933.590000	306.464844	34.333023
9066.756915	4933.590000	305.168945	58.329121
9066.756915	4933.590000	303.873047	43.900452
9066.756915	4933.590000	302.577148	35.048031
9066.756915	4933.590000	301.281250	163.700745
9066.756915	4933.590000	299.984375	90.499100
