#X		#Y		#Wave		#Intensity
-15659.552660	5516.615000	1999.946289	67.148300
-15659.552660	5516.615000	1998.981445	-14.961812
-15659.552660	5516.615000	1998.017578	-11.274083
-15659.552660	5516.615000	1997.052734	-42.270050
-15659.552660	5516.615000	1996.088867	6.042075
-15659.552660	5516.615000	1995.124023	-128.965652
-15659.552660	5516.615000	1994.159180	65.492233
-15659.552660	5516.615000	1993.193359	153.407745
-15659.552660	5516.615000	1992.228516	-1.329440
-15659.552660	5516.615000	1991.262695	69.256874
-15659.552660	5516.615000	1990.296875	8.655756
-15659.552660	5516.615000	1989.331055	-19.746960
-15659.552660	5516.615000	1988.365234	-48.131351
-15659.552660	5516.615000	1987.398438	79.333557
-15659.552660	5516.615000	1986.432617	23.752249
-15659.552660	5516.615000	1985.465820	91.827629
-15659.552660	5516.615000	1984.499023	43.693787
-15659.552660	5516.615000	1983.532227	69.734169
-15659.552660	5516.615000	1982.565430	-82.158012
-15659.552660	5516.615000	1981.597656	50.149574
-15659.552660	5516.615000	1980.629883	-121.434547
-15659.552660	5516.615000	1979.662109	30.599562
-15659.552660	5516.615000	1978.694336	-86.581909
-15659.552660	5516.615000	1977.726563	33.301983
-15659.552660	5516.615000	1976.758789	-54.207058
-15659.552660	5516.615000	1975.790039	-15.811594
-15659.552660	5516.615000	1974.821289	-172.363831
-15659.552660	5516.615000	1973.852539	36.275112
-15659.552660	5516.615000	1972.883789	22.841784
-15659.552660	5516.615000	1971.915039	98.198715
-15659.552660	5516.615000	1970.945313	23.119951
-15659.552660	5516.615000	1969.975586	100.917862
-15659.552660	5516.615000	1969.005859	141.716217
-15659.552660	5516.615000	1968.036133	76.533813
-15659.552660	5516.615000	1967.066406	8.912419
-15659.552660	5516.615000	1966.096680	106.367920
-15659.552660	5516.615000	1965.125977	-32.658604
-15659.552660	5516.615000	1964.155273	-6.643830
-15659.552660	5516.615000	1963.184570	29.209391
-15659.552660	5516.615000	1962.213867	163.514130
-15659.552660	5516.615000	1961.242188	137.793533
-15659.552660	5516.615000	1960.271484	11.194552
-15659.552660	5516.615000	1959.299805	-71.074196
-15659.552660	5516.615000	1958.328125	41.009151
-15659.552660	5516.615000	1957.356445	30.084070
-15659.552660	5516.615000	1956.384766	-39.850601
-15659.552660	5516.615000	1955.412109	67.243927
-15659.552660	5516.615000	1954.439453	-66.581154
-15659.552660	5516.615000	1953.467773	20.816181
-15659.552660	5516.615000	1952.495117	157.319839
-15659.552660	5516.615000	1951.521484	53.025864
-15659.552660	5516.615000	1950.548828	-2.108683
-15659.552660	5516.615000	1949.575195	-0.744800
-15659.552660	5516.615000	1948.601563	143.017853
-15659.552660	5516.615000	1947.627930	-12.754453
-15659.552660	5516.615000	1946.654297	69.594376
-15659.552660	5516.615000	1945.680664	102.833252
-15659.552660	5516.615000	1944.706055	150.776855
-15659.552660	5516.615000	1943.732422	-127.539055
-15659.552660	5516.615000	1942.757813	-28.075312
-15659.552660	5516.615000	1941.783203	39.472279
-15659.552660	5516.615000	1940.807617	48.153759
-15659.552660	5516.615000	1939.833008	12.709003
-15659.552660	5516.615000	1938.857422	72.848083
-15659.552660	5516.615000	1937.881836	66.806358
-15659.552660	5516.615000	1936.906250	107.307358
-15659.552660	5516.615000	1935.930664	101.252815
-15659.552660	5516.615000	1934.955078	75.606499
-15659.552660	5516.615000	1933.978516	152.795868
-15659.552660	5516.615000	1933.001953	190.785324
-15659.552660	5516.615000	1932.025391	-62.489185
-15659.552660	5516.615000	1931.048828	-75.869576
-15659.552660	5516.615000	1930.072266	-67.230942
-15659.552660	5516.615000	1929.094727	41.689137
-15659.552660	5516.615000	1928.118164	204.367004
-15659.552660	5516.615000	1927.140625	144.469177
-15659.552660	5516.615000	1926.163086	113.924950
-15659.552660	5516.615000	1925.184570	-63.268394
-15659.552660	5516.615000	1924.207031	-49.784882
-15659.552660	5516.615000	1923.228516	-38.754879
-15659.552660	5516.615000	1922.250000	-79.035698
-15659.552660	5516.615000	1921.271484	61.433136
-15659.552660	5516.615000	1920.292969	57.767250
-15659.552660	5516.615000	1919.314453	0.384051
-15659.552660	5516.615000	1918.334961	28.452656
-15659.552660	5516.615000	1917.355469	49.183662
-15659.552660	5516.615000	1916.375977	128.464203
-15659.552660	5516.615000	1915.396484	-107.011963
-15659.552660	5516.615000	1914.416992	-22.865503
-15659.552660	5516.615000	1913.436523	-77.767654
-15659.552660	5516.615000	1912.457031	-13.177445
-15659.552660	5516.615000	1911.476563	51.382061
-15659.552660	5516.615000	1910.496094	-88.832108
-15659.552660	5516.615000	1909.515625	78.056938
-15659.552660	5516.615000	1908.534180	59.701664
-15659.552660	5516.615000	1907.552734	-9.810318
-15659.552660	5516.615000	1906.572266	-13.541265
-15659.552660	5516.615000	1905.590820	28.989595
-15659.552660	5516.615000	1904.608398	-47.802784
-15659.552660	5516.615000	1903.626953	-105.098991
-15659.552660	5516.615000	1902.644531	61.526543
-15659.552660	5516.615000	1901.663086	16.383490
-15659.552660	5516.615000	1900.680664	39.370525
-15659.552660	5516.615000	1899.698242	-137.116562
-15659.552660	5516.615000	1898.714844	107.183990
-15659.552660	5516.615000	1897.732422	-139.778412
-15659.552660	5516.615000	1896.749023	16.898752
-15659.552660	5516.615000	1895.765625	166.217743
-15659.552660	5516.615000	1894.782227	36.007099
-15659.552660	5516.615000	1893.798828	-30.991037
-15659.552660	5516.615000	1892.814453	-63.962681
-15659.552660	5516.615000	1891.831055	65.798958
-15659.552660	5516.615000	1890.846680	-13.332470
-15659.552660	5516.615000	1889.862305	-85.158386
-15659.552660	5516.615000	1888.877930	68.784042
-15659.552660	5516.615000	1887.892578	193.537292
-15659.552660	5516.615000	1886.908203	-48.166878
-15659.552660	5516.615000	1885.922852	-18.071100
-15659.552660	5516.615000	1884.937500	67.794243
-15659.552660	5516.615000	1883.952148	34.786518
-15659.552660	5516.615000	1882.965820	164.236725
-15659.552660	5516.615000	1881.980469	174.843033
-15659.552660	5516.615000	1880.994141	117.570732
-15659.552660	5516.615000	1880.007813	45.770809
-15659.552660	5516.615000	1879.021484	-52.662243
-15659.552660	5516.615000	1878.035156	40.304230
-15659.552660	5516.615000	1877.047852	46.035854
-15659.552660	5516.615000	1876.061523	59.021416
-15659.552660	5516.615000	1875.074219	74.413605
-15659.552660	5516.615000	1874.086914	-99.016113
-15659.552660	5516.615000	1873.098633	8.347852
-15659.552660	5516.615000	1872.111328	-97.270782
-15659.552660	5516.615000	1871.123047	94.707375
-15659.552660	5516.615000	1870.135742	56.820019
-15659.552660	5516.615000	1869.147461	120.507347
-15659.552660	5516.615000	1868.158203	48.759018
-15659.552660	5516.615000	1867.169922	-37.475578
-15659.552660	5516.615000	1866.180664	1.995157
-15659.552660	5516.615000	1865.192383	10.027381
-15659.552660	5516.615000	1864.203125	-20.611170
-15659.552660	5516.615000	1863.213867	26.052237
-15659.552660	5516.615000	1862.223633	58.196579
-15659.552660	5516.615000	1861.234375	90.320175
-15659.552660	5516.615000	1860.244141	71.721451
-15659.552660	5516.615000	1859.253906	53.120247
-15659.552660	5516.615000	1858.263672	46.582424
-15659.552660	5516.615000	1857.273438	30.385759
-15659.552660	5516.615000	1856.282227	-67.839165
-15659.552660	5516.615000	1855.291992	92.047188
-15659.552660	5516.615000	1854.300781	167.458374
-15659.552660	5516.615000	1853.309570	-32.033169
-15659.552660	5516.615000	1852.317383	-16.914095
-15659.552660	5516.615000	1851.326172	31.932268
-15659.552660	5516.615000	1850.333984	18.095665
-15659.552660	5516.615000	1849.342773	-75.251045
-15659.552660	5516.615000	1848.350586	120.484283
-15659.552660	5516.615000	1847.357422	-81.245796
-15659.552660	5516.615000	1846.365234	27.711124
-15659.552660	5516.615000	1845.372070	-15.054816
-15659.552660	5516.615000	1844.379883	45.686466
-15659.552660	5516.615000	1843.386719	12.537766
-15659.552660	5516.615000	1842.393555	22.700523
-15659.552660	5516.615000	1841.399414	20.819336
-15659.552660	5516.615000	1840.406250	45.385601
-15659.552660	5516.615000	1839.412109	91.573318
-15659.552660	5516.615000	1838.417969	-69.036629
-15659.552660	5516.615000	1837.423828	169.439972
-15659.552660	5516.615000	1836.429688	138.636383
-15659.552660	5516.615000	1835.434570	-57.970837
-15659.552660	5516.615000	1834.440430	-4.656284
-15659.552660	5516.615000	1833.445313	53.430187
-15659.552660	5516.615000	1832.450195	-10.997667
-15659.552660	5516.615000	1831.454102	128.682190
-15659.552660	5516.615000	1830.458984	109.853928
-15659.552660	5516.615000	1829.462891	40.615185
-15659.552660	5516.615000	1828.466797	-103.001892
-15659.552660	5516.615000	1827.470703	-25.839634
-15659.552660	5516.615000	1826.474609	166.427094
-15659.552660	5516.615000	1825.478516	-89.893646
-15659.552660	5516.615000	1824.481445	-115.926979
-15659.552660	5516.615000	1823.484375	35.453060
-15659.552660	5516.615000	1822.487305	157.999359
-15659.552660	5516.615000	1821.490234	81.568779
-15659.552660	5516.615000	1820.493164	33.908848
-15659.552660	5516.615000	1819.495117	-28.121241
-15659.552660	5516.615000	1818.498047	60.761898
-15659.552660	5516.615000	1817.500000	-39.591457
-15659.552660	5516.615000	1816.500977	34.866459
-15659.552660	5516.615000	1815.502930	39.862465
-15659.552660	5516.615000	1814.504883	126.220093
-15659.552660	5516.615000	1813.505859	64.166641
-15659.552660	5516.615000	1812.506836	160.030838
-15659.552660	5516.615000	1811.507813	-55.124859
-15659.552660	5516.615000	1810.508789	90.924110
-15659.552660	5516.615000	1809.508789	229.730179
-15659.552660	5516.615000	1808.508789	-9.264561
-15659.552660	5516.615000	1807.508789	-121.497192
-15659.552660	5516.615000	1806.508789	182.129410
-15659.552660	5516.615000	1805.508789	19.699678
-15659.552660	5516.615000	1804.508789	-42.346985
-15659.552660	5516.615000	1803.507813	127.296684
-15659.552660	5516.615000	1802.506836	74.777405
-15659.552660	5516.615000	1801.505859	93.891045
-15659.552660	5516.615000	1800.504883	-135.275543
-15659.552660	5516.615000	1799.502930	29.429110
-15659.552660	5516.615000	1798.501953	98.610641
-15659.552660	5516.615000	1797.500000	29.376671
-15659.552660	5516.615000	1796.498047	-44.615250
-15659.552660	5516.615000	1795.496094	84.120186
-15659.552660	5516.615000	1794.493164	-4.189450
-15659.552660	5516.615000	1793.491211	-104.397865
-15659.552660	5516.615000	1792.488281	2.781158
-15659.552660	5516.615000	1791.485352	59.861671
-15659.552660	5516.615000	1790.482422	74.019913
-15659.552660	5516.615000	1789.478516	45.278301
-15659.552660	5516.615000	1788.475586	-40.625904
-15659.552660	5516.615000	1787.471680	25.886835
-15659.552660	5516.615000	1786.467773	-38.583416
-15659.552660	5516.615000	1785.463867	37.396900
-15659.552660	5516.615000	1784.459961	72.875603
-15659.552660	5516.615000	1783.455078	-112.962845
-15659.552660	5516.615000	1782.450195	-58.467056
-15659.552660	5516.615000	1781.445313	50.699848
-15659.552660	5516.615000	1780.440430	62.309322
-15659.552660	5516.615000	1779.435547	-87.779282
-15659.552660	5516.615000	1778.429688	-64.292709
-15659.552660	5516.615000	1777.424805	73.255623
-15659.552660	5516.615000	1776.418945	44.395664
-15659.552660	5516.615000	1775.413086	-29.609289
-15659.552660	5516.615000	1774.406250	-25.214537
-15659.552660	5516.615000	1773.400391	-35.083786
-15659.552660	5516.615000	1772.393555	40.515446
-15659.552660	5516.615000	1771.386719	35.353844
-15659.552660	5516.615000	1770.379883	-48.148209
-15659.552660	5516.615000	1769.373047	51.097160
-15659.552660	5516.615000	1768.365234	-3.935733
-15659.552660	5516.615000	1767.358398	95.234100
-15659.552660	5516.615000	1766.350586	30.696898
-15659.552660	5516.615000	1765.342773	-64.657921
-15659.552660	5516.615000	1764.334961	29.678421
-15659.552660	5516.615000	1763.326172	17.292965
-15659.552660	5516.615000	1762.318359	116.287445
-15659.552660	5516.615000	1761.309570	46.992210
-15659.552660	5516.615000	1760.300781	70.101433
-15659.552660	5516.615000	1759.291016	-202.892609
-15659.552660	5516.615000	1758.282227	-111.097557
-15659.552660	5516.615000	1757.272461	-12.251512
-15659.552660	5516.615000	1756.262695	-34.189053
-15659.552660	5516.615000	1755.252930	-67.967316
-15659.552660	5516.615000	1754.243164	68.630493
-15659.552660	5516.615000	1753.233398	49.010628
-15659.552660	5516.615000	1752.222656	83.786842
-15659.552660	5516.615000	1751.211914	-106.141953
-15659.552660	5516.615000	1750.201172	56.306763
-15659.552660	5516.615000	1749.190430	-74.471992
-15659.552660	5516.615000	1748.179688	-53.941597
-15659.552660	5516.615000	1747.167969	-73.610901
-15659.552660	5516.615000	1746.156250	-50.758175
-15659.552660	5516.615000	1745.144531	24.041388
-15659.552660	5516.615000	1744.132813	-40.552528
-15659.552660	5516.615000	1743.121094	12.933224
-15659.552660	5516.615000	1742.108398	52.215317
-15659.552660	5516.615000	1741.095703	-161.107010
-15659.552660	5516.615000	1740.083008	36.287075
-15659.552660	5516.615000	1739.070313	61.338974
-15659.552660	5516.615000	1738.057617	50.978889
-15659.552660	5516.615000	1737.043945	78.344810
-15659.552660	5516.615000	1736.030273	25.503839
-15659.552660	5516.615000	1735.016602	-27.331610
-15659.552660	5516.615000	1734.002930	-30.658094
-15659.552660	5516.615000	1732.989258	-95.277840
-15659.552660	5516.615000	1731.974609	-42.067551
-15659.552660	5516.615000	1730.959961	4.038953
-15659.552660	5516.615000	1729.945313	-34.686810
-15659.552660	5516.615000	1728.930664	-23.955753
-15659.552660	5516.615000	1727.916016	-25.017839
-15659.552660	5516.615000	1726.900391	-94.368011
-15659.552660	5516.615000	1725.885742	-15.418167
-15659.552660	5516.615000	1724.870117	136.436508
-15659.552660	5516.615000	1723.853516	-45.889935
-15659.552660	5516.615000	1722.837891	-4.680392
-15659.552660	5516.615000	1721.822266	50.609722
-15659.552660	5516.615000	1720.805664	9.450249
-15659.552660	5516.615000	1719.789063	109.354317
-15659.552660	5516.615000	1718.772461	32.910347
-15659.552660	5516.615000	1717.754883	34.032963
-15659.552660	5516.615000	1716.738281	-32.998070
-15659.552660	5516.615000	1715.720703	-10.749554
-15659.552660	5516.615000	1714.703125	-23.755650
-15659.552660	5516.615000	1713.685547	-198.808792
-15659.552660	5516.615000	1712.667969	4.203882
-15659.552660	5516.615000	1711.649414	-58.140980
-15659.552660	5516.615000	1710.630859	-52.413601
-15659.552660	5516.615000	1709.612305	-58.435223
-15659.552660	5516.615000	1708.593750	-12.855189
-15659.552660	5516.615000	1707.575195	-58.787216
-15659.552660	5516.615000	1706.555664	68.826263
-15659.552660	5516.615000	1705.536133	-35.753857
-15659.552660	5516.615000	1704.516602	-62.946457
-15659.552660	5516.615000	1703.497070	15.331052
-15659.552660	5516.615000	1702.477539	-70.474487
-15659.552660	5516.615000	1701.457031	80.375099
-15659.552660	5516.615000	1700.437500	71.865082
-15659.552660	5516.615000	1699.416992	246.022034
-15659.552660	5516.615000	1698.395508	-1.394240
-15659.552660	5516.615000	1697.375000	-23.975060
-15659.552660	5516.615000	1696.354492	70.474281
-15659.552660	5516.615000	1695.333008	19.774910
-15659.552660	5516.615000	1694.311523	65.013550
-15659.552660	5516.615000	1693.290039	100.863617
-15659.552660	5516.615000	1692.267578	-3.650656
-15659.552660	5516.615000	1691.246094	191.187668
-15659.552660	5516.615000	1690.223633	4.839026
-15659.552660	5516.615000	1689.201172	49.967381
-15659.552660	5516.615000	1688.178711	-19.453554
-15659.552660	5516.615000	1687.155273	-18.763374
-15659.552660	5516.615000	1686.132813	112.743752
-15659.552660	5516.615000	1685.109375	76.010101
-15659.552660	5516.615000	1684.085938	67.301247
-15659.552660	5516.615000	1683.062500	189.335541
-15659.552660	5516.615000	1682.039063	115.219055
-15659.552660	5516.615000	1681.014648	17.776190
-15659.552660	5516.615000	1679.990234	121.040627
-15659.552660	5516.615000	1678.965820	133.263443
-15659.552660	5516.615000	1677.941406	124.475517
-15659.552660	5516.615000	1676.916992	59.707222
-15659.552660	5516.615000	1675.891602	134.851288
-15659.552660	5516.615000	1674.866211	-48.815880
-15659.552660	5516.615000	1673.840820	84.567169
-15659.552660	5516.615000	1672.815430	31.457092
-15659.552660	5516.615000	1671.790039	94.852051
-15659.552660	5516.615000	1670.763672	-11.843071
-15659.552660	5516.615000	1669.737305	142.341568
-15659.552660	5516.615000	1668.710938	159.069656
-15659.552660	5516.615000	1667.684570	33.764668
-15659.552660	5516.615000	1666.658203	124.970657
-15659.552660	5516.615000	1665.630859	111.402046
-15659.552660	5516.615000	1664.603516	221.146896
-15659.552660	5516.615000	1663.576172	-13.457757
-15659.552660	5516.615000	1662.548828	79.966637
-15659.552660	5516.615000	1661.520508	8.235543
-15659.552660	5516.615000	1660.493164	87.648582
-15659.552660	5516.615000	1659.464844	22.896620
-15659.552660	5516.615000	1658.436523	132.465714
-15659.552660	5516.615000	1657.408203	221.069870
-15659.552660	5516.615000	1656.378906	244.577255
-15659.552660	5516.615000	1655.350586	126.382317
-15659.552660	5516.615000	1654.321289	196.325729
-15659.552660	5516.615000	1653.291992	115.313049
-15659.552660	5516.615000	1652.261719	150.388199
-15659.552660	5516.615000	1651.232422	204.011581
-15659.552660	5516.615000	1650.202148	148.539001
-15659.552660	5516.615000	1649.171875	165.000061
-15659.552660	5516.615000	1648.141602	218.559433
-15659.552660	5516.615000	1647.111328	265.131836
-15659.552660	5516.615000	1646.080078	225.882721
-15659.552660	5516.615000	1645.049805	170.416199
-15659.552660	5516.615000	1644.018555	212.307175
-15659.552660	5516.615000	1642.987305	358.453949
-15659.552660	5516.615000	1641.955078	228.822784
-15659.552660	5516.615000	1640.923828	330.881561
-15659.552660	5516.615000	1639.891602	284.666107
-15659.552660	5516.615000	1638.859375	268.563538
-15659.552660	5516.615000	1637.827148	176.061310
-15659.552660	5516.615000	1636.794922	224.781647
-15659.552660	5516.615000	1635.761719	326.699585
-15659.552660	5516.615000	1634.729492	310.572601
-15659.552660	5516.615000	1633.696289	312.948669
-15659.552660	5516.615000	1632.662109	380.074097
-15659.552660	5516.615000	1631.628906	292.238586
-15659.552660	5516.615000	1630.594727	380.137146
-15659.552660	5516.615000	1629.561523	472.621490
-15659.552660	5516.615000	1628.527344	382.486694
-15659.552660	5516.615000	1627.493164	269.275696
-15659.552660	5516.615000	1626.458008	345.532776
-15659.552660	5516.615000	1625.423828	424.068268
-15659.552660	5516.615000	1624.388672	421.740204
-15659.552660	5516.615000	1623.353516	500.216461
-15659.552660	5516.615000	1622.318359	352.437714
-15659.552660	5516.615000	1621.282227	273.945770
-15659.552660	5516.615000	1620.247070	506.991455
-15659.552660	5516.615000	1619.210938	405.421021
-15659.552660	5516.615000	1618.174805	407.681732
-15659.552660	5516.615000	1617.137695	421.464844
-15659.552660	5516.615000	1616.101563	488.272614
-15659.552660	5516.615000	1615.064453	356.798523
-15659.552660	5516.615000	1614.027344	626.402832
-15659.552660	5516.615000	1612.990234	527.206909
-15659.552660	5516.615000	1611.953125	506.377930
-15659.552660	5516.615000	1610.916016	439.485840
-15659.552660	5516.615000	1609.877930	432.491516
-15659.552660	5516.615000	1608.839844	321.883209
-15659.552660	5516.615000	1607.801758	436.920410
-15659.552660	5516.615000	1606.763672	400.002258
-15659.552660	5516.615000	1605.724609	478.153015
-15659.552660	5516.615000	1604.685547	662.105591
-15659.552660	5516.615000	1603.646484	521.643921
-15659.552660	5516.615000	1602.607422	441.031403
-15659.552660	5516.615000	1601.568359	484.616333
-15659.552660	5516.615000	1600.528320	410.934235
-15659.552660	5516.615000	1599.489258	353.372681
-15659.552660	5516.615000	1598.449219	633.643127
-15659.552660	5516.615000	1597.408203	438.197479
-15659.552660	5516.615000	1596.368164	502.409088
-15659.552660	5516.615000	1595.327148	479.317566
-15659.552660	5516.615000	1594.287109	428.684021
-15659.552660	5516.615000	1593.246094	421.687195
-15659.552660	5516.615000	1592.204102	566.184753
-15659.552660	5516.615000	1591.163086	570.639954
-15659.552660	5516.615000	1590.121094	487.902374
-15659.552660	5516.615000	1589.079102	533.662537
-15659.552660	5516.615000	1588.037109	572.525635
-15659.552660	5516.615000	1586.995117	418.754120
-15659.552660	5516.615000	1585.953125	519.530212
-15659.552660	5516.615000	1584.910156	551.499451
-15659.552660	5516.615000	1583.867188	528.455688
-15659.552660	5516.615000	1582.824219	601.659485
-15659.552660	5516.615000	1581.781250	473.240417
-15659.552660	5516.615000	1580.737305	642.626160
-15659.552660	5516.615000	1579.693359	555.471924
-15659.552660	5516.615000	1578.649414	422.564606
-15659.552660	5516.615000	1577.605469	484.284271
-15659.552660	5516.615000	1576.561523	591.756653
-15659.552660	5516.615000	1575.516602	596.218933
-15659.552660	5516.615000	1574.472656	438.258850
-15659.552660	5516.615000	1573.427734	525.100647
-15659.552660	5516.615000	1572.381836	451.831543
-15659.552660	5516.615000	1571.336914	536.359863
-15659.552660	5516.615000	1570.291016	490.558441
-15659.552660	5516.615000	1569.246094	216.235031
-15659.552660	5516.615000	1568.200195	383.033997
-15659.552660	5516.615000	1567.153320	204.796829
-15659.552660	5516.615000	1566.107422	433.216553
-15659.552660	5516.615000	1565.060547	378.371124
-15659.552660	5516.615000	1564.013672	273.322479
-15659.552660	5516.615000	1562.966797	373.773407
-15659.552660	5516.615000	1561.919922	376.050873
-15659.552660	5516.615000	1560.872070	451.352142
-15659.552660	5516.615000	1559.825195	293.925781
-15659.552660	5516.615000	1558.777344	389.757568
-15659.552660	5516.615000	1557.729492	487.839600
-15659.552660	5516.615000	1556.680664	519.765137
-15659.552660	5516.615000	1555.632813	335.121674
-15659.552660	5516.615000	1554.583984	248.561935
-15659.552660	5516.615000	1553.535156	335.231293
-15659.552660	5516.615000	1552.486328	415.040161
-15659.552660	5516.615000	1551.436523	405.986664
-15659.552660	5516.615000	1550.387695	412.891479
-15659.552660	5516.615000	1549.337891	312.782074
-15659.552660	5516.615000	1548.288086	342.483429
-15659.552660	5516.615000	1547.238281	351.698395
-15659.552660	5516.615000	1546.187500	265.340698
-15659.552660	5516.615000	1545.136719	260.934052
-15659.552660	5516.615000	1544.086914	263.366364
-15659.552660	5516.615000	1543.035156	406.808289
-15659.552660	5516.615000	1541.984375	418.325378
-15659.552660	5516.615000	1540.933594	368.467712
-15659.552660	5516.615000	1539.881836	220.902069
-15659.552660	5516.615000	1538.830078	250.660324
-15659.552660	5516.615000	1537.778320	241.793961
-15659.552660	5516.615000	1536.725586	203.409744
-15659.552660	5516.615000	1535.673828	264.986206
-15659.552660	5516.615000	1534.621094	281.134125
-15659.552660	5516.615000	1533.568359	431.232971
-15659.552660	5516.615000	1532.515625	356.575470
-15659.552660	5516.615000	1531.461914	542.933472
-15659.552660	5516.615000	1530.409180	325.368835
-15659.552660	5516.615000	1529.355469	343.820618
-15659.552660	5516.615000	1528.301758	285.166290
-15659.552660	5516.615000	1527.247070	305.911194
-15659.552660	5516.615000	1526.193359	240.514511
-15659.552660	5516.615000	1525.138672	211.422256
-15659.552660	5516.615000	1524.083984	152.895630
-15659.552660	5516.615000	1523.029297	180.506119
-15659.552660	5516.615000	1521.974609	212.651398
-15659.552660	5516.615000	1520.918945	154.201584
-15659.552660	5516.615000	1519.863281	224.862656
-15659.552660	5516.615000	1518.807617	53.266155
-15659.552660	5516.615000	1517.751953	425.000671
-15659.552660	5516.615000	1516.696289	269.305634
-15659.552660	5516.615000	1515.639648	77.484390
-15659.552660	5516.615000	1514.583008	179.839493
-15659.552660	5516.615000	1513.526367	187.178268
-15659.552660	5516.615000	1512.469727	160.611252
-15659.552660	5516.615000	1511.412109	301.372528
-15659.552660	5516.615000	1510.355469	46.528206
-15659.552660	5516.615000	1509.297852	-63.563103
-15659.552660	5516.615000	1508.240234	144.996262
-15659.552660	5516.615000	1507.181641	-19.254904
-15659.552660	5516.615000	1506.124023	-11.766189
-15659.552660	5516.615000	1505.065430	104.126770
-15659.552660	5516.615000	1504.006836	30.345001
-15659.552660	5516.615000	1502.948242	-29.845198
-15659.552660	5516.615000	1501.888672	-13.263326
-15659.552660	5516.615000	1500.830078	-14.717089
-15659.552660	5516.615000	1499.770508	-45.480415
-15659.552660	5516.615000	1498.710938	20.773390
-15659.552660	5516.615000	1497.650391	39.662888
-15659.552660	5516.615000	1496.590820	268.242523
-15659.552660	5516.615000	1495.530273	-44.240982
-15659.552660	5516.615000	1494.469727	-23.035229
-15659.552660	5516.615000	1493.409180	-10.830476
-15659.552660	5516.615000	1492.348633	77.984291
-15659.552660	5516.615000	1491.287109	42.904694
-15659.552660	5516.615000	1490.225586	-34.925846
-15659.552660	5516.615000	1489.164063	-24.898266
-15659.552660	5516.615000	1488.102539	-98.139359
-15659.552660	5516.615000	1487.041016	-166.829147
-15659.552660	5516.615000	1485.978516	-46.463093
-15659.552660	5516.615000	1484.916016	-18.320753
-15659.552660	5516.615000	1483.853516	180.696182
-15659.552660	5516.615000	1482.791016	-36.320820
-15659.552660	5516.615000	1481.727539	52.542503
-15659.552660	5516.615000	1480.664063	69.455742
-15659.552660	5516.615000	1479.600586	-133.839249
-15659.552660	5516.615000	1478.537109	-76.371620
-15659.552660	5516.615000	1477.473633	-66.122177
-15659.552660	5516.615000	1476.409180	22.780977
-15659.552660	5516.615000	1475.344727	120.645004
-15659.552660	5516.615000	1474.280273	-17.205740
-15659.552660	5516.615000	1473.215820	31.319231
-15659.552660	5516.615000	1472.151367	120.157074
-15659.552660	5516.615000	1471.085938	103.575775
-15659.552660	5516.615000	1470.020508	80.462456
-15659.552660	5516.615000	1468.955078	256.570679
-15659.552660	5516.615000	1467.888672	217.756866
-15659.552660	5516.615000	1466.823242	59.938957
-15659.552660	5516.615000	1465.756836	-5.362669
-15659.552660	5516.615000	1464.690430	87.771202
-15659.552660	5516.615000	1463.624023	49.133190
-15659.552660	5516.615000	1462.556641	250.009033
-15659.552660	5516.615000	1461.490234	135.190933
-15659.552660	5516.615000	1460.422852	62.942154
-15659.552660	5516.615000	1459.355469	220.639328
-15659.552660	5516.615000	1458.287109	170.910095
-15659.552660	5516.615000	1457.219727	255.249054
-15659.552660	5516.615000	1456.151367	120.956329
-15659.552660	5516.615000	1455.083008	158.551468
-15659.552660	5516.615000	1454.014648	202.384216
-15659.552660	5516.615000	1452.945313	128.211227
-15659.552660	5516.615000	1451.876953	87.625000
-15659.552660	5516.615000	1450.807617	105.201271
-15659.552660	5516.615000	1449.738281	40.692871
-15659.552660	5516.615000	1448.668945	213.442200
-15659.552660	5516.615000	1447.598633	94.360809
-15659.552660	5516.615000	1446.528320	-8.899616
-15659.552660	5516.615000	1445.458008	39.241592
-15659.552660	5516.615000	1444.387695	100.824074
-15659.552660	5516.615000	1443.317383	38.266876
-15659.552660	5516.615000	1442.246094	-32.413822
-15659.552660	5516.615000	1441.174805	163.156174
-15659.552660	5516.615000	1440.103516	129.166870
-15659.552660	5516.615000	1439.032227	29.829330
-15659.552660	5516.615000	1437.960938	-3.883243
-15659.552660	5516.615000	1436.888672	214.527390
-15659.552660	5516.615000	1435.816406	105.714104
-15659.552660	5516.615000	1434.744141	47.417679
-15659.552660	5516.615000	1433.670898	18.810265
-15659.552660	5516.615000	1432.598633	65.414047
-15659.552660	5516.615000	1431.525391	83.944839
-15659.552660	5516.615000	1430.452148	-65.756180
-15659.552660	5516.615000	1429.378906	93.012726
-15659.552660	5516.615000	1428.304688	117.281723
-15659.552660	5516.615000	1427.231445	-54.823265
-15659.552660	5516.615000	1426.157227	-101.560303
-15659.552660	5516.615000	1425.083008	-46.562462
-15659.552660	5516.615000	1424.007813	39.199070
-15659.552660	5516.615000	1422.933594	119.596550
-15659.552660	5516.615000	1421.858398	141.826736
-15659.552660	5516.615000	1420.783203	-21.548264
-15659.552660	5516.615000	1419.708008	-130.502029
-15659.552660	5516.615000	1418.631836	-139.685303
-15659.552660	5516.615000	1417.555664	15.669010
-15659.552660	5516.615000	1416.479492	-41.213455
-15659.552660	5516.615000	1415.403320	137.834335
-15659.552660	5516.615000	1414.327148	-137.670990
-15659.552660	5516.615000	1413.250000	-30.295557
-15659.552660	5516.615000	1412.173828	-130.696503
-15659.552660	5516.615000	1411.096680	92.570518
-15659.552660	5516.615000	1410.018555	-116.368874
-15659.552660	5516.615000	1408.941406	62.103397
-15659.552660	5516.615000	1407.863281	-172.415314
-15659.552660	5516.615000	1406.785156	-120.211906
-15659.552660	5516.615000	1405.707031	-65.435791
-15659.552660	5516.615000	1404.628906	-96.083031
-15659.552660	5516.615000	1403.549805	-72.374321
-15659.552660	5516.615000	1402.470703	12.957011
-15659.552660	5516.615000	1401.391602	89.474945
-15659.552660	5516.615000	1400.312500	77.895798
-15659.552660	5516.615000	1399.233398	-52.893219
-15659.552660	5516.615000	1398.153320	-63.933464
-15659.552660	5516.615000	1397.073242	37.022049
-15659.552660	5516.615000	1395.993164	-38.575016
-15659.552660	5516.615000	1394.913086	52.558056
-15659.552660	5516.615000	1393.832031	-5.375861
-15659.552660	5516.615000	1392.750977	134.780762
-15659.552660	5516.615000	1391.669922	23.936584
-15659.552660	5516.615000	1390.588867	30.506655
-15659.552660	5516.615000	1389.506836	22.718365
-15659.552660	5516.615000	1388.425781	35.801472
-15659.552660	5516.615000	1387.343750	112.821648
-15659.552660	5516.615000	1386.261719	78.624222
-15659.552660	5516.615000	1385.178711	163.741867
-15659.552660	5516.615000	1384.096680	127.126266
-15659.552660	5516.615000	1383.013672	79.403877
-15659.552660	5516.615000	1381.930664	-98.078659
-15659.552660	5516.615000	1380.846680	-46.693817
-15659.552660	5516.615000	1379.763672	-45.054115
-15659.552660	5516.615000	1378.679688	-87.228691
-15659.552660	5516.615000	1377.595703	-122.207443
-15659.552660	5516.615000	1376.511719	-54.217445
-15659.552660	5516.615000	1375.427734	-8.228480
-15659.552660	5516.615000	1374.342773	36.336338
-15659.552660	5516.615000	1373.257813	43.291691
-15659.552660	5516.615000	1372.172852	44.720539
-15659.552660	5516.615000	1371.087891	17.791283
-15659.552660	5516.615000	1370.001953	-29.791162
-15659.552660	5516.615000	1368.916992	51.954353
-15659.552660	5516.615000	1367.831055	152.386948
-15659.552660	5516.615000	1366.744141	-1.207217
-15659.552660	5516.615000	1365.658203	28.645016
-15659.552660	5516.615000	1364.571289	66.476273
-15659.552660	5516.615000	1363.484375	9.987680
-15659.552660	5516.615000	1362.397461	113.305634
-15659.552660	5516.615000	1361.310547	160.171768
-15659.552660	5516.615000	1360.222656	119.097847
-15659.552660	5516.615000	1359.135742	71.223701
-15659.552660	5516.615000	1358.047852	93.075417
-15659.552660	5516.615000	1356.958984	151.903503
-15659.552660	5516.615000	1355.871094	104.701096
-15659.552660	5516.615000	1354.782227	137.763016
-15659.552660	5516.615000	1353.693359	26.322847
-15659.552660	5516.615000	1352.604492	212.370239
-15659.552660	5516.615000	1351.515625	99.617996
-15659.552660	5516.615000	1350.425781	192.550293
-15659.552660	5516.615000	1349.335938	-39.647762
-15659.552660	5516.615000	1348.246094	128.079407
-15659.552660	5516.615000	1347.156250	141.221939
-15659.552660	5516.615000	1346.066406	71.926689
-15659.552660	5516.615000	1344.975586	93.483627
-15659.552660	5516.615000	1343.884766	138.749603
-15659.552660	5516.615000	1342.793945	26.951078
-15659.552660	5516.615000	1341.702148	157.301407
-15659.552660	5516.615000	1340.611328	13.223165
-15659.552660	5516.615000	1339.519531	120.549461
-15659.552660	5516.615000	1338.427734	76.191704
-15659.552660	5516.615000	1337.334961	32.907303
-15659.552660	5516.615000	1336.243164	19.180609
-15659.552660	5516.615000	1335.150391	128.011932
-15659.552660	5516.615000	1334.057617	64.228600
-15659.552660	5516.615000	1332.964844	55.921280
-15659.552660	5516.615000	1331.871094	51.694187
-15659.552660	5516.615000	1330.778320	-9.639975
-15659.552660	5516.615000	1329.684570	-60.320881
-15659.552660	5516.615000	1328.590820	68.085075
-15659.552660	5516.615000	1327.496094	-35.770920
-15659.552660	5516.615000	1326.402344	70.872353
-15659.552660	5516.615000	1325.307617	47.920906
-15659.552660	5516.615000	1324.212891	62.228180
-15659.552660	5516.615000	1323.117188	45.581665
-15659.552660	5516.615000	1322.022461	12.335156
-15659.552660	5516.615000	1320.926758	5.299649
-15659.552660	5516.615000	1319.831055	61.131687
-15659.552660	5516.615000	1318.735352	-56.018982
-15659.552660	5516.615000	1317.638672	35.179199
-15659.552660	5516.615000	1316.542969	92.248711
-15659.552660	5516.615000	1315.446289	97.286430
-15659.552660	5516.615000	1314.349609	93.707077
-15659.552660	5516.615000	1313.251953	31.436510
-15659.552660	5516.615000	1312.155273	73.285126
-15659.552660	5516.615000	1311.057617	13.595580
-15659.552660	5516.615000	1309.959961	14.673104
-15659.552660	5516.615000	1308.862305	79.355423
-15659.552660	5516.615000	1307.763672	79.977211
-15659.552660	5516.615000	1306.665039	100.781128
-15659.552660	5516.615000	1305.566406	-12.663170
-15659.552660	5516.615000	1304.467773	-195.747467
-15659.552660	5516.615000	1303.369141	8.261473
-15659.552660	5516.615000	1302.269531	-64.863609
-15659.552660	5516.615000	1301.169922	57.925022
-15659.552660	5516.615000	1300.070313	62.879623
-15659.552660	5516.615000	1298.970703	-148.779770
-15659.552660	5516.615000	1297.870117	-44.819405
-15659.552660	5516.615000	1296.769531	-91.606659
-15659.552660	5516.615000	1295.668945	-9.212048
-15659.552660	5516.615000	1294.568359	-68.571793
-15659.552660	5516.615000	1293.466797	80.730568
-15659.552660	5516.615000	1292.366211	-7.218525
-15659.552660	5516.615000	1291.264648	-49.801270
-15659.552660	5516.615000	1290.162109	94.406029
-15659.552660	5516.615000	1289.060547	21.506773
-15659.552660	5516.615000	1287.958008	80.183823
-15659.552660	5516.615000	1286.855469	36.942623
-15659.552660	5516.615000	1285.752930	107.555435
-15659.552660	5516.615000	1284.650391	53.781334
-15659.552660	5516.615000	1283.546875	62.976887
-15659.552660	5516.615000	1282.444336	135.672989
-15659.552660	5516.615000	1281.339844	59.879757
-15659.552660	5516.615000	1280.236328	21.666737
-15659.552660	5516.615000	1279.132813	84.169807
-15659.552660	5516.615000	1278.028320	124.977562
-15659.552660	5516.615000	1276.923828	73.074753
-15659.552660	5516.615000	1275.819336	100.701401
-15659.552660	5516.615000	1274.713867	82.352394
-15659.552660	5516.615000	1273.608398	116.820045
-15659.552660	5516.615000	1272.503906	95.510864
-15659.552660	5516.615000	1271.397461	1.287963
-15659.552660	5516.615000	1270.291992	6.576854
-15659.552660	5516.615000	1269.185547	31.318804
-15659.552660	5516.615000	1268.080078	35.355770
-15659.552660	5516.615000	1266.972656	70.945084
-15659.552660	5516.615000	1265.866211	65.515495
-15659.552660	5516.615000	1264.759766	26.540485
-15659.552660	5516.615000	1263.652344	17.268509
-15659.552660	5516.615000	1262.544922	17.504404
-15659.552660	5516.615000	1261.436523	-38.740166
-15659.552660	5516.615000	1260.329102	-61.615170
-15659.552660	5516.615000	1259.220703	3.729620
-15659.552660	5516.615000	1258.112305	-111.924950
-15659.552660	5516.615000	1257.003906	2.378900
-15659.552660	5516.615000	1255.895508	-158.070969
-15659.552660	5516.615000	1254.786133	-84.970840
-15659.552660	5516.615000	1253.676758	-73.103386
-15659.552660	5516.615000	1252.567383	-134.644623
-15659.552660	5516.615000	1251.458008	-70.380424
-15659.552660	5516.615000	1250.347656	-133.323914
-15659.552660	5516.615000	1249.237305	-55.499039
-15659.552660	5516.615000	1248.126953	-103.388947
-15659.552660	5516.615000	1247.016602	-132.795135
-15659.552660	5516.615000	1245.905273	-82.185272
-15659.552660	5516.615000	1244.793945	-94.404648
-15659.552660	5516.615000	1243.682617	-10.236210
-15659.552660	5516.615000	1242.571289	-175.253937
-15659.552660	5516.615000	1241.459961	-72.083557
-15659.552660	5516.615000	1240.347656	-29.092564
-15659.552660	5516.615000	1239.235352	41.986473
-15659.552660	5516.615000	1238.123047	-45.680187
-15659.552660	5516.615000	1237.009766	-21.048878
-15659.552660	5516.615000	1235.897461	-16.314083
-15659.552660	5516.615000	1234.784180	-49.577194
-15659.552660	5516.615000	1233.670898	-41.345245
-15659.552660	5516.615000	1232.556641	-0.971025
-15659.552660	5516.615000	1231.443359	-32.606613
-15659.552660	5516.615000	1230.329102	37.943550
-15659.552660	5516.615000	1229.214844	43.296902
-15659.552660	5516.615000	1228.099609	-95.275780
-15659.552660	5516.615000	1226.985352	-74.234749
-15659.552660	5516.615000	1225.870117	19.329981
-15659.552660	5516.615000	1224.754883	24.686192
-15659.552660	5516.615000	1223.639648	-65.265968
-15659.552660	5516.615000	1222.523438	-1.682427
-15659.552660	5516.615000	1221.408203	84.857323
-15659.552660	5516.615000	1220.291992	68.928391
-15659.552660	5516.615000	1219.174805	36.424110
-15659.552660	5516.615000	1218.058594	-103.351753
-15659.552660	5516.615000	1216.941406	71.403488
-15659.552660	5516.615000	1215.824219	127.200722
-15659.552660	5516.615000	1214.707031	-27.680014
-15659.552660	5516.615000	1213.589844	-24.045124
-15659.552660	5516.615000	1212.471680	6.882623
-15659.552660	5516.615000	1211.353516	-15.227703
-15659.552660	5516.615000	1210.235352	-75.389038
-15659.552660	5516.615000	1209.117188	-20.064528
-15659.552660	5516.615000	1207.998047	-6.795758
-15659.552660	5516.615000	1206.878906	18.331432
-15659.552660	5516.615000	1205.759766	85.527740
-15659.552660	5516.615000	1204.640625	-85.329155
-15659.552660	5516.615000	1203.520508	-34.570866
-15659.552660	5516.615000	1202.401367	-46.033905
-15659.552660	5516.615000	1201.281250	25.428308
-15659.552660	5516.615000	1200.160156	88.819939
-15659.552660	5516.615000	1199.040039	-8.855216
-15659.552660	5516.615000	1197.918945	36.773567
-15659.552660	5516.615000	1196.797852	46.851379
-15659.552660	5516.615000	1195.676758	80.504440
-15659.552660	5516.615000	1194.555664	71.420990
-15659.552660	5516.615000	1193.433594	129.184479
-15659.552660	5516.615000	1192.311523	229.376999
-15659.552660	5516.615000	1191.189453	177.573502
-15659.552660	5516.615000	1190.066406	269.198761
-15659.552660	5516.615000	1188.944336	122.362480
-15659.552660	5516.615000	1187.821289	282.579010
-15659.552660	5516.615000	1186.698242	321.629120
-15659.552660	5516.615000	1185.574219	248.179337
-15659.552660	5516.615000	1184.451172	335.252411
-15659.552660	5516.615000	1183.327148	243.134674
-15659.552660	5516.615000	1182.203125	260.003418
-15659.552660	5516.615000	1181.078125	163.289276
-15659.552660	5516.615000	1179.954102	214.257233
-15659.552660	5516.615000	1178.829102	71.602280
-15659.552660	5516.615000	1177.704102	108.827423
-15659.552660	5516.615000	1176.579102	109.503212
-15659.552660	5516.615000	1175.453125	36.022209
-15659.552660	5516.615000	1174.327148	41.264839
-15659.552660	5516.615000	1173.201172	12.809979
-15659.552660	5516.615000	1172.075195	-89.061348
-15659.552660	5516.615000	1170.949219	-44.333260
-15659.552660	5516.615000	1169.822266	-6.175702
-15659.552660	5516.615000	1168.695313	-39.968002
-15659.552660	5516.615000	1167.568359	-110.249939
-15659.552660	5516.615000	1166.440430	-120.879448
-15659.552660	5516.615000	1165.313477	-47.275101
-15659.552660	5516.615000	1164.185547	-69.662331
-15659.552660	5516.615000	1163.057617	-45.335972
-15659.552660	5516.615000	1161.928711	42.082832
-15659.552660	5516.615000	1160.800781	56.280045
-15659.552660	5516.615000	1159.671875	28.863703
-15659.552660	5516.615000	1158.541992	-45.575603
-15659.552660	5516.615000	1157.413086	90.256027
-15659.552660	5516.615000	1156.283203	17.418756
-15659.552660	5516.615000	1155.154297	101.930138
-15659.552660	5516.615000	1154.023438	8.729847
-15659.552660	5516.615000	1152.893555	53.204941
-15659.552660	5516.615000	1151.763672	56.667854
-15659.552660	5516.615000	1150.632813	26.551620
-15659.552660	5516.615000	1149.501953	22.313414
-15659.552660	5516.615000	1148.370117	-3.624487
-15659.552660	5516.615000	1147.239258	-11.906564
-15659.552660	5516.615000	1146.107422	42.694263
-15659.552660	5516.615000	1144.975586	51.573185
-15659.552660	5516.615000	1143.843750	16.745140
-15659.552660	5516.615000	1142.710938	39.849182
-15659.552660	5516.615000	1141.578125	-19.798086
-15659.552660	5516.615000	1140.445313	49.993568
-15659.552660	5516.615000	1139.312500	-22.831703
-15659.552660	5516.615000	1138.178711	-95.948349
-15659.552660	5516.615000	1137.045898	-61.830811
-15659.552660	5516.615000	1135.912109	-94.507477
-15659.552660	5516.615000	1134.777344	-13.676799
-15659.552660	5516.615000	1133.643555	-47.778004
-15659.552660	5516.615000	1132.508789	-36.878593
-15659.552660	5516.615000	1131.374023	-33.181419
-15659.552660	5516.615000	1130.239258	136.558456
-15659.552660	5516.615000	1129.104492	78.936066
-15659.552660	5516.615000	1127.968750	-42.367126
-15659.552660	5516.615000	1126.833008	6.688733
-15659.552660	5516.615000	1125.697266	62.775349
-15659.552660	5516.615000	1124.560547	-18.343819
-15659.552660	5516.615000	1123.424805	-93.631264
-15659.552660	5516.615000	1122.288086	0.472317
-15659.552660	5516.615000	1121.151367	-90.682610
-15659.552660	5516.615000	1120.013672	-8.215908
-15659.552660	5516.615000	1118.876953	-2.783851
-15659.552660	5516.615000	1117.739258	52.864212
-15659.552660	5516.615000	1116.601563	15.891293
-15659.552660	5516.615000	1115.462891	33.979240
-15659.552660	5516.615000	1114.324219	174.447815
-15659.552660	5516.615000	1113.186523	77.116364
-15659.552660	5516.615000	1112.046875	23.437414
-15659.552660	5516.615000	1110.908203	147.795532
-15659.552660	5516.615000	1109.769531	112.869125
-15659.552660	5516.615000	1108.629883	20.315107
-15659.552660	5516.615000	1107.490234	-71.354797
-15659.552660	5516.615000	1106.349609	13.549019
-15659.552660	5516.615000	1105.209961	26.334909
-15659.552660	5516.615000	1104.069336	35.827999
-15659.552660	5516.615000	1102.928711	66.579147
-15659.552660	5516.615000	1101.787109	171.402405
-15659.552660	5516.615000	1100.646484	41.486622
-15659.552660	5516.615000	1099.504883	166.602142
-15659.552660	5516.615000	1098.363281	164.190994
-15659.552660	5516.615000	1097.221680	123.218849
-15659.552660	5516.615000	1096.079102	175.664291
-15659.552660	5516.615000	1094.936523	143.608063
-15659.552660	5516.615000	1093.793945	143.419159
-15659.552660	5516.615000	1092.651367	78.531548
-15659.552660	5516.615000	1091.507813	208.643005
-15659.552660	5516.615000	1090.364258	99.287430
-15659.552660	5516.615000	1089.220703	25.231812
-15659.552660	5516.615000	1088.077148	-12.620647
-15659.552660	5516.615000	1086.933594	156.077118
-15659.552660	5516.615000	1085.789063	2.556983
-15659.552660	5516.615000	1084.644531	90.393967
-15659.552660	5516.615000	1083.499023	68.753029
-15659.552660	5516.615000	1082.354492	28.591019
-15659.552660	5516.615000	1081.208984	-59.688782
-15659.552660	5516.615000	1080.063477	221.325607
-15659.552660	5516.615000	1078.917969	67.814255
-15659.552660	5516.615000	1077.771484	59.320011
-15659.552660	5516.615000	1076.625977	110.435608
-15659.552660	5516.615000	1075.479492	-37.246830
-15659.552660	5516.615000	1074.332031	134.852158
-15659.552660	5516.615000	1073.185547	141.053894
-15659.552660	5516.615000	1072.038086	121.289795
-15659.552660	5516.615000	1070.890625	48.944126
-15659.552660	5516.615000	1069.743164	9.503127
-15659.552660	5516.615000	1068.594727	141.780060
-15659.552660	5516.615000	1067.447266	155.161850
-15659.552660	5516.615000	1066.298828	99.580727
-15659.552660	5516.615000	1065.149414	151.235794
-15659.552660	5516.615000	1064.000977	230.504807
-15659.552660	5516.615000	1062.851563	287.433197
-15659.552660	5516.615000	1061.702148	314.841858
-15659.552660	5516.615000	1060.552734	354.110657
-15659.552660	5516.615000	1059.402344	412.927704
-15659.552660	5516.615000	1058.252930	303.552795
-15659.552660	5516.615000	1057.102539	317.682526
-15659.552660	5516.615000	1055.951172	257.280701
-15659.552660	5516.615000	1054.800781	252.047073
-15659.552660	5516.615000	1053.649414	302.162140
-15659.552660	5516.615000	1052.498047	383.362946
-15659.552660	5516.615000	1051.346680	178.937073
-15659.552660	5516.615000	1050.194336	261.439728
-15659.552660	5516.615000	1049.042969	79.871147
-15659.552660	5516.615000	1047.890625	225.138214
-15659.552660	5516.615000	1046.738281	91.945885
-15659.552660	5516.615000	1045.584961	59.630577
-15659.552660	5516.615000	1044.431641	-79.959671
-15659.552660	5516.615000	1043.278320	36.964169
-15659.552660	5516.615000	1042.125000	73.814178
-15659.552660	5516.615000	1040.971680	-30.197763
-15659.552660	5516.615000	1039.817383	48.830151
-15659.552660	5516.615000	1038.663086	1.153752
-15659.552660	5516.615000	1037.508789	-54.767998
-15659.552660	5516.615000	1036.353516	31.556015
-15659.552660	5516.615000	1035.198242	36.357750
-15659.552660	5516.615000	1034.042969	129.159653
-15659.552660	5516.615000	1032.887695	139.511520
-15659.552660	5516.615000	1031.732422	253.506088
-15659.552660	5516.615000	1030.576172	56.340492
-15659.552660	5516.615000	1029.419922	118.349289
-15659.552660	5516.615000	1028.263672	164.469986
-15659.552660	5516.615000	1027.106445	82.515854
-15659.552660	5516.615000	1025.949219	46.050526
-15659.552660	5516.615000	1024.792969	-6.609353
-15659.552660	5516.615000	1023.634766	106.347527
-15659.552660	5516.615000	1022.477539	-116.984871
-15659.552660	5516.615000	1021.319336	-92.947876
-15659.552660	5516.615000	1020.161133	87.199486
-15659.552660	5516.615000	1019.002930	162.578323
-15659.552660	5516.615000	1017.843750	171.663406
-15659.552660	5516.615000	1016.684570	-39.904331
-15659.552660	5516.615000	1015.525391	67.253540
-15659.552660	5516.615000	1014.366211	-161.125656
-15659.552660	5516.615000	1013.207031	-107.406654
-15659.552660	5516.615000	1012.046875	-67.454582
-15659.552660	5516.615000	1010.886719	-110.247574
-15659.552660	5516.615000	1009.726563	28.626019
-15659.552660	5516.615000	1008.565430	64.077385
-15659.552660	5516.615000	1007.404297	120.103561
-15659.552660	5516.615000	1006.243164	139.655243
-15659.552660	5516.615000	1005.082031	29.279823
-15659.552660	5516.615000	1003.920898	3.011514
-15659.552660	5516.615000	1002.758789	122.858604
-15659.552660	5516.615000	1001.596680	6.568697
-15659.552660	5516.615000	1000.433594	-13.829931
-15659.552660	5516.615000	999.271484	-31.737017
-15659.552660	5516.615000	998.108398	-42.648289
-15659.552660	5516.615000	996.945313	-11.010418
-15659.552660	5516.615000	995.782227	-6.094357
-15659.552660	5516.615000	994.618164	16.007500
-15659.552660	5516.615000	993.454102	-22.302835
-15659.552660	5516.615000	992.290039	-6.237719
-15659.552660	5516.615000	991.125977	89.775162
-15659.552660	5516.615000	989.960938	46.157509
-15659.552660	5516.615000	988.796875	151.819458
-15659.552660	5516.615000	987.630859	111.031845
-15659.552660	5516.615000	986.465820	144.942383
-15659.552660	5516.615000	985.300781	64.503044
-15659.552660	5516.615000	984.134766	74.792206
-15659.552660	5516.615000	982.968750	-38.670296
-15659.552660	5516.615000	981.801758	-2.790470
-15659.552660	5516.615000	980.635742	24.827362
-15659.552660	5516.615000	979.468750	189.860352
-15659.552660	5516.615000	978.301758	111.833282
-15659.552660	5516.615000	977.133789	-118.485115
-15659.552660	5516.615000	975.966797	-74.707817
-15659.552660	5516.615000	974.798828	-65.517654
-15659.552660	5516.615000	973.630859	34.537960
-15659.552660	5516.615000	972.461914	51.753086
-15659.552660	5516.615000	971.293945	5.630593
-15659.552660	5516.615000	970.125000	99.116936
-15659.552660	5516.615000	968.956055	111.915245
-15659.552660	5516.615000	967.786133	62.014355
-15659.552660	5516.615000	966.617188	-18.347395
-15659.552660	5516.615000	965.447266	-4.437041
-15659.552660	5516.615000	964.276367	86.817711
-15659.552660	5516.615000	963.106445	101.387207
-15659.552660	5516.615000	961.935547	-20.234423
-15659.552660	5516.615000	960.764648	49.665325
-15659.552660	5516.615000	959.593750	89.395607
-15659.552660	5516.615000	958.422852	-109.348190
-15659.552660	5516.615000	957.250977	-54.570023
-15659.552660	5516.615000	956.079102	-14.340520
-15659.552660	5516.615000	954.907227	-70.002869
-15659.552660	5516.615000	953.734375	-18.185093
-15659.552660	5516.615000	952.562500	105.478439
-15659.552660	5516.615000	951.389648	-5.378749
-15659.552660	5516.615000	950.215820	-37.904087
-15659.552660	5516.615000	949.042969	-21.071701
-15659.552660	5516.615000	947.869141	102.639053
-15659.552660	5516.615000	946.695313	133.353943
-15659.552660	5516.615000	945.521484	142.976868
-15659.552660	5516.615000	944.346680	-43.123718
-15659.552660	5516.615000	943.172852	-63.507755
-15659.552660	5516.615000	941.998047	48.538151
-15659.552660	5516.615000	940.822266	-72.248650
-15659.552660	5516.615000	939.647461	-6.602831
-15659.552660	5516.615000	938.471680	-8.757849
-15659.552660	5516.615000	937.295898	61.342354
-15659.552660	5516.615000	936.119141	-133.854263
-15659.552660	5516.615000	934.943359	8.261970
-15659.552660	5516.615000	933.766602	80.601540
-15659.552660	5516.615000	932.589844	-16.932762
-15659.552660	5516.615000	931.413086	29.855427
-15659.552660	5516.615000	930.235352	46.322701
-15659.552660	5516.615000	929.057617	60.442680
-15659.552660	5516.615000	927.879883	-27.736210
-15659.552660	5516.615000	926.702148	9.598125
-15659.552660	5516.615000	925.523438	84.104958
-15659.552660	5516.615000	924.344727	16.849760
-15659.552660	5516.615000	923.166016	93.624115
-15659.552660	5516.615000	921.987305	44.945198
-15659.552660	5516.615000	920.807617	56.648014
-15659.552660	5516.615000	919.627930	57.781967
-15659.552660	5516.615000	919.497070	33.635021
-15659.552660	5516.615000	918.331055	-31.302050
-15659.552660	5516.615000	917.165039	-12.682002
-15659.552660	5516.615000	915.999023	19.838499
-15659.552660	5516.615000	914.833008	-59.015369
-15659.552660	5516.615000	913.666016	47.691910
-15659.552660	5516.615000	912.499023	61.590374
-15659.552660	5516.615000	911.332031	-47.400955
-15659.552660	5516.615000	910.165039	-56.694115
-15659.552660	5516.615000	908.997070	29.016977
-15659.552660	5516.615000	907.830078	-5.799553
-15659.552660	5516.615000	906.661133	79.840759
-15659.552660	5516.615000	905.493164	174.696274
-15659.552660	5516.615000	904.325195	-19.936232
-15659.552660	5516.615000	903.156250	-154.310776
-15659.552660	5516.615000	901.987305	-54.873909
-15659.552660	5516.615000	900.818359	-1.772028
-15659.552660	5516.615000	899.648438	37.414619
-15659.552660	5516.615000	898.478516	67.320099
-15659.552660	5516.615000	897.308594	-9.181981
-15659.552660	5516.615000	896.138672	50.754143
-15659.552660	5516.615000	894.968750	-21.114628
-15659.552660	5516.615000	893.797852	1.795475
-15659.552660	5516.615000	892.626953	119.425697
-15659.552660	5516.615000	891.456055	15.206270
-15659.552660	5516.615000	890.284180	35.748764
-15659.552660	5516.615000	889.113281	157.881989
-15659.552660	5516.615000	887.941406	208.378296
-15659.552660	5516.615000	886.768555	74.168884
-15659.552660	5516.615000	885.596680	-57.690830
-15659.552660	5516.615000	884.423828	-67.211250
-15659.552660	5516.615000	883.250977	137.811142
-15659.552660	5516.615000	882.078125	162.828568
-15659.552660	5516.615000	880.905273	206.272690
-15659.552660	5516.615000	879.731445	21.433712
-15659.552660	5516.615000	878.557617	23.373581
-15659.552660	5516.615000	877.383789	170.493225
-15659.552660	5516.615000	876.209961	98.644753
-15659.552660	5516.615000	875.035156	29.117794
-15659.552660	5516.615000	873.860352	171.505600
-15659.552660	5516.615000	872.685547	92.757927
-15659.552660	5516.615000	871.510742	195.911911
-15659.552660	5516.615000	870.334961	4.380219
-15659.552660	5516.615000	869.159180	123.596939
-15659.552660	5516.615000	867.983398	-21.847075
-15659.552660	5516.615000	866.807617	-22.317989
-15659.552660	5516.615000	865.630859	-43.498413
-15659.552660	5516.615000	864.454102	18.098509
-15659.552660	5516.615000	863.277344	-12.300621
-15659.552660	5516.615000	862.100586	-67.982391
-15659.552660	5516.615000	860.922852	-135.142166
-15659.552660	5516.615000	859.745117	-87.407280
-15659.552660	5516.615000	858.567383	31.507423
-15659.552660	5516.615000	857.389648	-10.402412
-15659.552660	5516.615000	856.210938	51.021336
-15659.552660	5516.615000	855.032227	-20.741737
-15659.552660	5516.615000	853.853516	13.094038
-15659.552660	5516.615000	852.674805	97.389030
-15659.552660	5516.615000	851.495117	18.744682
-15659.552660	5516.615000	850.315430	36.461422
-15659.552660	5516.615000	849.135742	17.466024
-15659.552660	5516.615000	847.956055	60.374710
-15659.552660	5516.615000	846.775391	-80.136421
-15659.552660	5516.615000	845.595703	70.472542
-15659.552660	5516.615000	844.415039	-72.296799
-15659.552660	5516.615000	843.233398	-89.014305
-15659.552660	5516.615000	842.052734	29.403442
-15659.552660	5516.615000	840.871094	67.610329
-15659.552660	5516.615000	839.689453	105.790138
-15659.552660	5516.615000	838.506836	-171.952377
-15659.552660	5516.615000	837.325195	-33.061573
-15659.552660	5516.615000	836.142578	-31.528677
-15659.552660	5516.615000	834.959961	70.650452
-15659.552660	5516.615000	833.777344	24.107153
-15659.552660	5516.615000	832.593750	-52.155449
-15659.552660	5516.615000	831.410156	-64.382225
-15659.552660	5516.615000	830.226563	115.391655
-15659.552660	5516.615000	829.042969	41.408859
-15659.552660	5516.615000	827.858398	-23.415926
-15659.552660	5516.615000	826.673828	16.857040
-15659.552660	5516.615000	825.489258	-36.538868
-15659.552660	5516.615000	824.304688	-110.475258
-15659.552660	5516.615000	823.120117	153.487289
-15659.552660	5516.615000	821.934570	95.496346
-15659.552660	5516.615000	820.749023	62.620571
-15659.552660	5516.615000	819.562500	54.843929
-15659.552660	5516.615000	818.376953	-41.904148
-15659.552660	5516.615000	817.190430	123.647499
-15659.552660	5516.615000	816.003906	45.142773
-15659.552660	5516.615000	814.817383	-204.317307
-15659.552660	5516.615000	813.629883	-13.798619
-15659.552660	5516.615000	812.442383	-39.851112
-15659.552660	5516.615000	811.254883	9.278106
-15659.552660	5516.615000	810.067383	3.708124
-15659.552660	5516.615000	808.878906	-154.452698
-15659.552660	5516.615000	807.690430	-64.383629
-15659.552660	5516.615000	806.501953	66.611542
-15659.552660	5516.615000	805.313477	-57.362743
-15659.552660	5516.615000	804.124023	-10.639569
-15659.552660	5516.615000	802.934570	-20.822515
-15659.552660	5516.615000	801.745117	-19.641134
-15659.552660	5516.615000	800.555664	31.555384
-15659.552660	5516.615000	799.365234	-171.920578
-15659.552660	5516.615000	798.175781	-73.004059
-15659.552660	5516.615000	796.985352	-40.047295
-15659.552660	5516.615000	795.793945	45.141991
-15659.552660	5516.615000	794.603516	59.860771
-15659.552660	5516.615000	793.412109	45.035042
-15659.552660	5516.615000	792.220703	9.765399
-15659.552660	5516.615000	791.028320	17.632198
-15659.552660	5516.615000	789.836914	150.320679
-15659.552660	5516.615000	788.644531	110.472542
-15659.552660	5516.615000	787.452148	45.669407
-15659.552660	5516.615000	786.258789	-37.267715
-15659.552660	5516.615000	785.066406	-29.467480
-15659.552660	5516.615000	783.873047	-96.509933
-15659.552660	5516.615000	782.679688	-45.656219
-15659.552660	5516.615000	781.485352	-60.566818
-15659.552660	5516.615000	780.291992	37.816715
-15659.552660	5516.615000	779.097656	2.476731
-15659.552660	5516.615000	777.903320	-107.611061
-15659.552660	5516.615000	776.708008	-77.261482
-15659.552660	5516.615000	775.512695	-6.184853
-15659.552660	5516.615000	774.318359	76.166870
-15659.552660	5516.615000	773.122070	31.728741
-15659.552660	5516.615000	771.926758	71.015678
-15659.552660	5516.615000	770.730469	19.779888
-15659.552660	5516.615000	769.534180	20.571358
-15659.552660	5516.615000	768.337891	73.358238
-15659.552660	5516.615000	767.141602	6.281518
-15659.552660	5516.615000	765.944336	97.444229
-15659.552660	5516.615000	764.747070	186.292877
-15659.552660	5516.615000	763.549805	94.333221
-15659.552660	5516.615000	762.351563	106.307869
-15659.552660	5516.615000	761.154297	292.167236
-15659.552660	5516.615000	759.956055	218.257980
-15659.552660	5516.615000	758.757813	78.893417
-15659.552660	5516.615000	757.558594	237.506516
-15659.552660	5516.615000	756.359375	163.604431
-15659.552660	5516.615000	755.160156	107.765167
-15659.552660	5516.615000	753.960938	153.438278
-15659.552660	5516.615000	752.761719	201.330185
-15659.552660	5516.615000	751.561523	50.766872
-15659.552660	5516.615000	750.361328	200.067078
-15659.552660	5516.615000	749.160156	166.728638
-15659.552660	5516.615000	747.959961	142.399963
-15659.552660	5516.615000	746.758789	187.902069
-15659.552660	5516.615000	745.557617	154.532730
-15659.552660	5516.615000	744.356445	190.969040
-15659.552660	5516.615000	743.154297	283.657013
-15659.552660	5516.615000	741.952148	103.918877
-15659.552660	5516.615000	740.750000	86.274025
-15659.552660	5516.615000	739.547852	196.870255
-15659.552660	5516.615000	738.344727	251.160843
-15659.552660	5516.615000	737.142578	152.471207
-15659.552660	5516.615000	735.939453	170.731461
-15659.552660	5516.615000	734.735352	139.504395
-15659.552660	5516.615000	733.532227	184.693176
-15659.552660	5516.615000	732.328125	-8.364011
-15659.552660	5516.615000	731.124023	256.977966
-15659.552660	5516.615000	729.918945	169.520416
-15659.552660	5516.615000	728.714844	19.197363
-15659.552660	5516.615000	727.509766	163.056366
-15659.552660	5516.615000	726.303711	93.569893
-15659.552660	5516.615000	725.098633	102.647171
-15659.552660	5516.615000	723.892578	91.502640
-15659.552660	5516.615000	722.686523	-18.370802
-15659.552660	5516.615000	721.480469	105.052071
-15659.552660	5516.615000	720.274414	154.398544
-15659.552660	5516.615000	719.067383	174.554733
-15659.552660	5516.615000	717.860352	75.875900
-15659.552660	5516.615000	716.653320	82.548874
-15659.552660	5516.615000	715.445313	-0.429913
-15659.552660	5516.615000	714.238281	-4.989310
-15659.552660	5516.615000	713.030273	-16.289196
-15659.552660	5516.615000	711.821289	104.506645
-15659.552660	5516.615000	710.613281	-157.600327
-15659.552660	5516.615000	709.404297	21.324602
-15659.552660	5516.615000	708.195313	-90.767456
-15659.552660	5516.615000	706.986328	-86.492859
-15659.552660	5516.615000	705.776367	132.497192
-15659.552660	5516.615000	704.566406	2.488796
-15659.552660	5516.615000	703.356445	-8.983508
-15659.552660	5516.615000	702.146484	19.763718
-15659.552660	5516.615000	700.935547	1.538191
-15659.552660	5516.615000	699.724609	61.505009
-15659.552660	5516.615000	698.513672	38.760700
-15659.552660	5516.615000	697.302734	11.534128
-15659.552660	5516.615000	696.090820	44.587528
-15659.552660	5516.615000	694.878906	-9.472521
-15659.552660	5516.615000	693.666992	99.415855
-15659.552660	5516.615000	692.455078	-21.635675
-15659.552660	5516.615000	691.242188	-35.562698
-15659.552660	5516.615000	690.029297	-49.509525
-15659.552660	5516.615000	688.816406	1.203388
-15659.552660	5516.615000	687.602539	31.798115
-15659.552660	5516.615000	686.389648	-66.949196
-15659.552660	5516.615000	685.175781	17.088800
-15659.552660	5516.615000	683.960938	25.295715
-15659.552660	5516.615000	682.747070	51.297916
-15659.552660	5516.615000	681.532227	75.033188
-15659.552660	5516.615000	680.317383	45.282684
-15659.552660	5516.615000	679.102539	-33.467388
-15659.552660	5516.615000	677.886719	88.136726
-15659.552660	5516.615000	676.670898	31.610617
-15659.552660	5516.615000	675.455078	204.273514
-15659.552660	5516.615000	674.239258	143.242477
-15659.552660	5516.615000	673.022461	-62.367580
-15659.552660	5516.615000	671.805664	-81.122993
-15659.552660	5516.615000	670.588867	140.217331
-15659.552660	5516.615000	669.372070	83.582993
-15659.552660	5516.615000	668.154297	133.615662
-15659.552660	5516.615000	666.936523	-40.812431
-15659.552660	5516.615000	665.718750	111.353317
-15659.552660	5516.615000	664.500977	39.109871
-15659.552660	5516.615000	663.282227	117.859589
-15659.552660	5516.615000	662.063477	-29.894829
-15659.552660	5516.615000	660.844727	90.949554
-15659.552660	5516.615000	659.625000	65.252556
-15659.552660	5516.615000	658.405273	152.685898
-15659.552660	5516.615000	657.185547	49.292961
-15659.552660	5516.615000	655.965820	78.975037
-15659.552660	5516.615000	654.745117	35.444885
-15659.552660	5516.615000	653.525391	164.810944
-15659.552660	5516.615000	652.303711	274.141754
-15659.552660	5516.615000	651.083008	44.381813
-15659.552660	5516.615000	649.861328	-10.302145
-15659.552660	5516.615000	648.640625	34.678474
-15659.552660	5516.615000	647.417969	10.958846
-15659.552660	5516.615000	646.196289	24.858292
-15659.552660	5516.615000	644.973633	-27.684189
-15659.552660	5516.615000	643.750977	21.563005
-15659.552660	5516.615000	642.528320	-35.442146
-15659.552660	5516.615000	641.305664	-32.728001
-15659.552660	5516.615000	640.082031	42.934586
-15659.552660	5516.615000	638.858398	-7.499052
-15659.552660	5516.615000	637.634766	90.171761
-15659.552660	5516.615000	636.410156	172.297180
-15659.552660	5516.615000	635.185547	128.403458
-15659.552660	5516.615000	633.960938	-43.638340
-15659.552660	5516.615000	632.736328	-38.936111
-15659.552660	5516.615000	631.510742	-85.059692
-15659.552660	5516.615000	630.285156	58.679863
-15659.552660	5516.615000	629.059570	-73.593910
-15659.552660	5516.615000	627.833984	-60.186157
-15659.552660	5516.615000	626.607422	-11.514446
-15659.552660	5516.615000	625.380859	8.428143
-15659.552660	5516.615000	624.154297	63.619667
-15659.552660	5516.615000	622.927734	-22.365131
-15659.552660	5516.615000	621.700195	-22.368198
-15659.552660	5516.615000	620.472656	83.394348
-15659.552660	5516.615000	619.245117	1.773139
-15659.552660	5516.615000	618.016602	-51.205658
-15659.552660	5516.615000	616.788086	-66.746849
-15659.552660	5516.615000	615.559570	27.799528
-15659.552660	5516.615000	614.331055	16.590773
-15659.552660	5516.615000	613.101563	-14.457865
-15659.552660	5516.615000	611.872070	-58.728813
-15659.552660	5516.615000	610.642578	88.420097
-15659.552660	5516.615000	609.413086	-43.909966
-15659.552660	5516.615000	608.182617	144.898804
-15659.552660	5516.615000	606.952148	-40.224857
-15659.552660	5516.615000	605.721680	34.121483
-15659.552660	5516.615000	604.491211	-32.266659
-15659.552660	5516.615000	603.259766	-10.757366
-15659.552660	5516.615000	602.028320	-90.352974
-15659.552660	5516.615000	600.796875	80.470085
-15659.552660	5516.615000	599.564453	-89.215416
-15659.552660	5516.615000	598.332031	88.059464
-15659.552660	5516.615000	597.099609	43.513123
-15659.552660	5516.615000	595.867188	62.604206
-15659.552660	5516.615000	594.633789	171.620270
-15659.552660	5516.615000	593.400391	48.017166
-15659.552660	5516.615000	592.166992	18.751608
-15659.552660	5516.615000	590.933594	77.184593
-15659.552660	5516.615000	589.699219	1.824311
-15659.552660	5516.615000	588.464844	29.489040
-15659.552660	5516.615000	587.230469	-41.503174
-15659.552660	5516.615000	585.995117	47.448097
-15659.552660	5516.615000	584.760742	-23.573301
-15659.552660	5516.615000	583.525391	157.263184
-15659.552660	5516.615000	582.289063	64.290688
-15659.552660	5516.615000	581.053711	19.495056
-15659.552660	5516.615000	579.817383	197.932800
-15659.552660	5516.615000	578.581055	54.600124
-15659.552660	5516.615000	577.343750	235.085159
-15659.552660	5516.615000	576.107422	122.374374
-15659.552660	5516.615000	574.870117	134.329849
-15659.552660	5516.615000	573.631836	279.617737
-15659.552660	5516.615000	572.394531	175.630905
-15659.552660	5516.615000	571.156250	141.592163
-15659.552660	5516.615000	569.917969	234.269348
-15659.552660	5516.615000	568.679688	222.026001
-15659.552660	5516.615000	567.440430	102.743050
-15659.552660	5516.615000	566.202148	149.439087
-15659.552660	5516.615000	564.961914	130.590942
-15659.552660	5516.615000	563.722656	26.608007
-15659.552660	5516.615000	562.482422	73.209435
-15659.552660	5516.615000	561.243164	52.138535
-15659.552660	5516.615000	560.001953	135.744019
-15659.552660	5516.615000	558.761719	81.906715
-15659.552660	5516.615000	557.520508	104.374916
-15659.552660	5516.615000	556.279297	163.867874
-15659.552660	5516.615000	555.038086	197.160278
-15659.552660	5516.615000	553.795898	247.842880
-15659.552660	5516.615000	552.554688	137.282318
-15659.552660	5516.615000	551.311523	131.281555
-15659.552660	5516.615000	550.069336	105.667572
-15659.552660	5516.615000	548.826172	14.728479
-15659.552660	5516.615000	547.583984	-39.187523
-15659.552660	5516.615000	546.339844	-88.756645
-15659.552660	5516.615000	545.096680	-170.955933
-15659.552660	5516.615000	543.852539	23.099794
-15659.552660	5516.615000	542.608398	80.047447
-15659.552660	5516.615000	541.364258	-123.956436
-15659.552660	5516.615000	540.119141	-167.038544
-15659.552660	5516.615000	538.875000	-97.106339
-15659.552660	5516.615000	537.628906	-111.971573
-15659.552660	5516.615000	536.383789	81.700989
-15659.552660	5516.615000	535.137695	62.422321
-15659.552660	5516.615000	533.892578	-121.891228
-15659.552660	5516.615000	532.645508	2.125183
-15659.552660	5516.615000	531.399414	-21.519716
-15659.552660	5516.615000	530.152344	-47.345837
-15659.552660	5516.615000	528.905273	-123.078926
-15659.552660	5516.615000	527.658203	91.863289
-15659.552660	5516.615000	526.410156	87.659637
-15659.552660	5516.615000	525.163086	-116.026794
-15659.552660	5516.615000	523.914063	-148.401260
-15659.552660	5516.615000	522.666016	-133.094971
-15659.552660	5516.615000	521.416992	-182.818924
-15659.552660	5516.615000	520.167969	27.419914
-15659.552660	5516.615000	518.918945	18.802412
-15659.552660	5516.615000	517.669922	-102.427086
-15659.552660	5516.615000	516.419922	55.650364
-15659.552660	5516.615000	515.169922	-28.773470
-15659.552660	5516.615000	513.919922	81.582359
-15659.552660	5516.615000	512.668945	-69.914047
-15659.552660	5516.615000	511.417969	-54.804794
-15659.552660	5516.615000	510.166992	-85.131241
-15659.552660	5516.615000	508.916016	18.592596
-15659.552660	5516.615000	507.664063	16.332392
-15659.552660	5516.615000	506.412109	85.378067
-15659.552660	5516.615000	505.160156	3.129147
-15659.552660	5516.615000	503.907227	-42.378452
-15659.552660	5516.615000	502.655273	28.752911
-15659.552660	5516.615000	501.402344	52.330311
-15659.552660	5516.615000	500.148438	0.319100
-15659.552660	5516.615000	498.895508	138.260483
-15659.552660	5516.615000	497.641602	181.174332
-15659.552660	5516.615000	496.387695	191.694244
-15659.552660	5516.615000	495.132813	212.976135
-15659.552660	5516.615000	493.878906	74.654930
-15659.552660	5516.615000	492.624023	76.519890
-15659.552660	5516.615000	491.368164	117.167587
-15659.552660	5516.615000	490.113281	37.098221
-15659.552660	5516.615000	488.857422	211.299164
-15659.552660	5516.615000	487.601563	148.444977
-15659.552660	5516.615000	486.344727	180.365158
-15659.552660	5516.615000	485.088867	3.389952
-15659.552660	5516.615000	483.832031	-55.121841
-15659.552660	5516.615000	482.575195	151.118042
-15659.552660	5516.615000	481.317383	133.450699
-15659.552660	5516.615000	480.059570	216.892868
-15659.552660	5516.615000	478.801758	-24.515234
-15659.552660	5516.615000	477.543945	114.805641
-15659.552660	5516.615000	476.285156	125.042107
-15659.552660	5516.615000	475.027344	105.166443
-15659.552660	5516.615000	473.767578	240.010162
-15659.552660	5516.615000	472.508789	155.618286
-15659.552660	5516.615000	471.249023	28.274879
-15659.552660	5516.615000	469.989258	-13.123083
-15659.552660	5516.615000	468.729492	119.406242
-15659.552660	5516.615000	467.469727	129.489197
-15659.552660	5516.615000	466.208984	161.005859
-15659.552660	5516.615000	464.948242	158.152435
-15659.552660	5516.615000	463.686523	32.984173
-15659.552660	5516.615000	462.425781	308.958130
-15659.552660	5516.615000	461.164063	48.660534
-15659.552660	5516.615000	459.901367	155.074402
-15659.552660	5516.615000	458.639648	338.589355
-15659.552660	5516.615000	457.376953	273.393433
-15659.552660	5516.615000	456.114258	319.614777
-15659.552660	5516.615000	454.851563	151.568756
-15659.552660	5516.615000	453.587891	187.023468
-15659.552660	5516.615000	452.324219	252.409195
-15659.552660	5516.615000	451.060547	197.849228
-15659.552660	5516.615000	449.796875	226.751999
-15659.552660	5516.615000	448.532227	221.363831
-15659.552660	5516.615000	447.267578	239.475189
-15659.552660	5516.615000	446.002930	287.485046
-15659.552660	5516.615000	444.737305	414.553528
-15659.552660	5516.615000	443.471680	314.895844
-15659.552660	5516.615000	442.206055	253.714417
-15659.552660	5516.615000	440.940430	320.740021
-15659.552660	5516.615000	439.673828	146.246658
-15659.552660	5516.615000	438.407227	294.340454
-15659.552660	5516.615000	437.140625	30.130390
-15659.552660	5516.615000	435.873047	88.397926
-15659.552660	5516.615000	434.605469	212.763748
-15659.552660	5516.615000	433.337891	176.945465
-15659.552660	5516.615000	432.070313	337.398407
-15659.552660	5516.615000	430.801758	126.505623
-15659.552660	5516.615000	429.533203	252.643509
-15659.552660	5516.615000	428.264648	353.070831
-15659.552660	5516.615000	426.996094	82.417435
-15659.552660	5516.615000	425.726563	223.192276
-15659.552660	5516.615000	424.457031	253.015732
-15659.552660	5516.615000	423.186523	252.915039
-15659.552660	5516.615000	421.916992	239.959488
-15659.552660	5516.615000	420.646484	165.159744
-15659.552660	5516.615000	419.375977	169.088135
-15659.552660	5516.615000	418.104492	236.782532
-15659.552660	5516.615000	416.833008	117.064201
-15659.552660	5516.615000	415.561523	207.958054
-15659.552660	5516.615000	414.290039	-69.325020
-15659.552660	5516.615000	413.017578	159.610977
-15659.552660	5516.615000	411.746094	58.744755
-15659.552660	5516.615000	410.472656	-54.957424
-15659.552660	5516.615000	409.200195	48.086063
-15659.552660	5516.615000	407.926758	-38.173298
-15659.552660	5516.615000	406.653320	70.946297
-15659.552660	5516.615000	405.379883	224.497665
-15659.552660	5516.615000	404.105469	207.947617
-15659.552660	5516.615000	402.831055	138.186340
-15659.552660	5516.615000	401.556641	0.384907
-15659.552660	5516.615000	400.282227	246.634186
-15659.552660	5516.615000	399.006836	176.462021
-15659.552660	5516.615000	397.731445	118.890793
-15659.552660	5516.615000	396.456055	156.623734
-15659.552660	5516.615000	395.179688	192.043839
-15659.552660	5516.615000	393.903320	214.554260
-15659.552660	5516.615000	392.626953	39.757179
-15659.552660	5516.615000	391.350586	208.141861
-15659.552660	5516.615000	390.073242	158.035431
-15659.552660	5516.615000	388.795898	209.423447
-15659.552660	5516.615000	387.518555	205.524155
-15659.552660	5516.615000	386.240234	226.813156
-15659.552660	5516.615000	384.961914	207.655319
-15659.552660	5516.615000	383.683594	95.161446
-15659.552660	5516.615000	382.405273	219.460709
-15659.552660	5516.615000	381.125977	144.608353
-15659.552660	5516.615000	379.846680	58.966244
-15659.552660	5516.615000	378.567383	44.997490
-15659.552660	5516.615000	377.287109	77.269844
-15659.552660	5516.615000	376.006836	181.116821
-15659.552660	5516.615000	374.726563	47.971134
-15659.552660	5516.615000	373.446289	35.014317
-15659.552660	5516.615000	372.165039	61.886688
-15659.552660	5516.615000	370.883789	126.450546
-15659.552660	5516.615000	369.602539	-26.789965
-15659.552660	5516.615000	368.320313	-133.863388
-15659.552660	5516.615000	367.039063	142.868484
-15659.552660	5516.615000	365.755859	73.089287
-15659.552660	5516.615000	364.473633	64.169914
-15659.552660	5516.615000	363.190430	139.234161
-15659.552660	5516.615000	361.907227	102.137566
-15659.552660	5516.615000	360.624023	54.128731
-15659.552660	5516.615000	359.340820	1.525833
-15659.552660	5516.615000	358.056641	-19.871307
-15659.552660	5516.615000	356.772461	-58.535156
-15659.552660	5516.615000	355.487305	127.733322
-15659.552660	5516.615000	354.202148	54.465137
-15659.552660	5516.615000	352.916992	24.980560
-15659.552660	5516.615000	351.631836	-78.633820
-15659.552660	5516.615000	350.346680	-81.678406
-15659.552660	5516.615000	349.060547	47.309742
-15659.552660	5516.615000	347.774414	-40.927612
-15659.552660	5516.615000	346.487305	93.246376
-15659.552660	5516.615000	345.200195	-29.689594
-15659.552660	5516.615000	343.913086	59.180824
-15659.552660	5516.615000	342.625977	-31.197521
-15659.552660	5516.615000	341.338867	115.308380
-15659.552660	5516.615000	340.050781	25.849730
-15659.552660	5516.615000	338.762695	-51.587482
-15659.552660	5516.615000	337.473633	29.937321
-15659.552660	5516.615000	336.184570	33.098328
-15659.552660	5516.615000	334.895508	-84.047859
-15659.552660	5516.615000	333.606445	-15.071459
-15659.552660	5516.615000	332.317383	40.582466
-15659.552660	5516.615000	331.027344	1.079642
-15659.552660	5516.615000	329.736328	109.717720
-15659.552660	5516.615000	328.446289	72.905899
-15659.552660	5516.615000	327.155273	-249.767349
-15659.552660	5516.615000	325.864258	-181.211182
-15659.552660	5516.615000	324.573242	-75.791908
-15659.552660	5516.615000	323.281250	-105.350693
-15659.552660	5516.615000	321.989258	-110.628677
-15659.552660	5516.615000	320.697266	103.064209
-15659.552660	5516.615000	319.405273	181.780396
-15659.552660	5516.615000	318.112305	-154.893539
-15659.552660	5516.615000	316.819336	66.314857
-15659.552660	5516.615000	315.526367	-50.361691
-15659.552660	5516.615000	314.232422	9.763879
-15659.552660	5516.615000	312.938477	1.923700
-15659.552660	5516.615000	311.644531	28.579115
-15659.552660	5516.615000	310.349609	45.754215
-15659.552660	5516.615000	309.054688	214.370926
-15659.552660	5516.615000	307.759766	133.164017
-15659.552660	5516.615000	306.464844	224.210571
-15659.552660	5516.615000	305.168945	169.903809
-15659.552660	5516.615000	303.873047	312.761139
-15659.552660	5516.615000	302.577148	343.684235
-15659.552660	5516.615000	301.281250	577.852173
-15659.552660	5516.615000	299.984375	345.285522
