#X		#Y		#Wave		#Intensity
10191.159043	5599.840000	1999.946289	-31.400738
10191.159043	5599.840000	1998.981445	72.323586
10191.159043	5599.840000	1998.017578	-65.271881
10191.159043	5599.840000	1997.052734	30.100748
10191.159043	5599.840000	1996.088867	-67.842636
10191.159043	5599.840000	1995.124023	72.037735
10191.159043	5599.840000	1994.159180	43.426510
10191.159043	5599.840000	1993.193359	66.806587
10191.159043	5599.840000	1992.228516	-36.108032
10191.159043	5599.840000	1991.262695	46.647858
10191.159043	5599.840000	1990.296875	124.405357
10191.159043	5599.840000	1989.331055	66.023308
10191.159043	5599.840000	1988.365234	-41.832817
10191.159043	5599.840000	1987.398438	-110.088562
10191.159043	5599.840000	1986.432617	14.566325
10191.159043	5599.840000	1985.465820	-56.174770
10191.159043	5599.840000	1984.499023	-82.403641
10191.159043	5599.840000	1983.532227	-39.427589
10191.159043	5599.840000	1982.565430	1.050546
10191.159043	5599.840000	1981.597656	6.911660
10191.159043	5599.840000	1980.629883	-130.517120
10191.159043	5599.840000	1979.662109	45.767338
10191.159043	5599.840000	1978.694336	49.120731
10191.159043	5599.840000	1977.726563	-1.851295
10191.159043	5599.840000	1976.758789	-10.846819
10191.159043	5599.840000	1975.790039	44.322018
10191.159043	5599.840000	1974.821289	161.153641
10191.159043	5599.840000	1973.852539	21.358627
10191.159043	5599.840000	1972.883789	-14.790496
10191.159043	5599.840000	1971.915039	42.785446
10191.159043	5599.840000	1970.945313	31.295197
10191.159043	5599.840000	1969.975586	19.806454
10191.159043	5599.840000	1969.005859	89.658104
10191.159043	5599.840000	1968.036133	-10.558559
10191.159043	5599.840000	1967.066406	2.600300
10191.159043	5599.840000	1966.096680	28.069698
10191.159043	5599.840000	1965.125977	63.380531
10191.159043	5599.840000	1964.155273	46.965153
10191.159043	5599.840000	1963.184570	89.645737
10191.159043	5599.840000	1962.213867	-32.616383
10191.159043	5599.840000	1961.242188	-36.698097
10191.159043	5599.840000	1960.271484	-85.068184
10191.159043	5599.840000	1959.299805	31.415676
10191.159043	5599.840000	1958.328125	-68.601357
10191.159043	5599.840000	1957.356445	92.108551
10191.159043	5599.840000	1956.384766	48.675591
10191.159043	5599.840000	1955.412109	64.262833
10191.159043	5599.840000	1954.439453	94.594963
10191.159043	5599.840000	1953.467773	-34.816772
10191.159043	5599.840000	1952.495117	111.010239
10191.159043	5599.840000	1951.521484	170.806213
10191.159043	5599.840000	1950.548828	97.953728
10191.159043	5599.840000	1949.575195	152.826965
10191.159043	5599.840000	1948.601563	141.393173
10191.159043	5599.840000	1947.627930	-56.592106
10191.159043	5599.840000	1946.654297	113.644730
10191.159043	5599.840000	1945.680664	18.808895
10191.159043	5599.840000	1944.706055	-22.012772
10191.159043	5599.840000	1943.732422	18.132938
10191.159043	5599.840000	1942.757813	43.553314
10191.159043	5599.840000	1941.783203	56.710110
10191.159043	5599.840000	1940.807617	67.414742
10191.159043	5599.840000	1939.833008	9.491905
10191.159043	5599.840000	1938.857422	39.817749
10191.159043	5599.840000	1937.881836	43.186478
10191.159043	5599.840000	1936.906250	-95.523926
10191.159043	5599.840000	1935.930664	-25.989216
10191.159043	5599.840000	1934.955078	53.320435
10191.159043	5599.840000	1933.978516	125.260841
10191.159043	5599.840000	1933.001953	-23.130219
10191.159043	5599.840000	1932.025391	202.998825
10191.159043	5599.840000	1931.048828	5.720223
10191.159043	5599.840000	1930.072266	204.859650
10191.159043	5599.840000	1929.094727	169.106400
10191.159043	5599.840000	1928.118164	-45.156963
10191.159043	5599.840000	1927.140625	12.078050
10191.159043	5599.840000	1926.163086	27.737791
10191.159043	5599.840000	1925.184570	114.279625
10191.159043	5599.840000	1924.207031	76.162178
10191.159043	5599.840000	1923.228516	126.023872
10191.159043	5599.840000	1922.250000	61.057106
10191.159043	5599.840000	1921.271484	130.453690
10191.159043	5599.840000	1920.292969	4.471811
10191.159043	5599.840000	1919.314453	-14.030698
10191.159043	5599.840000	1918.334961	33.386909
10191.159043	5599.840000	1917.355469	41.742168
10191.159043	5599.840000	1916.375977	135.504196
10191.159043	5599.840000	1915.396484	24.301773
10191.159043	5599.840000	1914.416992	-128.321289
10191.159043	5599.840000	1913.436523	-156.505280
10191.159043	5599.840000	1912.457031	-38.374329
10191.159043	5599.840000	1911.476563	145.539154
10191.159043	5599.840000	1910.496094	-33.787411
10191.159043	5599.840000	1909.515625	-105.816597
10191.159043	5599.840000	1908.534180	48.779545
10191.159043	5599.840000	1907.552734	52.286522
10191.159043	5599.840000	1906.572266	36.311085
10191.159043	5599.840000	1905.590820	149.407745
10191.159043	5599.840000	1904.608398	-44.306988
10191.159043	5599.840000	1903.626953	-48.074989
10191.159043	5599.840000	1902.644531	26.041550
10191.159043	5599.840000	1901.663086	-43.432690
10191.159043	5599.840000	1900.680664	-5.833327
10191.159043	5599.840000	1899.698242	-12.028739
10191.159043	5599.840000	1898.714844	66.897881
10191.159043	5599.840000	1897.732422	-4.955573
10191.159043	5599.840000	1896.749023	-30.591709
10191.159043	5599.840000	1895.765625	77.466286
10191.159043	5599.840000	1894.782227	-40.518631
10191.159043	5599.840000	1893.798828	11.619833
10191.159043	5599.840000	1892.814453	49.163704
10191.159043	5599.840000	1891.831055	16.259668
10191.159043	5599.840000	1890.846680	90.213715
10191.159043	5599.840000	1889.862305	-37.372871
10191.159043	5599.840000	1888.877930	31.708673
10191.159043	5599.840000	1887.892578	-95.820671
10191.159043	5599.840000	1886.908203	-34.034447
10191.159043	5599.840000	1885.922852	22.874783
10191.159043	5599.840000	1884.937500	94.314949
10191.159043	5599.840000	1883.952148	-6.458344
10191.159043	5599.840000	1882.965820	-63.551746
10191.159043	5599.840000	1881.980469	-103.655510
10191.159043	5599.840000	1880.994141	-27.405090
10191.159043	5599.840000	1880.007813	-2.076149
10191.159043	5599.840000	1879.021484	-27.639643
10191.159043	5599.840000	1878.035156	48.545288
10191.159043	5599.840000	1877.047852	66.570686
10191.159043	5599.840000	1876.061523	67.635979
10191.159043	5599.840000	1875.074219	102.591026
10191.159043	5599.840000	1874.086914	81.855484
10191.159043	5599.840000	1873.098633	-11.482043
10191.159043	5599.840000	1872.111328	-85.431091
10191.159043	5599.840000	1871.123047	17.247831
10191.159043	5599.840000	1870.135742	-1.056370
10191.159043	5599.840000	1869.147461	-62.889874
10191.159043	5599.840000	1868.158203	1.023908
10191.159043	5599.840000	1867.169922	-14.866517
10191.159043	5599.840000	1866.180664	-30.757748
10191.159043	5599.840000	1865.192383	35.512619
10191.159043	5599.840000	1864.203125	-108.446861
10191.159043	5599.840000	1863.213867	-61.525578
10191.159043	5599.840000	1862.223633	-58.102749
10191.159043	5599.840000	1861.234375	63.632999
10191.159043	5599.840000	1860.244141	-10.240096
10191.159043	5599.840000	1859.253906	-59.955147
10191.159043	5599.840000	1858.263672	78.581345
10191.159043	5599.840000	1857.273438	50.567356
10191.159043	5599.840000	1856.282227	-32.931538
10191.159043	5599.840000	1855.291992	-169.471558
10191.159043	5599.840000	1854.300781	-33.465748
10191.159043	5599.840000	1853.309570	32.557404
10191.159043	5599.840000	1852.317383	113.009628
10191.159043	5599.840000	1851.326172	63.272289
10191.159043	5599.840000	1850.333984	112.341431
10191.159043	5599.840000	1849.342773	9.597985
10191.159043	5599.840000	1848.350586	15.278676
10191.159043	5599.840000	1847.357422	49.846123
10191.159043	5599.840000	1846.365234	60.310707
10191.159043	5599.840000	1845.372070	15.387617
10191.159043	5599.840000	1844.379883	16.203495
10191.159043	5599.840000	1843.386719	122.894386
10191.159043	5599.840000	1842.393555	53.887516
10191.159043	5599.840000	1841.399414	47.440693
10191.159043	5599.840000	1840.406250	113.139641
10191.159043	5599.840000	1839.412109	77.800980
10191.159043	5599.840000	1838.417969	-46.496151
10191.159043	5599.840000	1837.423828	-16.914576
10191.159043	5599.840000	1836.429688	-40.231861
10191.159043	5599.840000	1835.434570	99.843918
10191.159043	5599.840000	1834.440430	-48.444130
10191.159043	5599.840000	1833.445313	146.799103
10191.159043	5599.840000	1832.450195	185.851074
10191.159043	5599.840000	1831.454102	27.980709
10191.159043	5599.840000	1830.458984	196.647064
10191.159043	5599.840000	1829.462891	70.006378
10191.159043	5599.840000	1828.466797	-61.401142
10191.159043	5599.840000	1827.470703	-3.229499
10191.159043	5599.840000	1826.474609	64.500107
10191.159043	5599.840000	1825.478516	86.618546
10191.159043	5599.840000	1824.481445	-90.319710
10191.159043	5599.840000	1823.484375	90.021072
10191.159043	5599.840000	1822.487305	-62.913986
10191.159043	5599.840000	1821.490234	59.801193
10191.159043	5599.840000	1820.493164	100.984306
10191.159043	5599.840000	1819.495117	-90.249680
10191.159043	5599.840000	1818.498047	37.139740
10191.159043	5599.840000	1817.500000	102.198097
10191.159043	5599.840000	1816.500977	59.467171
10191.159043	5599.840000	1815.502930	33.492451
10191.159043	5599.840000	1814.504883	122.394753
10191.159043	5599.840000	1813.505859	55.699600
10191.159043	5599.840000	1812.506836	-30.129143
10191.159043	5599.840000	1811.507813	8.444014
10191.159043	5599.840000	1810.508789	39.809052
10191.159043	5599.840000	1809.508789	25.709213
10191.159043	5599.840000	1808.508789	57.019089
10191.159043	5599.840000	1807.508789	76.346451
10191.159043	5599.840000	1806.508789	31.121809
10191.159043	5599.840000	1805.508789	-16.494806
10191.159043	5599.840000	1804.508789	40.999397
10191.159043	5599.840000	1803.507813	65.011635
10191.159043	5599.840000	1802.506836	19.742311
10191.159043	5599.840000	1801.505859	72.360245
10191.159043	5599.840000	1800.504883	62.872150
10191.159043	5599.840000	1799.502930	53.366329
10191.159043	5599.840000	1798.501953	36.685833
10191.159043	5599.840000	1797.500000	98.719772
10191.159043	5599.840000	1796.498047	-113.601334
10191.159043	5599.840000	1795.496094	98.641350
10191.159043	5599.840000	1794.493164	-30.188559
10191.159043	5599.840000	1793.491211	-20.720459
10191.159043	5599.840000	1792.488281	-27.963362
10191.159043	5599.840000	1791.485352	72.011894
10191.159043	5599.840000	1790.482422	26.589504
10191.159043	5599.840000	1789.478516	66.918640
10191.159043	5599.840000	1788.475586	121.501961
10191.159043	5599.840000	1787.471680	83.172554
10191.159043	5599.840000	1786.467773	11.504714
10191.159043	5599.840000	1785.463867	120.748383
10191.159043	5599.840000	1784.459961	6.217947
10191.159043	5599.840000	1783.455078	-63.083031
10191.159043	5599.840000	1782.450195	7.979911
10191.159043	5599.840000	1781.445313	-89.882347
10191.159043	5599.840000	1780.440430	52.456612
10191.159043	5599.840000	1779.435547	18.774570
10191.159043	5599.840000	1778.429688	-12.542666
10191.159043	5599.840000	1777.424805	1.289789
10191.159043	5599.840000	1776.418945	10.339470
10191.159043	5599.840000	1775.413086	114.396767
10191.159043	5599.840000	1774.406250	47.362064
10191.159043	5599.840000	1773.400391	53.954998
10191.159043	5599.840000	1772.393555	-5.965054
10191.159043	5599.840000	1771.386719	24.327940
10191.159043	5599.840000	1770.379883	-4.752948
10191.159043	5599.840000	1769.373047	25.482702
10191.159043	5599.840000	1768.365234	-27.362198
10191.159043	5599.840000	1767.358398	24.170063
10191.159043	5599.840000	1766.350586	149.182770
10191.159043	5599.840000	1765.342773	91.533432
10191.159043	5599.840000	1764.334961	0.690347
10191.159043	5599.840000	1763.326172	49.711403
10191.159043	5599.840000	1762.318359	53.663918
10191.159043	5599.840000	1761.309570	104.979591
10191.159043	5599.840000	1760.300781	82.811974
10191.159043	5599.840000	1759.291016	98.525047
10191.159043	5599.840000	1758.282227	95.266403
10191.159043	5599.840000	1757.272461	-121.111046
10191.159043	5599.840000	1756.262695	1.090308
10191.159043	5599.840000	1755.252930	42.749897
10191.159043	5599.840000	1754.243164	-43.412510
10191.159043	5599.840000	1753.233398	-58.587784
10191.159043	5599.840000	1752.222656	18.470745
10191.159043	5599.840000	1751.211914	-27.504040
10191.159043	5599.840000	1750.201172	14.005005
10191.159043	5599.840000	1749.190430	74.388565
10191.159043	5599.840000	1748.179688	-7.093534
10191.159043	5599.840000	1747.167969	-10.583860
10191.159043	5599.840000	1746.156250	-51.899708
10191.159043	5599.840000	1745.144531	13.082040
10191.159043	5599.840000	1744.132813	66.207169
10191.159043	5599.840000	1743.121094	-60.177574
10191.159043	5599.840000	1742.108398	-0.023424
10191.159043	5599.840000	1741.095703	-1.287702
10191.159043	5599.840000	1740.083008	6.866599
10191.159043	5599.840000	1739.070313	85.783813
10191.159043	5599.840000	1738.057617	-73.626305
10191.159043	5599.840000	1737.043945	-37.227188
10191.159043	5599.840000	1736.030273	145.348175
10191.159043	5599.840000	1735.016602	115.628723
10191.159043	5599.840000	1734.002930	-20.181360
10191.159043	5599.840000	1732.989258	-16.904211
10191.159043	5599.840000	1731.974609	2.842731
10191.159043	5599.840000	1730.959961	-78.747223
10191.159043	5599.840000	1729.945313	-101.438591
10191.159043	5599.840000	1728.930664	-27.583307
10191.159043	5599.840000	1727.916016	46.222565
10191.159043	5599.840000	1726.900391	-35.401176
10191.159043	5599.840000	1725.885742	-117.011131
10191.159043	5599.840000	1724.870117	13.183423
10191.159043	5599.840000	1723.853516	-101.392143
10191.159043	5599.840000	1722.837891	-124.197617
10191.159043	5599.840000	1721.822266	-34.120560
10191.159043	5599.840000	1720.805664	-136.925049
10191.159043	5599.840000	1719.789063	-89.242249
10191.159043	5599.840000	1718.772461	-46.299545
10191.159043	5599.840000	1717.754883	90.610619
10191.159043	5599.840000	1716.738281	6.579462
10191.159043	5599.840000	1715.720703	79.957939
10191.159043	5599.840000	1714.703125	19.407000
10191.159043	5599.840000	1713.685547	66.884323
10191.159043	5599.840000	1712.667969	97.889595
10191.159043	5599.840000	1711.649414	-28.419033
10191.159043	5599.840000	1710.630859	28.368475
10191.159043	5599.840000	1709.612305	19.411964
10191.159043	5599.840000	1708.593750	12.786818
10191.159043	5599.840000	1707.575195	-64.223579
10191.159043	5599.840000	1706.555664	102.675568
10191.159043	5599.840000	1705.536133	-77.531380
10191.159043	5599.840000	1704.516602	-27.944332
10191.159043	5599.840000	1703.497070	-27.614849
10191.159043	5599.840000	1702.477539	61.746326
10191.159043	5599.840000	1701.457031	-38.726719
10191.159043	5599.840000	1700.437500	-118.092102
10191.159043	5599.840000	1699.416992	-63.950016
10191.159043	5599.840000	1698.395508	-37.947762
10191.159043	5599.840000	1697.375000	55.925484
10191.159043	5599.840000	1696.354492	-49.214279
10191.159043	5599.840000	1695.333008	-58.382442
10191.159043	5599.840000	1694.311523	133.661407
10191.159043	5599.840000	1693.290039	47.231434
10191.159043	5599.840000	1692.267578	-27.489042
10191.159043	5599.840000	1691.246094	59.160866
10191.159043	5599.840000	1690.223633	77.956718
10191.159043	5599.840000	1689.201172	19.591642
10191.159043	5599.840000	1688.178711	-24.743227
10191.159043	5599.840000	1687.155273	17.377554
10191.159043	5599.840000	1686.132813	29.100857
10191.159043	5599.840000	1685.109375	40.802711
10191.159043	5599.840000	1684.085938	-8.231894
10191.159043	5599.840000	1683.062500	17.454311
10191.159043	5599.840000	1682.039063	24.442617
10191.159043	5599.840000	1681.014648	73.423065
10191.159043	5599.840000	1679.990234	131.705582
10191.159043	5599.840000	1678.965820	17.306540
10191.159043	5599.840000	1677.941406	115.207626
10191.159043	5599.840000	1676.916992	-6.164648
10191.159043	5599.840000	1675.891602	28.719563
10191.159043	5599.840000	1674.866211	-55.316071
10191.159043	5599.840000	1673.840820	-81.059875
10191.159043	5599.840000	1672.815430	-8.929554
10191.159043	5599.840000	1671.790039	9.574651
10191.159043	5599.840000	1670.763672	-46.486206
10191.159043	5599.840000	1669.737305	-16.361153
10191.159043	5599.840000	1668.710938	30.041868
10191.159043	5599.840000	1667.684570	71.760719
10191.159043	5599.840000	1666.658203	-44.827393
10191.159043	5599.840000	1665.630859	-40.367981
10191.159043	5599.840000	1664.603516	52.498371
10191.159043	5599.840000	1663.576172	10.393023
10191.159043	5599.840000	1662.548828	59.005207
10191.159043	5599.840000	1661.520508	102.935471
10191.159043	5599.840000	1660.493164	56.170048
10191.159043	5599.840000	1659.464844	60.551361
10191.159043	5599.840000	1658.436523	148.590729
10191.159043	5599.840000	1657.408203	157.585312
10191.159043	5599.840000	1656.378906	145.657120
10191.159043	5599.840000	1655.350586	131.407654
10191.159043	5599.840000	1654.321289	182.177856
10191.159043	5599.840000	1653.291992	135.405350
10191.159043	5599.840000	1652.261719	107.212601
10191.159043	5599.840000	1651.232422	239.173355
10191.159043	5599.840000	1650.202148	197.037674
10191.159043	5599.840000	1649.171875	233.794464
10191.159043	5599.840000	1648.141602	138.316086
10191.159043	5599.840000	1647.111328	223.762970
10191.159043	5599.840000	1646.080078	313.806427
10191.159043	5599.840000	1645.049805	185.900116
10191.159043	5599.840000	1644.018555	245.777451
10191.159043	5599.840000	1642.987305	173.539688
10191.159043	5599.840000	1641.955078	219.484604
10191.159043	5599.840000	1640.923828	323.324127
10191.159043	5599.840000	1639.891602	304.369354
10191.159043	5599.840000	1638.859375	373.410492
10191.159043	5599.840000	1637.827148	215.543533
10191.159043	5599.840000	1636.794922	235.964066
10191.159043	5599.840000	1635.761719	147.604630
10191.159043	5599.840000	1634.729492	267.519470
10191.159043	5599.840000	1633.696289	213.885880
10191.159043	5599.840000	1632.662109	162.581604
10191.159043	5599.840000	1631.628906	92.801987
10191.159043	5599.840000	1630.594727	240.369354
10191.159043	5599.840000	1629.561523	200.651886
10191.159043	5599.840000	1628.527344	297.299072
10191.159043	5599.840000	1627.493164	128.189987
10191.159043	5599.840000	1626.458008	127.785507
10191.159043	5599.840000	1625.423828	145.864441
10191.159043	5599.840000	1624.388672	60.017712
10191.159043	5599.840000	1623.353516	151.985687
10191.159043	5599.840000	1622.318359	197.752563
10191.159043	5599.840000	1621.282227	185.803146
10191.159043	5599.840000	1620.247070	217.706757
10191.159043	5599.840000	1619.210938	337.264801
10191.159043	5599.840000	1618.174805	214.590179
10191.159043	5599.840000	1617.137695	138.085724
10191.159043	5599.840000	1616.101563	163.068253
10191.159043	5599.840000	1615.064453	86.612640
10191.159043	5599.840000	1614.027344	219.926041
10191.159043	5599.840000	1612.990234	233.367615
10191.159043	5599.840000	1611.953125	306.710602
10191.159043	5599.840000	1610.916016	264.859100
10191.159043	5599.840000	1609.877930	216.117340
10191.159043	5599.840000	1608.839844	158.190460
10191.159043	5599.840000	1607.801758	293.668121
10191.159043	5599.840000	1606.763672	279.493469
10191.159043	5599.840000	1605.724609	279.134827
10191.159043	5599.840000	1604.685547	262.679138
10191.159043	5599.840000	1603.646484	283.041748
10191.159043	5599.840000	1602.607422	271.207275
10191.159043	5599.840000	1601.568359	326.067657
10191.159043	5599.840000	1600.528320	284.356354
10191.159043	5599.840000	1599.489258	148.435379
10191.159043	5599.840000	1598.449219	295.232849
10191.159043	5599.840000	1597.408203	255.873611
10191.159043	5599.840000	1596.368164	370.451996
10191.159043	5599.840000	1595.327148	262.212616
10191.159043	5599.840000	1594.287109	236.694122
10191.159043	5599.840000	1593.246094	360.419952
10191.159043	5599.840000	1592.204102	337.201965
10191.159043	5599.840000	1591.163086	366.791138
10191.159043	5599.840000	1590.121094	320.659180
10191.159043	5599.840000	1589.079102	233.265045
10191.159043	5599.840000	1588.037109	148.210495
10191.159043	5599.840000	1586.995117	81.547112
10191.159043	5599.840000	1585.953125	296.919678
10191.159043	5599.840000	1584.910156	234.859222
10191.159043	5599.840000	1583.867188	392.846039
10191.159043	5599.840000	1582.824219	115.434067
10191.159043	5599.840000	1581.781250	284.863831
10191.159043	5599.840000	1580.737305	229.776794
10191.159043	5599.840000	1579.693359	277.774200
10191.159043	5599.840000	1578.649414	353.242126
10191.159043	5599.840000	1577.605469	158.584076
10191.159043	5599.840000	1576.561523	222.632385
10191.159043	5599.840000	1575.516602	204.293213
10191.159043	5599.840000	1574.472656	250.036255
10191.159043	5599.840000	1573.427734	204.282974
10191.159043	5599.840000	1572.381836	190.576660
10191.159043	5599.840000	1571.336914	291.214020
10191.159043	5599.840000	1570.291016	263.813446
10191.159043	5599.840000	1569.246094	391.856659
10191.159043	5599.840000	1568.200195	334.775513
10191.159043	5599.840000	1567.153320	389.676270
10191.159043	5599.840000	1566.107422	195.604523
10191.159043	5599.840000	1565.060547	245.979095
10191.159043	5599.840000	1564.013672	177.623642
10191.159043	5599.840000	1562.966797	454.015961
10191.159043	5599.840000	1561.919922	326.342316
10191.159043	5599.840000	1560.872070	210.144379
10191.159043	5599.840000	1559.825195	189.835632
10191.159043	5599.840000	1558.777344	333.783356
10191.159043	5599.840000	1557.729492	372.789154
10191.159043	5599.840000	1556.680664	452.838562
10191.159043	5599.840000	1555.632813	448.531952
10191.159043	5599.840000	1554.583984	489.829041
10191.159043	5599.840000	1553.535156	478.718842
10191.159043	5599.840000	1552.486328	497.252319
10191.159043	5599.840000	1551.436523	536.297485
10191.159043	5599.840000	1550.387695	497.918884
10191.159043	5599.840000	1549.337891	470.959625
10191.159043	5599.840000	1548.288086	503.222137
10191.159043	5599.840000	1547.238281	519.562073
10191.159043	5599.840000	1546.187500	458.543396
10191.159043	5599.840000	1545.136719	431.698761
10191.159043	5599.840000	1544.086914	655.111206
10191.159043	5599.840000	1543.035156	432.693726
10191.159043	5599.840000	1541.984375	430.951233
10191.159043	5599.840000	1540.933594	483.794769
10191.159043	5599.840000	1539.881836	577.551025
10191.159043	5599.840000	1538.830078	432.682892
10191.159043	5599.840000	1537.778320	406.042480
10191.159043	5599.840000	1536.725586	404.421509
10191.159043	5599.840000	1535.673828	393.743652
10191.159043	5599.840000	1534.621094	378.550934
10191.159043	5599.840000	1533.568359	270.308990
10191.159043	5599.840000	1532.515625	405.003357
10191.159043	5599.840000	1531.461914	385.351990
10191.159043	5599.840000	1530.409180	277.248566
10191.159043	5599.840000	1529.355469	303.050354
10191.159043	5599.840000	1528.301758	358.351715
10191.159043	5599.840000	1527.247070	343.360931
10191.159043	5599.840000	1526.193359	208.247849
10191.159043	5599.840000	1525.138672	284.011993
10191.159043	5599.840000	1524.083984	153.547394
10191.159043	5599.840000	1523.029297	131.918213
10191.159043	5599.840000	1521.974609	117.120209
10191.159043	5599.840000	1520.918945	154.445816
10191.159043	5599.840000	1519.863281	107.999939
10191.159043	5599.840000	1518.807617	29.904797
10191.159043	5599.840000	1517.751953	31.091202
10191.159043	5599.840000	1516.696289	61.725811
10191.159043	5599.840000	1515.639648	-36.596069
10191.159043	5599.840000	1514.583008	37.075523
10191.159043	5599.840000	1513.526367	79.082031
10191.159043	5599.840000	1512.469727	141.452408
10191.159043	5599.840000	1511.412109	142.782059
10191.159043	5599.840000	1510.355469	117.017326
10191.159043	5599.840000	1509.297852	-53.346889
10191.159043	5599.840000	1508.240234	36.228546
10191.159043	5599.840000	1507.181641	-5.229213
10191.159043	5599.840000	1506.124023	125.014503
10191.159043	5599.840000	1505.065430	-8.969495
10191.159043	5599.840000	1504.006836	53.550182
10191.159043	5599.840000	1502.948242	186.050217
10191.159043	5599.840000	1501.888672	74.790321
10191.159043	5599.840000	1500.830078	132.833466
10191.159043	5599.840000	1499.770508	62.295181
10191.159043	5599.840000	1498.710938	-8.184119
10191.159043	5599.840000	1497.650391	49.929790
10191.159043	5599.840000	1496.590820	105.797791
10191.159043	5599.840000	1495.530273	62.492180
10191.159043	5599.840000	1494.469727	-16.824303
10191.159043	5599.840000	1493.409180	149.523727
10191.159043	5599.840000	1492.348633	95.064209
10191.159043	5599.840000	1491.287109	218.591278
10191.159043	5599.840000	1490.225586	65.118156
10191.159043	5599.840000	1489.164063	46.824123
10191.159043	5599.840000	1488.102539	-38.960175
10191.159043	5599.840000	1487.041016	59.865437
10191.159043	5599.840000	1485.978516	-30.325642
10191.159043	5599.840000	1484.916016	19.020159
10191.159043	5599.840000	1483.853516	-37.314865
10191.159043	5599.840000	1482.791016	189.734787
10191.159043	5599.840000	1481.727539	171.652969
10191.159043	5599.840000	1480.664063	-28.441441
10191.159043	5599.840000	1479.600586	-82.351616
10191.159043	5599.840000	1478.537109	133.413727
10191.159043	5599.840000	1477.473633	66.082169
10191.159043	5599.840000	1476.409180	16.766615
10191.159043	5599.840000	1475.344727	120.189781
10191.159043	5599.840000	1474.280273	122.594872
10191.159043	5599.840000	1473.215820	122.788582
10191.159043	5599.840000	1472.151367	66.967224
10191.159043	5599.840000	1471.085938	40.208225
10191.159043	5599.840000	1470.020508	69.552956
10191.159043	5599.840000	1468.955078	161.845200
10191.159043	5599.840000	1467.888672	65.833839
10191.159043	5599.840000	1466.823242	79.587646
10191.159043	5599.840000	1465.756836	68.901741
10191.159043	5599.840000	1464.690430	118.547798
10191.159043	5599.840000	1463.624023	45.326134
10191.159043	5599.840000	1462.556641	124.169365
10191.159043	5599.840000	1461.490234	167.200623
10191.159043	5599.840000	1460.422852	209.830078
10191.159043	5599.840000	1459.355469	18.475718
10191.159043	5599.840000	1458.287109	23.757286
10191.159043	5599.840000	1457.219727	178.407028
10191.159043	5599.840000	1456.151367	31.857822
10191.159043	5599.840000	1455.083008	10.239916
10191.159043	5599.840000	1454.014648	109.589447
10191.159043	5599.840000	1452.945313	77.187424
10191.159043	5599.840000	1451.876953	-86.868004
10191.159043	5599.840000	1450.807617	-1.750132
10191.159043	5599.840000	1449.738281	-98.552979
10191.159043	5599.840000	1448.668945	-13.025105
10191.159043	5599.840000	1447.598633	-63.314541
10191.159043	5599.840000	1446.528320	50.725800
10191.159043	5599.840000	1445.458008	5.843937
10191.159043	5599.840000	1444.387695	-20.853708
10191.159043	5599.840000	1443.317383	-3.478982
10191.159043	5599.840000	1442.246094	-22.483978
10191.159043	5599.840000	1441.174805	-10.147073
10191.159043	5599.840000	1440.103516	14.634725
10191.159043	5599.840000	1439.032227	-135.384720
10191.159043	5599.840000	1437.960938	-77.368042
10191.159043	5599.840000	1436.888672	-92.241310
10191.159043	5599.840000	1435.816406	-16.388063
10191.159043	5599.840000	1434.744141	52.590099
10191.159043	5599.840000	1433.670898	91.030853
10191.159043	5599.840000	1432.598633	99.479904
10191.159043	5599.840000	1431.525391	48.901272
10191.159043	5599.840000	1430.452148	-101.042847
10191.159043	5599.840000	1429.378906	-49.572227
10191.159043	5599.840000	1428.304688	-128.529724
10191.159043	5599.840000	1427.231445	-52.479801
10191.159043	5599.840000	1426.157227	-26.120268
10191.159043	5599.840000	1425.083008	-102.507347
10191.159043	5599.840000	1424.007813	-48.002312
10191.159043	5599.840000	1422.933594	-114.091293
10191.159043	5599.840000	1421.858398	48.799149
10191.159043	5599.840000	1420.783203	-39.729630
10191.159043	5599.840000	1419.708008	-105.975075
10191.159043	5599.840000	1418.631836	-63.348614
10191.159043	5599.840000	1417.555664	-54.390099
10191.159043	5599.840000	1416.479492	-30.527359
10191.159043	5599.840000	1415.403320	-109.087143
10191.159043	5599.840000	1414.327148	51.930939
10191.159043	5599.840000	1413.250000	-90.443977
10191.159043	5599.840000	1412.173828	-111.818268
10191.159043	5599.840000	1411.096680	-158.787354
10191.159043	5599.840000	1410.018555	-98.644226
10191.159043	5599.840000	1408.941406	-83.178062
10191.159043	5599.840000	1407.863281	-46.624249
10191.159043	5599.840000	1406.785156	33.629383
10191.159043	5599.840000	1405.707031	-37.264439
10191.159043	5599.840000	1404.628906	9.506175
10191.159043	5599.840000	1403.549805	-67.383400
10191.159043	5599.840000	1402.470703	-69.211250
10191.159043	5599.840000	1401.391602	-6.534631
10191.159043	5599.840000	1400.312500	1.369480
10191.159043	5599.840000	1399.233398	72.071762
10191.159043	5599.840000	1398.153320	71.786774
10191.159043	5599.840000	1397.073242	87.935501
10191.159043	5599.840000	1395.993164	-100.890884
10191.159043	5599.840000	1394.913086	-5.881969
10191.159043	5599.840000	1393.832031	90.888832
10191.159043	5599.840000	1392.750977	6.202238
10191.159043	5599.840000	1391.669922	26.807615
10191.159043	5599.840000	1390.588867	4.772209
10191.159043	5599.840000	1389.506836	8.176029
10191.159043	5599.840000	1388.425781	56.038822
10191.159043	5599.840000	1387.343750	143.582306
10191.159043	5599.840000	1386.261719	96.489349
10191.159043	5599.840000	1385.178711	-28.165295
10191.159043	5599.840000	1384.096680	71.929878
10191.159043	5599.840000	1383.013672	23.906956
10191.159043	5599.840000	1381.930664	12.135705
10191.159043	5599.840000	1380.846680	40.512745
10191.159043	5599.840000	1379.763672	59.776619
10191.159043	5599.840000	1378.679688	89.419960
10191.159043	5599.840000	1377.595703	61.743576
10191.159043	5599.840000	1376.511719	0.330316
10191.159043	5599.840000	1375.427734	20.978836
10191.159043	5599.840000	1374.342773	50.475548
10191.159043	5599.840000	1373.257813	83.083557
10191.159043	5599.840000	1372.172852	107.352005
10191.159043	5599.840000	1371.087891	-18.498579
10191.159043	5599.840000	1370.001953	59.781689
10191.159043	5599.840000	1368.916992	70.160309
10191.159043	5599.840000	1367.831055	65.288124
10191.159043	5599.840000	1366.744141	186.155258
10191.159043	5599.840000	1365.658203	130.267151
10191.159043	5599.840000	1364.571289	189.735245
10191.159043	5599.840000	1363.484375	157.295532
10191.159043	5599.840000	1362.397461	229.540604
10191.159043	5599.840000	1361.310547	174.189026
10191.159043	5599.840000	1360.222656	139.206696
10191.159043	5599.840000	1359.135742	126.061646
10191.159043	5599.840000	1358.047852	243.128784
10191.159043	5599.840000	1356.958984	217.977295
10191.159043	5599.840000	1355.871094	223.582901
10191.159043	5599.840000	1354.782227	185.783020
10191.159043	5599.840000	1353.693359	185.803192
10191.159043	5599.840000	1352.604492	191.206665
10191.159043	5599.840000	1351.515625	245.959579
10191.159043	5599.840000	1350.425781	149.382034
10191.159043	5599.840000	1349.335938	132.597382
10191.159043	5599.840000	1348.246094	93.938461
10191.159043	5599.840000	1347.156250	59.067154
10191.159043	5599.840000	1346.066406	139.099960
10191.159043	5599.840000	1344.975586	80.418587
10191.159043	5599.840000	1343.884766	81.168304
10191.159043	5599.840000	1342.793945	150.329346
10191.159043	5599.840000	1341.702148	114.181946
10191.159043	5599.840000	1340.611328	211.201660
10191.159043	5599.840000	1339.519531	114.794380
10191.159043	5599.840000	1338.427734	56.927502
10191.159043	5599.840000	1337.334961	73.966286
10191.159043	5599.840000	1336.243164	-37.546013
10191.159043	5599.840000	1335.150391	109.354279
10191.159043	5599.840000	1334.057617	21.987001
10191.159043	5599.840000	1332.964844	130.943253
10191.159043	5599.840000	1331.871094	74.026855
10191.159043	5599.840000	1330.778320	58.482048
10191.159043	5599.840000	1329.684570	29.257545
10191.159043	5599.840000	1328.590820	128.286377
10191.159043	5599.840000	1327.496094	-41.821899
10191.159043	5599.840000	1326.402344	8.058645
10191.159043	5599.840000	1325.307617	201.601959
10191.159043	5599.840000	1324.212891	172.863556
10191.159043	5599.840000	1323.117188	-21.171930
10191.159043	5599.840000	1322.022461	40.969906
10191.159043	5599.840000	1320.926758	0.340596
10191.159043	5599.840000	1319.831055	26.809547
10191.159043	5599.840000	1318.735352	58.619202
10191.159043	5599.840000	1317.638672	101.645386
10191.159043	5599.840000	1316.542969	39.867702
10191.159043	5599.840000	1315.446289	63.598106
10191.159043	5599.840000	1314.349609	59.416855
10191.159043	5599.840000	1313.251953	94.402946
10191.159043	5599.840000	1312.155273	23.671125
10191.159043	5599.840000	1311.057617	-22.339588
10191.159043	5599.840000	1309.959961	30.512522
10191.159043	5599.840000	1308.862305	-87.050125
10191.159043	5599.840000	1307.763672	-20.987024
10191.159043	5599.840000	1306.665039	-43.596451
10191.159043	5599.840000	1305.566406	-4.500222
10191.159043	5599.840000	1304.467773	99.023102
10191.159043	5599.840000	1303.369141	-117.733253
10191.159043	5599.840000	1302.269531	29.584755
10191.159043	5599.840000	1301.169922	-106.601006
10191.159043	5599.840000	1300.070313	21.323973
10191.159043	5599.840000	1298.970703	-24.246990
10191.159043	5599.840000	1297.870117	40.663246
10191.159043	5599.840000	1296.769531	-16.498602
10191.159043	5599.840000	1295.668945	66.597313
10191.159043	5599.840000	1294.568359	65.561089
10191.159043	5599.840000	1293.466797	-5.040717
10191.159043	5599.840000	1292.366211	-43.441517
10191.159043	5599.840000	1291.264648	-40.562656
10191.159043	5599.840000	1290.162109	-10.415575
10191.159043	5599.840000	1289.060547	-10.389995
10191.159043	5599.840000	1287.958008	-10.978977
10191.159043	5599.840000	1286.855469	33.221123
10191.159043	5599.840000	1285.752930	-0.590224
10191.159043	5599.840000	1284.650391	37.303535
10191.159043	5599.840000	1283.546875	-18.343950
10191.159043	5599.840000	1282.444336	-88.200844
10191.159043	5599.840000	1281.339844	78.826828
10191.159043	5599.840000	1280.236328	59.442463
10191.159043	5599.840000	1279.132813	30.227358
10191.159043	5599.840000	1278.028320	-18.515965
10191.159043	5599.840000	1276.923828	68.976402
10191.159043	5599.840000	1275.819336	102.448364
10191.159043	5599.840000	1274.713867	79.411453
10191.159043	5599.840000	1273.608398	194.400055
10191.159043	5599.840000	1272.503906	80.876770
10191.159043	5599.840000	1271.397461	136.740967
10191.159043	5599.840000	1270.291992	147.502930
10191.159043	5599.840000	1269.185547	113.096695
10191.159043	5599.840000	1268.080078	110.589218
10191.159043	5599.840000	1266.972656	48.644123
10191.159043	5599.840000	1265.866211	33.219875
10191.159043	5599.840000	1264.759766	101.019951
10191.159043	5599.840000	1263.652344	102.008095
10191.159043	5599.840000	1262.544922	-5.955191
10191.159043	5599.840000	1261.436523	1.881454
10191.159043	5599.840000	1260.329102	16.002892
10191.159043	5599.840000	1259.220703	-51.408718
10191.159043	5599.840000	1258.112305	-99.730202
10191.159043	5599.840000	1257.003906	-42.903191
10191.159043	5599.840000	1255.895508	-30.499706
10191.159043	5599.840000	1254.786133	-68.750771
10191.159043	5599.840000	1253.676758	-40.263695
10191.159043	5599.840000	1252.567383	-97.879044
10191.159043	5599.840000	1251.458008	-50.819218
10191.159043	5599.840000	1250.347656	11.844443
10191.159043	5599.840000	1249.237305	-53.905540
10191.159043	5599.840000	1248.126953	92.356865
10191.159043	5599.840000	1247.016602	24.984957
10191.159043	5599.840000	1245.905273	11.507503
10191.159043	5599.840000	1244.793945	74.130638
10191.159043	5599.840000	1243.682617	199.577286
10191.159043	5599.840000	1242.571289	181.571838
10191.159043	5599.840000	1241.459961	149.695114
10191.159043	5599.840000	1240.347656	241.529617
10191.159043	5599.840000	1239.235352	256.862549
10191.159043	5599.840000	1238.123047	266.757141
10191.159043	5599.840000	1237.009766	291.862305
10191.159043	5599.840000	1235.897461	318.263367
10191.159043	5599.840000	1234.784180	342.030823
10191.159043	5599.840000	1233.670898	339.461639
10191.159043	5599.840000	1232.556641	355.583130
10191.159043	5599.840000	1231.443359	333.718384
10191.159043	5599.840000	1230.329102	426.233368
10191.159043	5599.840000	1229.214844	391.315155
10191.159043	5599.840000	1228.099609	345.497406
10191.159043	5599.840000	1226.985352	297.023651
10191.159043	5599.840000	1225.870117	313.986847
10191.159043	5599.840000	1224.754883	252.043381
10191.159043	5599.840000	1223.639648	340.713501
10191.159043	5599.840000	1222.523438	194.879547
10191.159043	5599.840000	1221.408203	204.012100
10191.159043	5599.840000	1220.291992	291.426788
10191.159043	5599.840000	1219.174805	261.586792
10191.159043	5599.840000	1218.058594	201.637024
10191.159043	5599.840000	1216.941406	155.720734
10191.159043	5599.840000	1215.824219	182.865845
10191.159043	5599.840000	1214.707031	168.895432
10191.159043	5599.840000	1213.589844	135.083191
10191.159043	5599.840000	1212.471680	142.390060
10191.159043	5599.840000	1211.353516	173.940186
10191.159043	5599.840000	1210.235352	117.036591
10191.159043	5599.840000	1209.117188	171.762100
10191.159043	5599.840000	1207.998047	109.944801
10191.159043	5599.840000	1206.878906	80.813835
10191.159043	5599.840000	1205.759766	58.781620
10191.159043	5599.840000	1204.640625	126.663399
10191.159043	5599.840000	1203.520508	54.095367
10191.159043	5599.840000	1202.401367	-19.251083
10191.159043	5599.840000	1201.281250	15.930807
10191.159043	5599.840000	1200.160156	8.247781
10191.159043	5599.840000	1199.040039	-22.285484
10191.159043	5599.840000	1197.918945	73.550346
10191.159043	5599.840000	1196.797852	87.009361
10191.159043	5599.840000	1195.676758	-42.617603
10191.159043	5599.840000	1194.555664	-4.824855
10191.159043	5599.840000	1193.433594	-54.684719
10191.159043	5599.840000	1192.311523	-41.446018
10191.159043	5599.840000	1191.189453	-59.674351
10191.159043	5599.840000	1190.066406	43.270840
10191.159043	5599.840000	1188.944336	-168.279251
10191.159043	5599.840000	1187.821289	-53.793858
10191.159043	5599.840000	1186.698242	-88.594025
10191.159043	5599.840000	1185.574219	14.011078
10191.159043	5599.840000	1184.451172	-123.723969
10191.159043	5599.840000	1183.327148	-184.756699
10191.159043	5599.840000	1182.203125	-85.125931
10191.159043	5599.840000	1181.078125	3.334254
10191.159043	5599.840000	1179.954102	-17.880283
10191.159043	5599.840000	1178.829102	-158.255951
10191.159043	5599.840000	1177.704102	-32.687954
10191.159043	5599.840000	1176.579102	-37.330246
10191.159043	5599.840000	1175.453125	14.488418
10191.159043	5599.840000	1174.327148	-12.577334
10191.159043	5599.840000	1173.201172	-52.891411
10191.159043	5599.840000	1172.075195	-17.068207
10191.159043	5599.840000	1170.949219	67.619194
10191.159043	5599.840000	1169.822266	34.661335
10191.159043	5599.840000	1168.695313	72.284676
10191.159043	5599.840000	1167.568359	-12.001645
10191.159043	5599.840000	1166.440430	-83.044006
10191.159043	5599.840000	1165.313477	-9.019172
10191.159043	5599.840000	1164.185547	3.072104
10191.159043	5599.840000	1163.057617	14.489528
10191.159043	5599.840000	1161.928711	77.621552
10191.159043	5599.840000	1160.800781	37.006325
10191.159043	5599.840000	1159.671875	66.505836
10191.159043	5599.840000	1158.541992	-60.362492
10191.159043	5599.840000	1157.413086	97.887810
10191.159043	5599.840000	1156.283203	90.152351
10191.159043	5599.840000	1155.154297	106.869301
10191.159043	5599.840000	1154.023438	45.655750
10191.159043	5599.840000	1152.893555	13.195168
10191.159043	5599.840000	1151.763672	80.292953
10191.159043	5599.840000	1150.632813	84.128502
10191.159043	5599.840000	1149.501953	154.856659
10191.159043	5599.840000	1148.370117	62.603596
10191.159043	5599.840000	1147.239258	-25.145523
10191.159043	5599.840000	1146.107422	30.331915
10191.159043	5599.840000	1144.975586	45.605370
10191.159043	5599.840000	1143.843750	81.963318
10191.159043	5599.840000	1142.710938	147.999649
10191.159043	5599.840000	1141.578125	37.316063
10191.159043	5599.840000	1140.445313	-41.989368
10191.159043	5599.840000	1139.312500	-110.404037
10191.159043	5599.840000	1138.178711	-39.420525
10191.159043	5599.840000	1137.045898	-21.766329
10191.159043	5599.840000	1135.912109	22.510468
10191.159043	5599.840000	1134.777344	2.769130
10191.159043	5599.840000	1133.643555	8.067393
10191.159043	5599.840000	1132.508789	-10.944643
10191.159043	5599.840000	1131.374023	-98.540634
10191.159043	5599.840000	1130.239258	83.623596
10191.159043	5599.840000	1129.104492	50.084103
10191.159043	5599.840000	1127.968750	-31.146412
10191.159043	5599.840000	1126.833008	-15.752189
10191.159043	5599.840000	1125.697266	51.990341
10191.159043	5599.840000	1124.560547	29.807224
10191.159043	5599.840000	1123.424805	-50.156662
10191.159043	5599.840000	1122.288086	-14.060495
10191.159043	5599.840000	1121.151367	-41.759350
10191.159043	5599.840000	1120.013672	-29.951040
10191.159043	5599.840000	1118.876953	62.471806
10191.159043	5599.840000	1117.739258	38.575512
10191.159043	5599.840000	1116.601563	10.782403
10191.159043	5599.840000	1115.462891	-11.388580
10191.159043	5599.840000	1114.324219	67.669479
10191.159043	5599.840000	1113.186523	-18.657635
10191.159043	5599.840000	1112.046875	71.920807
10191.159043	5599.840000	1110.908203	33.503632
10191.159043	5599.840000	1109.769531	-32.031826
10191.159043	5599.840000	1108.629883	-5.877148
10191.159043	5599.840000	1107.490234	3.556607
10191.159043	5599.840000	1106.349609	-15.993933
10191.159043	5599.840000	1105.209961	53.676575
10191.159043	5599.840000	1104.069336	10.582918
10191.159043	5599.840000	1102.928711	71.456665
10191.159043	5599.840000	1101.787109	27.593487
10191.159043	5599.840000	1100.646484	-81.989159
10191.159043	5599.840000	1099.504883	-93.538292
10191.159043	5599.840000	1098.363281	-15.294460
10191.159043	5599.840000	1097.221680	-29.840687
10191.159043	5599.840000	1096.079102	66.284660
10191.159043	5599.840000	1094.936523	-11.730211
10191.159043	5599.840000	1093.793945	28.600040
10191.159043	5599.840000	1092.651367	-8.295400
10191.159043	5599.840000	1091.507813	89.617805
10191.159043	5599.840000	1090.364258	121.224709
10191.159043	5599.840000	1089.220703	68.101471
10191.159043	5599.840000	1088.077148	6.774943
10191.159043	5599.840000	1086.933594	112.933105
10191.159043	5599.840000	1085.789063	205.618546
10191.159043	5599.840000	1084.644531	65.877518
10191.159043	5599.840000	1083.499023	51.095837
10191.159043	5599.840000	1082.354492	33.941303
10191.159043	5599.840000	1081.208984	64.010757
10191.159043	5599.840000	1080.063477	65.336823
10191.159043	5599.840000	1078.917969	-74.151772
10191.159043	5599.840000	1077.771484	94.903389
10191.159043	5599.840000	1076.625977	-0.994795
10191.159043	5599.840000	1075.479492	122.543350
10191.159043	5599.840000	1074.332031	67.938217
10191.159043	5599.840000	1073.185547	113.751358
10191.159043	5599.840000	1072.038086	142.817215
10191.159043	5599.840000	1070.890625	-5.888096
10191.159043	5599.840000	1069.743164	11.437193
10191.159043	5599.840000	1068.594727	32.851124
10191.159043	5599.840000	1067.447266	26.660028
10191.159043	5599.840000	1066.298828	38.461399
10191.159043	5599.840000	1065.149414	23.093609
10191.159043	5599.840000	1064.000977	19.427021
10191.159043	5599.840000	1062.851563	15.815416
10191.159043	5599.840000	1061.702148	65.380035
10191.159043	5599.840000	1060.552734	-7.576851
10191.159043	5599.840000	1059.402344	-105.940643
10191.159043	5599.840000	1058.252930	64.376930
10191.159043	5599.840000	1057.102539	-46.634243
10191.159043	5599.840000	1055.951172	-38.470745
10191.159043	5599.840000	1054.800781	82.516319
10191.159043	5599.840000	1053.649414	73.798706
10191.159043	5599.840000	1052.498047	-86.373322
10191.159043	5599.840000	1051.346680	48.684830
10191.159043	5599.840000	1050.194336	27.750277
10191.159043	5599.840000	1049.042969	0.488151
10191.159043	5599.840000	1047.890625	101.653297
10191.159043	5599.840000	1046.738281	83.432068
10191.159043	5599.840000	1045.584961	62.521454
10191.159043	5599.840000	1044.431641	52.918869
10191.159043	5599.840000	1043.278320	-13.134920
10191.159043	5599.840000	1042.125000	-244.396698
10191.159043	5599.840000	1040.971680	72.029579
10191.159043	5599.840000	1039.817383	8.700211
10191.159043	5599.840000	1038.663086	22.706434
10191.159043	5599.840000	1037.508789	36.949177
10191.159043	5599.840000	1036.353516	39.971039
10191.159043	5599.840000	1035.198242	-41.892570
10191.159043	5599.840000	1034.042969	90.879402
10191.159043	5599.840000	1032.887695	59.797272
10191.159043	5599.840000	1031.732422	106.534912
10191.159043	5599.840000	1030.576172	153.865341
10191.159043	5599.840000	1029.419922	33.657227
10191.159043	5599.840000	1028.263672	27.360840
10191.159043	5599.840000	1027.106445	99.902962
10191.159043	5599.840000	1025.949219	9.256797
10191.159043	5599.840000	1024.792969	38.657814
10191.159043	5599.840000	1023.634766	-48.116245
10191.159043	5599.840000	1022.477539	-17.023668
10191.159043	5599.840000	1021.319336	-40.761791
10191.159043	5599.840000	1020.161133	-59.248455
10191.159043	5599.840000	1019.002930	-84.468460
10191.159043	5599.840000	1017.843750	-126.664543
10191.159043	5599.840000	1016.684570	50.756241
10191.159043	5599.840000	1015.525391	-45.707027
10191.159043	5599.840000	1014.366211	28.371016
10191.159043	5599.840000	1013.207031	-12.805464
10191.159043	5599.840000	1012.046875	-197.859131
10191.159043	5599.840000	1010.886719	-8.965055
10191.159043	5599.840000	1009.726563	8.751338
10191.159043	5599.840000	1008.565430	23.596066
10191.159043	5599.840000	1007.404297	-7.523391
10191.159043	5599.840000	1006.243164	-24.057161
10191.159043	5599.840000	1005.082031	-118.477341
10191.159043	5599.840000	1003.920898	-19.534842
10191.159043	5599.840000	1002.758789	-2.890487
10191.159043	5599.840000	1001.596680	-6.165558
10191.159043	5599.840000	1000.433594	101.907318
10191.159043	5599.840000	999.271484	138.306793
10191.159043	5599.840000	998.108398	-3.601924
10191.159043	5599.840000	996.945313	5.041395
10191.159043	5599.840000	995.782227	-16.816893
10191.159043	5599.840000	994.618164	-12.808391
10191.159043	5599.840000	993.454102	108.639061
10191.159043	5599.840000	992.290039	-8.887073
10191.159043	5599.840000	991.125977	137.624512
10191.159043	5599.840000	989.960938	145.032913
10191.159043	5599.840000	988.796875	-27.997025
10191.159043	5599.840000	987.630859	175.528763
10191.159043	5599.840000	986.465820	152.992813
10191.159043	5599.840000	985.300781	237.105286
10191.159043	5599.840000	984.134766	225.560165
10191.159043	5599.840000	982.968750	208.210953
10191.159043	5599.840000	981.801758	72.849777
10191.159043	5599.840000	980.635742	85.580086
10191.159043	5599.840000	979.468750	32.651577
10191.159043	5599.840000	978.301758	75.451469
10191.159043	5599.840000	977.133789	30.600950
10191.159043	5599.840000	975.966797	71.825623
10191.159043	5599.840000	974.798828	29.532825
10191.159043	5599.840000	973.630859	-61.625542
10191.159043	5599.840000	972.461914	43.084461
10191.159043	5599.840000	971.293945	94.004730
10191.159043	5599.840000	970.125000	-43.243130
10191.159043	5599.840000	968.956055	0.988433
10191.159043	5599.840000	967.786133	-22.813259
10191.159043	5599.840000	966.617188	30.579491
10191.159043	5599.840000	965.447266	-46.604351
10191.159043	5599.840000	964.276367	49.496101
10191.159043	5599.840000	963.106445	-3.379201
10191.159043	5599.840000	961.935547	64.959595
10191.159043	5599.840000	960.764648	15.212333
10191.159043	5599.840000	959.593750	-72.135078
10191.159043	5599.840000	958.422852	-40.420460
10191.159043	5599.840000	957.250977	2.339037
10191.159043	5599.840000	956.079102	-22.893526
10191.159043	5599.840000	954.907227	-74.372971
10191.159043	5599.840000	953.734375	23.395744
10191.159043	5599.840000	952.562500	57.540890
10191.159043	5599.840000	951.389648	-39.036892
10191.159043	5599.840000	950.215820	-81.709633
10191.159043	5599.840000	949.042969	160.184677
10191.159043	5599.840000	947.869141	39.032475
10191.159043	5599.840000	946.695313	20.411135
10191.159043	5599.840000	945.521484	-45.574795
10191.159043	5599.840000	944.346680	-42.576340
10191.159043	5599.840000	943.172852	5.844466
10191.159043	5599.840000	941.998047	92.318596
10191.159043	5599.840000	940.822266	123.961815
10191.159043	5599.840000	939.647461	26.677450
10191.159043	5599.840000	938.471680	63.150154
10191.159043	5599.840000	937.295898	4.076498
10191.159043	5599.840000	936.119141	-102.809845
10191.159043	5599.840000	934.943359	12.256345
10191.159043	5599.840000	933.766602	-22.920242
10191.159043	5599.840000	932.589844	3.875549
10191.159043	5599.840000	931.413086	164.264374
10191.159043	5599.840000	930.235352	33.541874
10191.159043	5599.840000	929.057617	-56.539665
10191.159043	5599.840000	927.879883	94.220970
10191.159043	5599.840000	926.702148	89.944435
10191.159043	5599.840000	925.523438	42.726139
10191.159043	5599.840000	924.344727	7.446327
10191.159043	5599.840000	923.166016	-1.597116
10191.159043	5599.840000	921.987305	-113.123390
10191.159043	5599.840000	920.807617	61.298347
10191.159043	5599.840000	919.627930	62.640636
10191.159043	5599.840000	919.497070	21.400307
10191.159043	5599.840000	918.331055	136.153229
10191.159043	5599.840000	917.165039	-6.314641
10191.159043	5599.840000	915.999023	-110.640968
10191.159043	5599.840000	914.833008	34.987755
10191.159043	5599.840000	913.666016	75.844116
10191.159043	5599.840000	912.499023	-7.044628
10191.159043	5599.840000	911.332031	7.621846
10191.159043	5599.840000	910.165039	-6.264349
10191.159043	5599.840000	908.997070	-105.751457
10191.159043	5599.840000	907.830078	20.636471
10191.159043	5599.840000	906.661133	9.112048
10191.159043	5599.840000	905.493164	-49.942570
10191.159043	5599.840000	904.325195	35.945839
10191.159043	5599.840000	903.156250	-89.613777
10191.159043	5599.840000	901.987305	0.983518
10191.159043	5599.840000	900.818359	-12.936570
10191.159043	5599.840000	899.648438	39.611832
10191.159043	5599.840000	898.478516	37.542271
10191.159043	5599.840000	897.308594	4.618433
10191.159043	5599.840000	896.138672	23.894037
10191.159043	5599.840000	894.968750	133.289993
10191.159043	5599.840000	893.797852	33.943489
10191.159043	5599.840000	892.626953	-70.112251
10191.159043	5599.840000	891.456055	-62.718056
10191.159043	5599.840000	890.284180	63.168037
10191.159043	5599.840000	889.113281	101.321480
10191.159043	5599.840000	887.941406	87.333023
10191.159043	5599.840000	886.768555	30.708988
10191.159043	5599.840000	885.596680	38.038334
10191.159043	5599.840000	884.423828	-20.934914
10191.159043	5599.840000	883.250977	175.759018
10191.159043	5599.840000	882.078125	22.100582
10191.159043	5599.840000	880.905273	-8.461982
10191.159043	5599.840000	879.731445	5.929133
10191.159043	5599.840000	878.557617	46.324280
10191.159043	5599.840000	877.383789	46.494930
10191.159043	5599.840000	876.209961	23.015774
10191.159043	5599.840000	875.035156	39.723103
10191.159043	5599.840000	873.860352	82.411430
10191.159043	5599.840000	872.685547	-66.310371
10191.159043	5599.840000	871.510742	141.728088
10191.159043	5599.840000	870.334961	0.125743
10191.159043	5599.840000	869.159180	-51.695896
10191.159043	5599.840000	867.983398	54.672798
10191.159043	5599.840000	866.807617	78.377312
10191.159043	5599.840000	865.630859	116.224083
10191.159043	5599.840000	864.454102	92.702988
10191.159043	5599.840000	863.277344	-67.632797
10191.159043	5599.840000	862.100586	114.060440
10191.159043	5599.840000	860.922852	48.088638
10191.159043	5599.840000	859.745117	-46.154518
10191.159043	5599.840000	858.567383	-88.513306
10191.159043	5599.840000	857.389648	-53.098610
10191.159043	5599.840000	856.210938	-95.454636
10191.159043	5599.840000	855.032227	-3.536304
10191.159043	5599.840000	853.853516	116.596283
10191.159043	5599.840000	852.674805	-41.166298
10191.159043	5599.840000	851.495117	-5.838017
10191.159043	5599.840000	850.315430	45.942146
10191.159043	5599.840000	849.135742	81.221016
10191.159043	5599.840000	847.956055	52.955566
10191.159043	5599.840000	846.775391	-97.617714
10191.159043	5599.840000	845.595703	-36.489067
10191.159043	5599.840000	844.415039	-60.036060
10191.159043	5599.840000	843.233398	76.265144
10191.159043	5599.840000	842.052734	113.792030
10191.159043	5599.840000	840.871094	54.956532
10191.159043	5599.840000	839.689453	125.344322
10191.159043	5599.840000	838.506836	73.559013
10191.159043	5599.840000	837.325195	-46.314342
10191.159043	5599.840000	836.142578	122.630745
10191.159043	5599.840000	834.959961	110.753914
10191.159043	5599.840000	833.777344	-20.815025
10191.159043	5599.840000	832.593750	-42.061386
10191.159043	5599.840000	831.410156	-152.450714
10191.159043	5599.840000	830.226563	-154.917404
10191.159043	5599.840000	829.042969	-4.974964
10191.159043	5599.840000	827.858398	-63.755959
10191.159043	5599.840000	826.673828	81.398849
10191.159043	5599.840000	825.489258	-19.577517
10191.159043	5599.840000	824.304688	-45.548420
10191.159043	5599.840000	823.120117	54.975307
10191.159043	5599.840000	821.934570	-48.306179
10191.159043	5599.840000	820.749023	-8.723108
10191.159043	5599.840000	819.562500	-39.397125
10191.159043	5599.840000	818.376953	39.935776
10191.159043	5599.840000	817.190430	-0.117518
10191.159043	5599.840000	816.003906	104.888184
10191.159043	5599.840000	814.817383	-89.564308
10191.159043	5599.840000	813.629883	129.987305
10191.159043	5599.840000	812.442383	66.523384
10191.159043	5599.840000	811.254883	70.866104
10191.159043	5599.840000	810.067383	72.858124
10191.159043	5599.840000	808.878906	51.471474
10191.159043	5599.840000	807.690430	-21.313946
10191.159043	5599.840000	806.501953	-77.731628
10191.159043	5599.840000	805.313477	-15.040481
10191.159043	5599.840000	804.124023	21.930210
10191.159043	5599.840000	802.934570	61.208237
10191.159043	5599.840000	801.745117	30.444372
10191.159043	5599.840000	800.555664	65.013016
10191.159043	5599.840000	799.365234	-70.740372
10191.159043	5599.840000	798.175781	-36.190151
10191.159043	5599.840000	796.985352	5.328811
10191.159043	5599.840000	795.793945	53.812466
10191.159043	5599.840000	794.603516	62.637478
10191.159043	5599.840000	793.412109	108.732597
10191.159043	5599.840000	792.220703	10.340059
10191.159043	5599.840000	791.028320	154.236877
10191.159043	5599.840000	789.836914	93.112320
10191.159043	5599.840000	788.644531	15.700692
10191.159043	5599.840000	787.452148	110.578255
10191.159043	5599.840000	786.258789	63.425308
10191.159043	5599.840000	785.066406	34.893581
10191.159043	5599.840000	783.873047	41.257835
10191.159043	5599.840000	782.679688	131.343399
10191.159043	5599.840000	781.485352	-66.994202
10191.159043	5599.840000	780.291992	-2.528423
10191.159043	5599.840000	779.097656	182.775650
10191.159043	5599.840000	777.903320	-27.113556
10191.159043	5599.840000	776.708008	-9.213591
10191.159043	5599.840000	775.512695	92.298004
10191.159043	5599.840000	774.318359	56.713947
10191.159043	5599.840000	773.122070	55.962700
10191.159043	5599.840000	771.926758	-42.316090
10191.159043	5599.840000	770.730469	86.910858
10191.159043	5599.840000	769.534180	23.446537
10191.159043	5599.840000	768.337891	117.770790
10191.159043	5599.840000	767.141602	161.004105
10191.159043	5599.840000	765.944336	127.666893
10191.159043	5599.840000	764.747070	143.022141
10191.159043	5599.840000	763.549805	176.901276
10191.159043	5599.840000	762.351563	370.681122
10191.159043	5599.840000	761.154297	186.632523
10191.159043	5599.840000	759.956055	234.332489
10191.159043	5599.840000	758.757813	180.073380
10191.159043	5599.840000	757.558594	58.658222
10191.159043	5599.840000	756.359375	173.450699
10191.159043	5599.840000	755.160156	102.981445
10191.159043	5599.840000	753.960938	199.166336
10191.159043	5599.840000	752.761719	130.999893
10191.159043	5599.840000	751.561523	164.638092
10191.159043	5599.840000	750.361328	223.687851
10191.159043	5599.840000	749.160156	160.129333
10191.159043	5599.840000	747.959961	198.309921
10191.159043	5599.840000	746.758789	148.616333
10191.159043	5599.840000	745.557617	103.546654
10191.159043	5599.840000	744.356445	160.144226
10191.159043	5599.840000	743.154297	212.078613
10191.159043	5599.840000	741.952148	88.438744
10191.159043	5599.840000	740.750000	170.348053
10191.159043	5599.840000	739.547852	69.816658
10191.159043	5599.840000	738.344727	186.279205
10191.159043	5599.840000	737.142578	99.594551
10191.159043	5599.840000	735.939453	192.890381
10191.159043	5599.840000	734.735352	173.096207
10191.159043	5599.840000	733.532227	287.054413
10191.159043	5599.840000	732.328125	158.835907
10191.159043	5599.840000	731.124023	224.297394
10191.159043	5599.840000	729.918945	248.223999
10191.159043	5599.840000	728.714844	159.206711
10191.159043	5599.840000	727.509766	143.929657
10191.159043	5599.840000	726.303711	-27.992571
10191.159043	5599.840000	725.098633	30.427134
10191.159043	5599.840000	723.892578	93.405502
10191.159043	5599.840000	722.686523	188.563980
10191.159043	5599.840000	721.480469	71.926872
10191.159043	5599.840000	720.274414	116.385674
10191.159043	5599.840000	719.067383	54.980736
10191.159043	5599.840000	717.860352	-27.120041
10191.159043	5599.840000	716.653320	97.749748
10191.159043	5599.840000	715.445313	31.723181
10191.159043	5599.840000	714.238281	-61.879795
10191.159043	5599.840000	713.030273	-8.388635
10191.159043	5599.840000	711.821289	-81.310814
10191.159043	5599.840000	710.613281	22.654198
10191.159043	5599.840000	709.404297	-45.695717
10191.159043	5599.840000	708.195313	71.949577
10191.159043	5599.840000	706.986328	-21.679531
10191.159043	5599.840000	705.776367	-44.141991
10191.159043	5599.840000	704.566406	-130.870270
10191.159043	5599.840000	703.356445	9.544708
10191.159043	5599.840000	702.146484	26.014992
10191.159043	5599.840000	700.935547	-30.930546
10191.159043	5599.840000	699.724609	47.399235
10191.159043	5599.840000	698.513672	-119.604622
10191.159043	5599.840000	697.302734	41.169617
10191.159043	5599.840000	696.090820	-79.983116
10191.159043	5599.840000	694.878906	30.268057
10191.159043	5599.840000	693.666992	-54.233189
10191.159043	5599.840000	692.455078	81.108299
10191.159043	5599.840000	691.242188	33.213852
10191.159043	5599.840000	690.029297	-49.018688
10191.159043	5599.840000	688.816406	77.009750
10191.159043	5599.840000	687.602539	-34.990494
10191.159043	5599.840000	686.389648	79.496231
10191.159043	5599.840000	685.175781	8.660678
10191.159043	5599.840000	683.960938	88.741020
10191.159043	5599.840000	682.747070	81.894157
10191.159043	5599.840000	681.532227	-43.825516
10191.159043	5599.840000	680.317383	1.865771
10191.159043	5599.840000	679.102539	-0.464152
10191.159043	5599.840000	677.886719	52.000401
10191.159043	5599.840000	676.670898	-9.763884
10191.159043	5599.840000	675.455078	47.197075
10191.159043	5599.840000	674.239258	37.912052
10191.159043	5599.840000	673.022461	-53.554790
10191.159043	5599.840000	671.805664	58.065311
10191.159043	5599.840000	670.588867	226.644409
10191.159043	5599.840000	669.372070	116.874886
10191.159043	5599.840000	668.154297	77.813972
10191.159043	5599.840000	666.936523	-116.282150
10191.159043	5599.840000	665.718750	77.163170
10191.159043	5599.840000	664.500977	-0.680151
10191.159043	5599.840000	663.282227	-53.454636
10191.159043	5599.840000	662.063477	-33.340546
10191.159043	5599.840000	660.844727	-8.705070
10191.159043	5599.840000	659.625000	29.554832
10191.159043	5599.840000	658.405273	38.179855
10191.159043	5599.840000	657.185547	44.500584
10191.159043	5599.840000	655.965820	37.140083
10191.159043	5599.840000	654.745117	45.681305
10191.159043	5599.840000	653.525391	-7.216410
10191.159043	5599.840000	652.303711	153.638565
10191.159043	5599.840000	651.083008	41.576153
10191.159043	5599.840000	649.861328	9.091735
10191.159043	5599.840000	648.640625	-105.215729
10191.159043	5599.840000	647.417969	9.979942
10191.159043	5599.840000	646.196289	2.435662
10191.159043	5599.840000	644.973633	-89.164360
10191.159043	5599.840000	643.750977	-78.570847
10191.159043	5599.840000	642.528320	75.014580
10191.159043	5599.840000	641.305664	-89.248344
10191.159043	5599.840000	640.082031	30.185051
10191.159043	5599.840000	638.858398	38.374184
10191.159043	5599.840000	637.634766	-62.341530
10191.159043	5599.840000	636.410156	-26.974096
10191.159043	5599.840000	635.185547	74.105789
10191.159043	5599.840000	633.960938	88.978760
10191.159043	5599.840000	632.736328	19.966190
10191.159043	5599.840000	631.510742	-37.714500
10191.159043	5599.840000	630.285156	81.304848
10191.159043	5599.840000	629.059570	7.732327
10191.159043	5599.840000	627.833984	51.917152
10191.159043	5599.840000	626.607422	120.960472
10191.159043	5599.840000	625.380859	117.519104
10191.159043	5599.840000	624.154297	7.695204
10191.159043	5599.840000	622.927734	-22.918358
10191.159043	5599.840000	621.700195	-1.518834
10191.159043	5599.840000	620.472656	-9.551857
10191.159043	5599.840000	619.245117	-35.694073
10191.159043	5599.840000	618.016602	8.227823
10191.159043	5599.840000	616.788086	31.766308
10191.159043	5599.840000	615.559570	-48.671761
10191.159043	5599.840000	614.331055	-65.842613
10191.159043	5599.840000	613.101563	-17.530025
10191.159043	5599.840000	611.872070	-145.399704
10191.159043	5599.840000	610.642578	29.294563
10191.159043	5599.840000	609.413086	12.027041
10191.159043	5599.840000	608.182617	-124.865021
10191.159043	5599.840000	606.952148	-20.301649
10191.159043	5599.840000	605.721680	-26.338366
10191.159043	5599.840000	604.491211	-3.076107
10191.159043	5599.840000	603.259766	-0.141543
10191.159043	5599.840000	602.028320	-33.300327
10191.159043	5599.840000	600.796875	-19.135319
10191.159043	5599.840000	599.564453	13.026083
10191.159043	5599.840000	598.332031	124.004219
10191.159043	5599.840000	597.099609	117.787025
10191.159043	5599.840000	595.867188	37.236485
10191.159043	5599.840000	594.633789	62.515369
10191.159043	5599.840000	593.400391	2.224850
10191.159043	5599.840000	592.166992	128.731781
10191.159043	5599.840000	590.933594	45.910351
10191.159043	5599.840000	589.699219	37.336357
10191.159043	5599.840000	588.464844	4.005578
10191.159043	5599.840000	587.230469	6.645705
10191.159043	5599.840000	585.995117	234.073715
10191.159043	5599.840000	584.760742	209.651733
10191.159043	5599.840000	583.525391	99.825554
10191.159043	5599.840000	582.289063	210.198303
10191.159043	5599.840000	581.053711	156.533569
10191.159043	5599.840000	579.817383	244.350784
10191.159043	5599.840000	578.581055	260.262543
10191.159043	5599.840000	577.343750	224.516373
10191.159043	5599.840000	576.107422	166.325668
10191.159043	5599.840000	574.870117	285.399200
10191.159043	5599.840000	573.631836	121.740509
10191.159043	5599.840000	572.394531	47.849693
10191.159043	5599.840000	571.156250	133.177612
10191.159043	5599.840000	569.917969	92.904343
10191.159043	5599.840000	568.679688	149.010498
10191.159043	5599.840000	567.440430	198.349442
10191.159043	5599.840000	566.202148	32.567898
10191.159043	5599.840000	564.961914	135.630920
10191.159043	5599.840000	563.722656	131.138687
10191.159043	5599.840000	562.482422	90.804062
10191.159043	5599.840000	561.243164	10.177649
10191.159043	5599.840000	560.001953	104.131592
10191.159043	5599.840000	558.761719	-30.202578
10191.159043	5599.840000	557.520508	50.262432
10191.159043	5599.840000	556.279297	-7.994872
10191.159043	5599.840000	555.038086	52.271721
10191.159043	5599.840000	553.795898	27.536997
10191.159043	5599.840000	552.554688	36.326797
10191.159043	5599.840000	551.311523	11.569616
10191.159043	5599.840000	550.069336	-44.469975
10191.159043	5599.840000	548.826172	33.520699
10191.159043	5599.840000	547.583984	-47.098965
10191.159043	5599.840000	546.339844	-87.516350
10191.159043	5599.840000	545.096680	-36.403790
10191.159043	5599.840000	543.852539	30.290049
10191.159043	5599.840000	542.608398	-57.025604
10191.159043	5599.840000	541.364258	18.535042
10191.159043	5599.840000	540.119141	44.975395
10191.159043	5599.840000	538.875000	13.412284
10191.159043	5599.840000	537.628906	42.035961
10191.159043	5599.840000	536.383789	-9.608919
10191.159043	5599.840000	535.137695	25.660582
10191.159043	5599.840000	533.892578	116.602463
10191.159043	5599.840000	532.645508	24.823795
10191.159043	5599.840000	531.399414	44.424992
10191.159043	5599.840000	530.152344	-78.503433
10191.159043	5599.840000	528.905273	-41.115688
10191.159043	5599.840000	527.658203	2.916775
10191.159043	5599.840000	526.410156	55.810986
10191.159043	5599.840000	525.163086	-84.878098
10191.159043	5599.840000	523.914063	-118.768349
10191.159043	5599.840000	522.666016	-1.444249
10191.159043	5599.840000	521.416992	-57.604111
10191.159043	5599.840000	520.167969	-27.069155
10191.159043	5599.840000	518.918945	16.769346
10191.159043	5599.840000	517.669922	-117.174225
10191.159043	5599.840000	516.419922	-2.290964
10191.159043	5599.840000	515.169922	59.224358
10191.159043	5599.840000	513.919922	-59.156319
10191.159043	5599.840000	512.668945	-53.193310
10191.159043	5599.840000	511.417969	17.112436
10191.159043	5599.840000	510.166992	76.273827
10191.159043	5599.840000	508.916016	-66.491180
10191.159043	5599.840000	507.664063	198.894867
10191.159043	5599.840000	506.412109	91.602371
10191.159043	5599.840000	505.160156	48.630001
10191.159043	5599.840000	503.907227	3.434971
10191.159043	5599.840000	502.655273	40.237411
10191.159043	5599.840000	501.402344	96.939384
10191.159043	5599.840000	500.148438	177.958359
10191.159043	5599.840000	498.895508	108.325516
10191.159043	5599.840000	497.641602	235.759155
10191.159043	5599.840000	496.387695	163.879807
10191.159043	5599.840000	495.132813	43.312878
10191.159043	5599.840000	493.878906	42.265343
10191.159043	5599.840000	492.624023	125.255554
10191.159043	5599.840000	491.368164	172.792099
10191.159043	5599.840000	490.113281	346.330048
10191.159043	5599.840000	488.857422	79.802567
10191.159043	5599.840000	487.601563	266.488800
10191.159043	5599.840000	486.344727	271.850250
10191.159043	5599.840000	485.088867	232.994354
10191.159043	5599.840000	483.832031	322.239716
10191.159043	5599.840000	482.575195	270.072968
10191.159043	5599.840000	481.317383	345.955872
10191.159043	5599.840000	480.059570	271.661102
10191.159043	5599.840000	478.801758	254.747284
10191.159043	5599.840000	477.543945	288.556183
10191.159043	5599.840000	476.285156	223.036102
10191.159043	5599.840000	475.027344	258.968414
10191.159043	5599.840000	473.767578	246.325378
10191.159043	5599.840000	472.508789	244.674927
10191.159043	5599.840000	471.249023	249.592606
10191.159043	5599.840000	469.989258	236.835861
10191.159043	5599.840000	468.729492	111.675400
10191.159043	5599.840000	467.469727	272.882813
10191.159043	5599.840000	466.208984	359.092346
10191.159043	5599.840000	464.948242	266.869507
10191.159043	5599.840000	463.686523	326.524628
10191.159043	5599.840000	462.425781	300.273315
10191.159043	5599.840000	461.164063	410.400208
10191.159043	5599.840000	459.901367	351.027557
10191.159043	5599.840000	458.639648	260.835876
10191.159043	5599.840000	457.376953	240.987839
10191.159043	5599.840000	456.114258	337.607910
10191.159043	5599.840000	454.851563	427.530182
10191.159043	5599.840000	453.587891	374.505615
10191.159043	5599.840000	452.324219	323.634735
10191.159043	5599.840000	451.060547	252.949188
10191.159043	5599.840000	449.796875	303.009399
10191.159043	5599.840000	448.532227	368.340820
10191.159043	5599.840000	447.267578	369.909576
10191.159043	5599.840000	446.002930	329.701721
10191.159043	5599.840000	444.737305	372.807220
10191.159043	5599.840000	443.471680	358.774719
10191.159043	5599.840000	442.206055	342.470459
10191.159043	5599.840000	440.940430	295.387421
10191.159043	5599.840000	439.673828	373.191742
10191.159043	5599.840000	438.407227	358.812439
10191.159043	5599.840000	437.140625	396.936615
10191.159043	5599.840000	435.873047	259.669464
10191.159043	5599.840000	434.605469	339.211426
10191.159043	5599.840000	433.337891	326.637115
10191.159043	5599.840000	432.070313	259.223694
10191.159043	5599.840000	430.801758	309.928680
10191.159043	5599.840000	429.533203	391.136139
10191.159043	5599.840000	428.264648	332.156128
10191.159043	5599.840000	426.996094	364.958435
10191.159043	5599.840000	425.726563	292.635559
10191.159043	5599.840000	424.457031	336.105682
10191.159043	5599.840000	423.186523	265.738831
10191.159043	5599.840000	421.916992	413.839844
10191.159043	5599.840000	420.646484	448.099396
10191.159043	5599.840000	419.375977	447.243744
10191.159043	5599.840000	418.104492	273.677246
10191.159043	5599.840000	416.833008	279.103302
10191.159043	5599.840000	415.561523	362.967743
10191.159043	5599.840000	414.290039	300.384338
10191.159043	5599.840000	413.017578	327.131042
10191.159043	5599.840000	411.746094	244.607941
10191.159043	5599.840000	410.472656	325.535156
10191.159043	5599.840000	409.200195	371.358246
10191.159043	5599.840000	407.926758	482.381653
10191.159043	5599.840000	406.653320	305.406403
10191.159043	5599.840000	405.379883	359.339447
10191.159043	5599.840000	404.105469	330.234772
10191.159043	5599.840000	402.831055	414.220673
10191.159043	5599.840000	401.556641	548.051819
10191.159043	5599.840000	400.282227	241.724960
10191.159043	5599.840000	399.006836	420.801697
10191.159043	5599.840000	397.731445	362.310364
10191.159043	5599.840000	396.456055	251.377670
10191.159043	5599.840000	395.179688	523.168274
10191.159043	5599.840000	393.903320	335.608978
10191.159043	5599.840000	392.626953	180.494629
10191.159043	5599.840000	391.350586	227.394699
10191.159043	5599.840000	390.073242	178.343552
10191.159043	5599.840000	388.795898	289.863464
10191.159043	5599.840000	387.518555	309.787170
10191.159043	5599.840000	386.240234	305.500458
10191.159043	5599.840000	384.961914	164.080917
10191.159043	5599.840000	383.683594	322.077637
10191.159043	5599.840000	382.405273	245.219162
10191.159043	5599.840000	381.125977	389.452240
10191.159043	5599.840000	379.846680	275.050018
10191.159043	5599.840000	378.567383	297.039429
10191.159043	5599.840000	377.287109	262.258911
10191.159043	5599.840000	376.006836	198.940369
10191.159043	5599.840000	374.726563	250.193649
10191.159043	5599.840000	373.446289	285.872162
10191.159043	5599.840000	372.165039	206.270004
10191.159043	5599.840000	370.883789	247.643845
10191.159043	5599.840000	369.602539	316.753693
10191.159043	5599.840000	368.320313	272.779388
10191.159043	5599.840000	367.039063	252.229095
10191.159043	5599.840000	365.755859	265.858154
10191.159043	5599.840000	364.473633	131.867828
10191.159043	5599.840000	363.190430	237.656830
10191.159043	5599.840000	361.907227	169.851212
10191.159043	5599.840000	360.624023	17.236900
10191.159043	5599.840000	359.340820	45.846207
10191.159043	5599.840000	358.056641	166.889206
10191.159043	5599.840000	356.772461	125.242973
10191.159043	5599.840000	355.487305	232.183212
10191.159043	5599.840000	354.202148	187.289902
10191.159043	5599.840000	352.916992	269.310059
10191.159043	5599.840000	351.631836	218.984543
10191.159043	5599.840000	350.346680	83.890480
10191.159043	5599.840000	349.060547	157.639633
10191.159043	5599.840000	347.774414	42.976879
10191.159043	5599.840000	346.487305	-80.910782
10191.159043	5599.840000	345.200195	174.309814
10191.159043	5599.840000	343.913086	94.452278
10191.159043	5599.840000	342.625977	20.432503
10191.159043	5599.840000	341.338867	1.817986
10191.159043	5599.840000	340.050781	133.373444
10191.159043	5599.840000	338.762695	57.279808
10191.159043	5599.840000	337.473633	53.720051
10191.159043	5599.840000	336.184570	114.037178
10191.159043	5599.840000	334.895508	44.351955
10191.159043	5599.840000	333.606445	-21.775669
10191.159043	5599.840000	332.317383	81.389252
10191.159043	5599.840000	331.027344	172.908157
10191.159043	5599.840000	329.736328	-74.289192
10191.159043	5599.840000	328.446289	-1.666626
10191.159043	5599.840000	327.155273	-7.399806
10191.159043	5599.840000	325.864258	59.092815
10191.159043	5599.840000	324.573242	-47.335083
10191.159043	5599.840000	323.281250	-113.834946
10191.159043	5599.840000	321.989258	83.061478
10191.159043	5599.840000	320.697266	49.026207
10191.159043	5599.840000	319.405273	119.269501
10191.159043	5599.840000	318.112305	-163.743759
10191.159043	5599.840000	316.819336	-97.700111
10191.159043	5599.840000	315.526367	-152.941162
10191.159043	5599.840000	314.232422	-112.692436
10191.159043	5599.840000	312.938477	194.642883
10191.159043	5599.840000	311.644531	-18.393612
10191.159043	5599.840000	310.349609	-26.628742
10191.159043	5599.840000	309.054688	154.807556
10191.159043	5599.840000	307.759766	131.322937
10191.159043	5599.840000	306.464844	3.760161
10191.159043	5599.840000	305.168945	192.106125
10191.159043	5599.840000	303.873047	267.705933
10191.159043	5599.840000	302.577148	87.105247
10191.159043	5599.840000	301.281250	337.827393
10191.159043	5599.840000	299.984375	295.889832
