#X		#Y		#Wave		#Intensity
10504.472872	5203.210000	1999.946289	135.499557
10504.472872	5203.210000	1998.981445	-142.430405
10504.472872	5203.210000	1998.017578	1.624424
10504.472872	5203.210000	1997.052734	-80.036499
10504.472872	5203.210000	1996.088867	93.380188
10504.472872	5203.210000	1995.124023	-102.512436
10504.472872	5203.210000	1994.159180	-87.949501
10504.472872	5203.210000	1993.193359	-11.619197
10504.472872	5203.210000	1992.228516	44.744267
10504.472872	5203.210000	1991.262695	-178.753387
10504.472872	5203.210000	1990.296875	137.237839
10504.472872	5203.210000	1989.331055	200.602341
10504.472872	5203.210000	1988.365234	137.657974
10504.472872	5203.210000	1987.398438	-9.471239
10504.472872	5203.210000	1986.432617	70.871002
10504.472872	5203.210000	1985.465820	54.652725
10504.472872	5203.210000	1984.499023	142.173309
10504.472872	5203.210000	1983.532227	34.305859
10504.472872	5203.210000	1982.565430	64.778816
10504.472872	5203.210000	1981.597656	87.743431
10504.472872	5203.210000	1980.629883	122.968834
10504.472872	5203.210000	1979.662109	56.840492
10504.472872	5203.210000	1978.694336	-83.420311
10504.472872	5203.210000	1977.726563	129.357834
10504.472872	5203.210000	1976.758789	-50.497494
10504.472872	5203.210000	1975.790039	23.854435
10504.472872	5203.210000	1974.821289	-3.052592
10504.472872	5203.210000	1973.852539	224.102905
10504.472872	5203.210000	1972.883789	103.322998
10504.472872	5203.210000	1971.915039	-7.599299
10504.472872	5203.210000	1970.945313	34.344059
10504.472872	5203.210000	1969.975586	105.807869
10504.472872	5203.210000	1969.005859	66.286095
10504.472872	5203.210000	1968.036133	149.954269
10504.472872	5203.210000	1967.066406	-2.980891
10504.472872	5203.210000	1966.096680	65.814194
10504.472872	5203.210000	1965.125977	-8.304450
10504.472872	5203.210000	1964.155273	146.588333
10504.472872	5203.210000	1963.184570	269.387451
10504.472872	5203.210000	1962.213867	-92.821838
10504.472872	5203.210000	1961.242188	84.069077
10504.472872	5203.210000	1960.271484	-108.231514
10504.472872	5203.210000	1959.299805	-10.173829
10504.472872	5203.210000	1958.328125	-79.435478
10504.472872	5203.210000	1957.356445	143.969864
10504.472872	5203.210000	1956.384766	-18.762541
10504.472872	5203.210000	1955.412109	7.848463
10504.472872	5203.210000	1954.439453	-31.926657
10504.472872	5203.210000	1953.467773	36.435474
10504.472872	5203.210000	1952.495117	134.246719
10504.472872	5203.210000	1951.521484	-60.317490
10504.472872	5203.210000	1950.548828	211.850204
10504.472872	5203.210000	1949.575195	-2.309614
10504.472872	5203.210000	1948.601563	164.165619
10504.472872	5203.210000	1947.627930	16.372023
10504.472872	5203.210000	1946.654297	131.242569
10504.472872	5203.210000	1945.680664	-95.009552
10504.472872	5203.210000	1944.706055	257.821808
10504.472872	5203.210000	1943.732422	-76.290146
10504.472872	5203.210000	1942.757813	143.984497
10504.472872	5203.210000	1941.783203	72.394051
10504.472872	5203.210000	1940.807617	27.805637
10504.472872	5203.210000	1939.833008	83.738113
10504.472872	5203.210000	1938.857422	36.733177
10504.472872	5203.210000	1937.881836	-12.694457
10504.472872	5203.210000	1936.906250	38.346695
10504.472872	5203.210000	1935.930664	42.845726
10504.472872	5203.210000	1934.955078	5.726269
10504.472872	5203.210000	1933.978516	176.744858
10504.472872	5203.210000	1933.001953	288.964752
10504.472872	5203.210000	1932.025391	95.227455
10504.472872	5203.210000	1931.048828	60.633160
10504.472872	5203.210000	1930.072266	87.232239
10504.472872	5203.210000	1929.094727	177.434448
10504.472872	5203.210000	1928.118164	152.678711
10504.472872	5203.210000	1927.140625	5.691143
10504.472872	5203.210000	1926.163086	25.017065
10504.472872	5203.210000	1925.184570	22.355219
10504.472872	5203.210000	1924.207031	156.568039
10504.472872	5203.210000	1923.228516	131.932480
10504.472872	5203.210000	1922.250000	-46.575726
10504.472872	5203.210000	1921.271484	65.652084
10504.472872	5203.210000	1920.292969	-100.526466
10504.472872	5203.210000	1919.314453	-137.221527
10504.472872	5203.210000	1918.334961	-39.624096
10504.472872	5203.210000	1917.355469	189.751083
10504.472872	5203.210000	1916.375977	-32.366405
10504.472872	5203.210000	1915.396484	45.702217
10504.472872	5203.210000	1914.416992	28.633743
10504.472872	5203.210000	1913.436523	101.826996
10504.472872	5203.210000	1912.457031	23.837858
10504.472872	5203.210000	1911.476563	-46.787037
10504.472872	5203.210000	1910.496094	-27.180952
10504.472872	5203.210000	1909.515625	43.616951
10504.472872	5203.210000	1908.534180	-107.314842
10504.472872	5203.210000	1907.552734	46.338509
10504.472872	5203.210000	1906.572266	117.144661
10504.472872	5203.210000	1905.590820	54.011688
10504.472872	5203.210000	1904.608398	98.048798
10504.472872	5203.210000	1903.626953	25.246822
10504.472872	5203.210000	1902.644531	3.601775
10504.472872	5203.210000	1901.663086	30.650261
10504.472872	5203.210000	1900.680664	96.633446
10504.472872	5203.210000	1899.698242	40.990826
10504.472872	5203.210000	1898.714844	-51.092690
10504.472872	5203.210000	1897.732422	-16.684248
10504.472872	5203.210000	1896.749023	-123.271118
10504.472872	5203.210000	1895.765625	3.535254
10504.472872	5203.210000	1894.782227	-15.496017
10504.472872	5203.210000	1893.798828	4.370962
10504.472872	5203.210000	1892.814453	-131.223816
10504.472872	5203.210000	1891.831055	-77.306824
10504.472872	5203.210000	1890.846680	-98.673798
10504.472872	5203.210000	1889.862305	-132.156128
10504.472872	5203.210000	1888.877930	-10.257236
10504.472872	5203.210000	1887.892578	-75.266846
10504.472872	5203.210000	1886.908203	56.308884
10504.472872	5203.210000	1885.922852	37.433048
10504.472872	5203.210000	1884.937500	137.430389
10504.472872	5203.210000	1883.952148	-68.165512
10504.472872	5203.210000	1882.965820	-150.014450
10504.472872	5203.210000	1881.980469	44.540264
10504.472872	5203.210000	1880.994141	-153.620209
10504.472872	5203.210000	1880.007813	103.888290
10504.472872	5203.210000	1879.021484	-2.122358
10504.472872	5203.210000	1878.035156	-83.860825
10504.472872	5203.210000	1877.047852	-114.700806
10504.472872	5203.210000	1876.061523	191.068924
10504.472872	5203.210000	1875.074219	-161.799347
10504.472872	5203.210000	1874.086914	-13.463541
10504.472872	5203.210000	1873.098633	-131.396011
10504.472872	5203.210000	1872.111328	53.181767
10504.472872	5203.210000	1871.123047	-11.487669
10504.472872	5203.210000	1870.135742	-122.088715
10504.472872	5203.210000	1869.147461	-31.923773
10504.472872	5203.210000	1868.158203	50.954674
10504.472872	5203.210000	1867.169922	39.522362
10504.472872	5203.210000	1866.180664	18.426098
10504.472872	5203.210000	1865.192383	-14.746092
10504.472872	5203.210000	1864.203125	-122.806396
10504.472872	5203.210000	1863.213867	92.864502
10504.472872	5203.210000	1862.223633	-90.051521
10504.472872	5203.210000	1861.234375	-111.116814
10504.472872	5203.210000	1860.244141	-64.581108
10504.472872	5203.210000	1859.253906	59.173920
10504.472872	5203.210000	1858.263672	199.769562
10504.472872	5203.210000	1857.273438	7.324188
10504.472872	5203.210000	1856.282227	-187.469635
10504.472872	5203.210000	1855.291992	35.076756
10504.472872	5203.210000	1854.300781	98.366867
10504.472872	5203.210000	1853.309570	123.045410
10504.472872	5203.210000	1852.317383	68.152573
10504.472872	5203.210000	1851.326172	75.933723
10504.472872	5203.210000	1850.333984	30.683884
10504.472872	5203.210000	1849.342773	93.855499
10504.472872	5203.210000	1848.350586	17.275759
10504.472872	5203.210000	1847.357422	167.097153
10504.472872	5203.210000	1846.365234	-20.261978
10504.472872	5203.210000	1845.372070	-176.271393
10504.472872	5203.210000	1844.379883	-48.211903
10504.472872	5203.210000	1843.386719	7.583380
10504.472872	5203.210000	1842.393555	-37.718227
10504.472872	5203.210000	1841.399414	34.853962
10504.472872	5203.210000	1840.406250	1.549559
10504.472872	5203.210000	1839.412109	4.306793
10504.472872	5203.210000	1838.417969	16.657320
10504.472872	5203.210000	1837.423828	16.960714
10504.472872	5203.210000	1836.429688	132.602921
10504.472872	5203.210000	1835.434570	99.194145
10504.472872	5203.210000	1834.440430	77.784088
10504.472872	5203.210000	1833.445313	29.933779
10504.472872	5203.210000	1832.450195	289.475800
10504.472872	5203.210000	1831.454102	8.638430
10504.472872	5203.210000	1830.458984	102.382729
10504.472872	5203.210000	1829.462891	20.846672
10504.472872	5203.210000	1828.466797	20.902025
10504.472872	5203.210000	1827.470703	-22.261524
10504.472872	5203.210000	1826.474609	30.514471
10504.472872	5203.210000	1825.478516	95.229279
10504.472872	5203.210000	1824.481445	-3.175138
10504.472872	5203.210000	1823.484375	-72.806320
10504.472872	5203.210000	1822.487305	8.567446
10504.472872	5203.210000	1821.490234	-13.178586
10504.472872	5203.210000	1820.493164	53.703907
10504.472872	5203.210000	1819.495117	0.739763
10504.472872	5203.210000	1818.498047	105.843979
10504.472872	5203.210000	1817.500000	-138.770981
10504.472872	5203.210000	1816.500977	83.563011
10504.472872	5203.210000	1815.502930	114.263184
10504.472872	5203.210000	1814.504883	195.172668
10504.472872	5203.210000	1813.505859	287.974304
10504.472872	5203.210000	1812.506836	167.764160
10504.472872	5203.210000	1811.507813	212.608948
10504.472872	5203.210000	1810.508789	8.664281
10504.472872	5203.210000	1809.508789	151.473221
10504.472872	5203.210000	1808.508789	67.062668
10504.472872	5203.210000	1807.508789	6.542341
10504.472872	5203.210000	1806.508789	273.404816
10504.472872	5203.210000	1805.508789	107.643600
10504.472872	5203.210000	1804.508789	197.512039
10504.472872	5203.210000	1803.507813	-78.139420
10504.472872	5203.210000	1802.506836	281.478149
10504.472872	5203.210000	1801.505859	110.870995
10504.472872	5203.210000	1800.504883	85.893066
10504.472872	5203.210000	1799.502930	134.858536
10504.472872	5203.210000	1798.501953	105.011383
10504.472872	5203.210000	1797.500000	65.579109
10504.472872	5203.210000	1796.498047	126.293343
10504.472872	5203.210000	1795.496094	65.303955
10504.472872	5203.210000	1794.493164	97.273552
10504.472872	5203.210000	1793.491211	29.054085
10504.472872	5203.210000	1792.488281	101.431183
10504.472872	5203.210000	1791.485352	73.637756
10504.472872	5203.210000	1790.482422	10.060040
10504.472872	5203.210000	1789.478516	279.950287
10504.472872	5203.210000	1788.475586	80.489098
10504.472872	5203.210000	1787.471680	57.257568
10504.472872	5203.210000	1786.467773	200.632446
10504.472872	5203.210000	1785.463867	34.451206
10504.472872	5203.210000	1784.459961	127.683159
10504.472872	5203.210000	1783.455078	28.084166
10504.472872	5203.210000	1782.450195	382.850586
10504.472872	5203.210000	1781.445313	126.138298
10504.472872	5203.210000	1780.440430	57.332657
10504.472872	5203.210000	1779.435547	57.445030
10504.472872	5203.210000	1778.429688	67.001549
10504.472872	5203.210000	1777.424805	188.203720
10504.472872	5203.210000	1776.418945	190.481094
10504.472872	5203.210000	1775.413086	-128.040802
10504.472872	5203.210000	1774.406250	-61.696365
10504.472872	5203.210000	1773.400391	125.686127
10504.472872	5203.210000	1772.393555	203.704742
10504.472872	5203.210000	1771.386719	60.846622
10504.472872	5203.210000	1770.379883	110.238441
10504.472872	5203.210000	1769.373047	135.816483
10504.472872	5203.210000	1768.365234	-213.565506
10504.472872	5203.210000	1767.358398	-24.379524
10504.472872	5203.210000	1766.350586	121.973785
10504.472872	5203.210000	1765.342773	111.698784
10504.472872	5203.210000	1764.334961	75.283531
10504.472872	5203.210000	1763.326172	71.999527
10504.472872	5203.210000	1762.318359	104.203545
10504.472872	5203.210000	1761.309570	235.845947
10504.472872	5203.210000	1760.300781	163.632416
10504.472872	5203.210000	1759.291016	-12.843496
10504.472872	5203.210000	1758.282227	201.432755
10504.472872	5203.210000	1757.272461	48.561455
10504.472872	5203.210000	1756.262695	94.531792
10504.472872	5203.210000	1755.252930	-63.128994
10504.472872	5203.210000	1754.243164	39.503792
10504.472872	5203.210000	1753.233398	198.811905
10504.472872	5203.210000	1752.222656	159.288910
10504.472872	5203.210000	1751.211914	-57.663532
10504.472872	5203.210000	1750.201172	28.063904
10504.472872	5203.210000	1749.190430	-80.165558
10504.472872	5203.210000	1748.179688	-136.422256
10504.472872	5203.210000	1747.167969	-107.653320
10504.472872	5203.210000	1746.156250	178.576492
10504.472872	5203.210000	1745.144531	-29.092213
10504.472872	5203.210000	1744.132813	18.329838
10504.472872	5203.210000	1743.121094	-5.175900
10504.472872	5203.210000	1742.108398	129.438309
10504.472872	5203.210000	1741.095703	197.838547
10504.472872	5203.210000	1740.083008	44.299255
10504.472872	5203.210000	1739.070313	-66.777161
10504.472872	5203.210000	1738.057617	-22.173828
10504.472872	5203.210000	1737.043945	-74.368675
10504.472872	5203.210000	1736.030273	-11.056583
10504.472872	5203.210000	1735.016602	-141.176926
10504.472872	5203.210000	1734.002930	-4.934649
10504.472872	5203.210000	1732.989258	-132.784729
10504.472872	5203.210000	1731.974609	-79.213158
10504.472872	5203.210000	1730.959961	-32.797264
10504.472872	5203.210000	1729.945313	-184.333786
10504.472872	5203.210000	1728.930664	31.516302
10504.472872	5203.210000	1727.916016	-42.405025
10504.472872	5203.210000	1726.900391	144.944290
10504.472872	5203.210000	1725.885742	-4.425640
10504.472872	5203.210000	1724.870117	-210.290283
10504.472872	5203.210000	1723.853516	-67.926964
10504.472872	5203.210000	1722.837891	-55.060524
10504.472872	5203.210000	1721.822266	-32.857967
10504.472872	5203.210000	1720.805664	160.923645
10504.472872	5203.210000	1719.789063	117.108154
10504.472872	5203.210000	1718.772461	-166.518066
10504.472872	5203.210000	1717.754883	17.572947
10504.472872	5203.210000	1716.738281	46.453976
10504.472872	5203.210000	1715.720703	117.538994
10504.472872	5203.210000	1714.703125	59.347492
10504.472872	5203.210000	1713.685547	31.642481
10504.472872	5203.210000	1712.667969	123.626411
10504.472872	5203.210000	1711.649414	44.140408
10504.472872	5203.210000	1710.630859	-58.850449
10504.472872	5203.210000	1709.612305	239.397339
10504.472872	5203.210000	1708.593750	0.208350
10504.472872	5203.210000	1707.575195	49.563400
10504.472872	5203.210000	1706.555664	-4.358737
10504.472872	5203.210000	1705.536133	-152.112183
10504.472872	5203.210000	1704.516602	-138.114517
10504.472872	5203.210000	1703.497070	49.261612
10504.472872	5203.210000	1702.477539	-49.391613
10504.472872	5203.210000	1701.457031	8.903176
10504.472872	5203.210000	1700.437500	-19.549749
10504.472872	5203.210000	1699.416992	83.095490
10504.472872	5203.210000	1698.395508	-1.695017
10504.472872	5203.210000	1697.375000	-6.904733
10504.472872	5203.210000	1696.354492	-30.897186
10504.472872	5203.210000	1695.333008	-33.884735
10504.472872	5203.210000	1694.311523	-67.346588
10504.472872	5203.210000	1693.290039	-217.821320
10504.472872	5203.210000	1692.267578	33.989300
10504.472872	5203.210000	1691.246094	26.084915
10504.472872	5203.210000	1690.223633	106.963852
10504.472872	5203.210000	1689.201172	-132.490494
10504.472872	5203.210000	1688.178711	-40.038353
10504.472872	5203.210000	1687.155273	101.385902
10504.472872	5203.210000	1686.132813	-7.266405
10504.472872	5203.210000	1685.109375	-80.901695
10504.472872	5203.210000	1684.085938	163.039505
10504.472872	5203.210000	1683.062500	58.939571
10504.472872	5203.210000	1682.039063	-26.496838
10504.472872	5203.210000	1681.014648	-44.276608
10504.472872	5203.210000	1679.990234	75.576935
10504.472872	5203.210000	1678.965820	6.355390
10504.472872	5203.210000	1677.941406	135.381592
10504.472872	5203.210000	1676.916992	101.057510
10504.472872	5203.210000	1675.891602	-3.263584
10504.472872	5203.210000	1674.866211	181.485092
10504.472872	5203.210000	1673.840820	21.152765
10504.472872	5203.210000	1672.815430	84.550613
10504.472872	5203.210000	1671.790039	208.454636
10504.472872	5203.210000	1670.763672	171.521652
10504.472872	5203.210000	1669.737305	157.847977
10504.472872	5203.210000	1668.710938	193.034836
10504.472872	5203.210000	1667.684570	188.584824
10504.472872	5203.210000	1666.658203	65.381401
10504.472872	5203.210000	1665.630859	330.820465
10504.472872	5203.210000	1664.603516	249.424377
10504.472872	5203.210000	1663.576172	247.111740
10504.472872	5203.210000	1662.548828	191.265060
10504.472872	5203.210000	1661.520508	244.684433
10504.472872	5203.210000	1660.493164	186.452347
10504.472872	5203.210000	1659.464844	58.459290
10504.472872	5203.210000	1658.436523	21.116499
10504.472872	5203.210000	1657.408203	278.850464
10504.472872	5203.210000	1656.378906	399.370300
10504.472872	5203.210000	1655.350586	426.906281
10504.472872	5203.210000	1654.321289	319.694366
10504.472872	5203.210000	1653.291992	344.833435
10504.472872	5203.210000	1652.261719	427.952454
10504.472872	5203.210000	1651.232422	378.721405
10504.472872	5203.210000	1650.202148	403.722717
10504.472872	5203.210000	1649.171875	593.403992
10504.472872	5203.210000	1648.141602	692.516052
10504.472872	5203.210000	1647.111328	837.941406
10504.472872	5203.210000	1646.080078	848.786438
10504.472872	5203.210000	1645.049805	537.370850
10504.472872	5203.210000	1644.018555	647.876465
10504.472872	5203.210000	1642.987305	767.579163
10504.472872	5203.210000	1641.955078	757.453430
10504.472872	5203.210000	1640.923828	860.819214
10504.472872	5203.210000	1639.891602	818.201782
10504.472872	5203.210000	1638.859375	909.877197
10504.472872	5203.210000	1637.827148	881.107056
10504.472872	5203.210000	1636.794922	1051.384277
10504.472872	5203.210000	1635.761719	1066.511353
10504.472872	5203.210000	1634.729492	1109.384521
10504.472872	5203.210000	1633.696289	890.806458
10504.472872	5203.210000	1632.662109	1213.490601
10504.472872	5203.210000	1631.628906	1219.239624
10504.472872	5203.210000	1630.594727	1201.837524
10504.472872	5203.210000	1629.561523	1306.943237
10504.472872	5203.210000	1628.527344	1222.474609
10504.472872	5203.210000	1627.493164	1235.066040
10504.472872	5203.210000	1626.458008	1282.279907
10504.472872	5203.210000	1625.423828	1435.716919
10504.472872	5203.210000	1624.388672	1489.770874
10504.472872	5203.210000	1623.353516	1476.834595
10504.472872	5203.210000	1622.318359	1438.497559
10504.472872	5203.210000	1621.282227	1446.312256
10504.472872	5203.210000	1620.247070	1119.538574
10504.472872	5203.210000	1619.210938	1300.416260
10504.472872	5203.210000	1618.174805	1190.585938
10504.472872	5203.210000	1617.137695	1253.738525
10504.472872	5203.210000	1616.101563	1102.439941
10504.472872	5203.210000	1615.064453	1239.336792
10504.472872	5203.210000	1614.027344	1005.104065
10504.472872	5203.210000	1612.990234	1010.606750
10504.472872	5203.210000	1611.953125	949.290100
10504.472872	5203.210000	1610.916016	1383.230103
10504.472872	5203.210000	1609.877930	1121.487793
10504.472872	5203.210000	1608.839844	1242.065308
10504.472872	5203.210000	1607.801758	1104.760254
10504.472872	5203.210000	1606.763672	1133.225830
10504.472872	5203.210000	1605.724609	1173.175415
10504.472872	5203.210000	1604.685547	1194.704956
10504.472872	5203.210000	1603.646484	1135.716431
10504.472872	5203.210000	1602.607422	1297.538940
10504.472872	5203.210000	1601.568359	1210.966187
10504.472872	5203.210000	1600.528320	1168.101440
10504.472872	5203.210000	1599.489258	1258.580444
10504.472872	5203.210000	1598.449219	1351.317871
10504.472872	5203.210000	1597.408203	1246.422974
10504.472872	5203.210000	1596.368164	1063.481689
10504.472872	5203.210000	1595.327148	1349.137207
10504.472872	5203.210000	1594.287109	1356.853516
10504.472872	5203.210000	1593.246094	1314.058838
10504.472872	5203.210000	1592.204102	1204.716064
10504.472872	5203.210000	1591.163086	1269.850464
10504.472872	5203.210000	1590.121094	1192.703979
10504.472872	5203.210000	1589.079102	1308.297852
10504.472872	5203.210000	1588.037109	1139.459229
10504.472872	5203.210000	1586.995117	1202.305054
10504.472872	5203.210000	1585.953125	1084.020630
10504.472872	5203.210000	1584.910156	1036.847168
10504.472872	5203.210000	1583.867188	1120.340942
10504.472872	5203.210000	1582.824219	995.308533
10504.472872	5203.210000	1581.781250	739.764343
10504.472872	5203.210000	1580.737305	912.639038
10504.472872	5203.210000	1579.693359	824.408813
10504.472872	5203.210000	1578.649414	880.473938
10504.472872	5203.210000	1577.605469	776.303833
10504.472872	5203.210000	1576.561523	729.412109
10504.472872	5203.210000	1575.516602	620.772400
10504.472872	5203.210000	1574.472656	940.013794
10504.472872	5203.210000	1573.427734	831.423889
10504.472872	5203.210000	1572.381836	846.381348
10504.472872	5203.210000	1571.336914	872.801392
10504.472872	5203.210000	1570.291016	954.090759
10504.472872	5203.210000	1569.246094	767.983765
10504.472872	5203.210000	1568.200195	789.907776
10504.472872	5203.210000	1567.153320	951.203491
10504.472872	5203.210000	1566.107422	1025.678345
10504.472872	5203.210000	1565.060547	858.073303
10504.472872	5203.210000	1564.013672	891.492249
10504.472872	5203.210000	1562.966797	863.295105
10504.472872	5203.210000	1561.919922	1022.294312
10504.472872	5203.210000	1560.872070	1144.746094
10504.472872	5203.210000	1559.825195	1036.766968
10504.472872	5203.210000	1558.777344	1070.279053
10504.472872	5203.210000	1557.729492	1172.230591
10504.472872	5203.210000	1556.680664	1041.599854
10504.472872	5203.210000	1555.632813	1020.490112
10504.472872	5203.210000	1554.583984	1088.308350
10504.472872	5203.210000	1553.535156	1128.793579
10504.472872	5203.210000	1552.486328	1301.445435
10504.472872	5203.210000	1551.436523	1207.550903
10504.472872	5203.210000	1550.387695	1487.240601
10504.472872	5203.210000	1549.337891	1361.551270
10504.472872	5203.210000	1548.288086	1506.861572
10504.472872	5203.210000	1547.238281	1410.894897
10504.472872	5203.210000	1546.187500	1305.898193
10504.472872	5203.210000	1545.136719	1264.693237
10504.472872	5203.210000	1544.086914	1523.823364
10504.472872	5203.210000	1543.035156	1532.709229
10504.472872	5203.210000	1541.984375	1548.469482
10504.472872	5203.210000	1540.933594	1418.774170
10504.472872	5203.210000	1539.881836	1232.346191
10504.472872	5203.210000	1538.830078	1305.105469
10504.472872	5203.210000	1537.778320	1536.927856
10504.472872	5203.210000	1536.725586	1243.963989
10504.472872	5203.210000	1535.673828	1282.760986
10504.472872	5203.210000	1534.621094	1264.819946
10504.472872	5203.210000	1533.568359	1117.534424
10504.472872	5203.210000	1532.515625	1292.671387
10504.472872	5203.210000	1531.461914	1231.771729
10504.472872	5203.210000	1530.409180	1084.741333
10504.472872	5203.210000	1529.355469	1141.976196
10504.472872	5203.210000	1528.301758	1067.700684
10504.472872	5203.210000	1527.247070	948.150940
10504.472872	5203.210000	1526.193359	1100.766479
10504.472872	5203.210000	1525.138672	727.506592
10504.472872	5203.210000	1524.083984	798.630188
10504.472872	5203.210000	1523.029297	643.207275
10504.472872	5203.210000	1521.974609	709.906372
10504.472872	5203.210000	1520.918945	722.275452
10504.472872	5203.210000	1519.863281	569.397583
10504.472872	5203.210000	1518.807617	421.167877
10504.472872	5203.210000	1517.751953	648.805603
10504.472872	5203.210000	1516.696289	405.694000
10504.472872	5203.210000	1515.639648	273.604156
10504.472872	5203.210000	1514.583008	367.848206
10504.472872	5203.210000	1513.526367	303.796814
10504.472872	5203.210000	1512.469727	418.477783
10504.472872	5203.210000	1511.412109	209.871338
10504.472872	5203.210000	1510.355469	247.801804
10504.472872	5203.210000	1509.297852	468.833618
10504.472872	5203.210000	1508.240234	425.482666
10504.472872	5203.210000	1507.181641	50.128796
10504.472872	5203.210000	1506.124023	302.889771
10504.472872	5203.210000	1505.065430	205.599045
10504.472872	5203.210000	1504.006836	178.403091
10504.472872	5203.210000	1502.948242	286.724243
10504.472872	5203.210000	1501.888672	158.099838
10504.472872	5203.210000	1500.830078	183.035629
10504.472872	5203.210000	1499.770508	338.868652
10504.472872	5203.210000	1498.710938	43.618031
10504.472872	5203.210000	1497.650391	-12.417855
10504.472872	5203.210000	1496.590820	75.939987
10504.472872	5203.210000	1495.530273	110.229301
10504.472872	5203.210000	1494.469727	340.648621
10504.472872	5203.210000	1493.409180	334.460052
10504.472872	5203.210000	1492.348633	121.091713
10504.472872	5203.210000	1491.287109	367.354034
10504.472872	5203.210000	1490.225586	149.704010
10504.472872	5203.210000	1489.164063	184.376404
10504.472872	5203.210000	1488.102539	255.126450
10504.472872	5203.210000	1487.041016	292.166351
10504.472872	5203.210000	1485.978516	135.754196
10504.472872	5203.210000	1484.916016	85.263573
10504.472872	5203.210000	1483.853516	16.781719
10504.472872	5203.210000	1482.791016	195.818710
10504.472872	5203.210000	1481.727539	6.143596
10504.472872	5203.210000	1480.664063	-50.752163
10504.472872	5203.210000	1479.600586	159.896362
10504.472872	5203.210000	1478.537109	224.485947
10504.472872	5203.210000	1477.473633	-9.617900
10504.472872	5203.210000	1476.409180	91.073921
10504.472872	5203.210000	1475.344727	124.439194
10504.472872	5203.210000	1474.280273	5.183245
10504.472872	5203.210000	1473.215820	-35.223957
10504.472872	5203.210000	1472.151367	-37.407169
10504.472872	5203.210000	1471.085938	-37.451160
10504.472872	5203.210000	1470.020508	155.471634
10504.472872	5203.210000	1468.955078	79.373131
10504.472872	5203.210000	1467.888672	203.030121
10504.472872	5203.210000	1466.823242	102.542091
10504.472872	5203.210000	1465.756836	185.655807
10504.472872	5203.210000	1464.690430	132.654449
10504.472872	5203.210000	1463.624023	168.656357
10504.472872	5203.210000	1462.556641	-13.854295
10504.472872	5203.210000	1461.490234	-15.008336
10504.472872	5203.210000	1460.422852	307.710297
10504.472872	5203.210000	1459.355469	139.287506
10504.472872	5203.210000	1458.287109	225.107132
10504.472872	5203.210000	1457.219727	185.960556
10504.472872	5203.210000	1456.151367	240.624222
10504.472872	5203.210000	1455.083008	272.594391
10504.472872	5203.210000	1454.014648	180.639740
10504.472872	5203.210000	1452.945313	210.748016
10504.472872	5203.210000	1451.876953	225.727325
10504.472872	5203.210000	1450.807617	174.463272
10504.472872	5203.210000	1449.738281	211.409698
10504.472872	5203.210000	1448.668945	463.212189
10504.472872	5203.210000	1447.598633	477.418427
10504.472872	5203.210000	1446.528320	567.234924
10504.472872	5203.210000	1445.458008	484.069000
10504.472872	5203.210000	1444.387695	554.973389
10504.472872	5203.210000	1443.317383	271.515564
10504.472872	5203.210000	1442.246094	492.506195
10504.472872	5203.210000	1441.174805	419.642639
10504.472872	5203.210000	1440.103516	446.423889
10504.472872	5203.210000	1439.032227	511.756226
10504.472872	5203.210000	1437.960938	434.392609
10504.472872	5203.210000	1436.888672	442.260315
10504.472872	5203.210000	1435.816406	506.287689
10504.472872	5203.210000	1434.744141	417.571350
10504.472872	5203.210000	1433.670898	386.861115
10504.472872	5203.210000	1432.598633	434.423981
10504.472872	5203.210000	1431.525391	352.366089
10504.472872	5203.210000	1430.452148	376.012756
10504.472872	5203.210000	1429.378906	46.671566
10504.472872	5203.210000	1428.304688	129.625870
10504.472872	5203.210000	1427.231445	179.920166
10504.472872	5203.210000	1426.157227	121.547081
10504.472872	5203.210000	1425.083008	43.271950
10504.472872	5203.210000	1424.007813	-11.803215
10504.472872	5203.210000	1422.933594	30.993336
10504.472872	5203.210000	1421.858398	177.052307
10504.472872	5203.210000	1420.783203	110.025414
10504.472872	5203.210000	1419.708008	-57.538651
10504.472872	5203.210000	1418.631836	141.158783
10504.472872	5203.210000	1417.555664	137.846313
10504.472872	5203.210000	1416.479492	162.841156
10504.472872	5203.210000	1415.403320	-128.117538
10504.472872	5203.210000	1414.327148	-111.485023
10504.472872	5203.210000	1413.250000	-150.396820
10504.472872	5203.210000	1412.173828	-66.055901
10504.472872	5203.210000	1411.096680	12.490532
10504.472872	5203.210000	1410.018555	-0.461574
10504.472872	5203.210000	1408.941406	-104.813904
10504.472872	5203.210000	1407.863281	90.131882
10504.472872	5203.210000	1406.785156	104.778320
10504.472872	5203.210000	1405.707031	21.107632
10504.472872	5203.210000	1404.628906	89.703583
10504.472872	5203.210000	1403.549805	108.686165
10504.472872	5203.210000	1402.470703	-14.606878
10504.472872	5203.210000	1401.391602	-53.413090
10504.472872	5203.210000	1400.312500	27.876673
10504.472872	5203.210000	1399.233398	-190.939972
10504.472872	5203.210000	1398.153320	-38.548367
10504.472872	5203.210000	1397.073242	-5.868008
10504.472872	5203.210000	1395.993164	-21.400143
10504.472872	5203.210000	1394.913086	90.364731
10504.472872	5203.210000	1393.832031	73.946648
10504.472872	5203.210000	1392.750977	71.420876
10504.472872	5203.210000	1391.669922	-67.822243
10504.472872	5203.210000	1390.588867	115.255081
10504.472872	5203.210000	1389.506836	219.472977
10504.472872	5203.210000	1388.425781	184.680603
10504.472872	5203.210000	1387.343750	-170.360336
10504.472872	5203.210000	1386.261719	-144.519394
10504.472872	5203.210000	1385.178711	-35.350216
10504.472872	5203.210000	1384.096680	102.126625
10504.472872	5203.210000	1383.013672	20.800329
10504.472872	5203.210000	1381.930664	-49.450924
10504.472872	5203.210000	1380.846680	-27.325027
10504.472872	5203.210000	1379.763672	-75.740639
10504.472872	5203.210000	1378.679688	-81.163452
10504.472872	5203.210000	1377.595703	66.359589
10504.472872	5203.210000	1376.511719	173.563461
10504.472872	5203.210000	1375.427734	90.979042
10504.472872	5203.210000	1374.342773	83.914703
10504.472872	5203.210000	1373.257813	-29.854551
10504.472872	5203.210000	1372.172852	-52.052746
10504.472872	5203.210000	1371.087891	-71.388275
10504.472872	5203.210000	1370.001953	69.425995
10504.472872	5203.210000	1368.916992	-87.964638
10504.472872	5203.210000	1367.831055	20.208900
10504.472872	5203.210000	1366.744141	-98.664932
10504.472872	5203.210000	1365.658203	-49.705902
10504.472872	5203.210000	1364.571289	67.198219
10504.472872	5203.210000	1363.484375	46.431133
10504.472872	5203.210000	1362.397461	17.941641
10504.472872	5203.210000	1361.310547	-89.450394
10504.472872	5203.210000	1360.222656	99.604263
10504.472872	5203.210000	1359.135742	-37.880241
10504.472872	5203.210000	1358.047852	71.735474
10504.472872	5203.210000	1356.958984	165.720673
10504.472872	5203.210000	1355.871094	178.389893
10504.472872	5203.210000	1354.782227	-15.299739
10504.472872	5203.210000	1353.693359	43.882511
10504.472872	5203.210000	1352.604492	218.646133
10504.472872	5203.210000	1351.515625	174.456451
10504.472872	5203.210000	1350.425781	246.855621
10504.472872	5203.210000	1349.335938	238.694229
10504.472872	5203.210000	1348.246094	344.820374
10504.472872	5203.210000	1347.156250	250.081268
10504.472872	5203.210000	1346.066406	136.776184
10504.472872	5203.210000	1344.975586	195.511032
10504.472872	5203.210000	1343.884766	273.554993
10504.472872	5203.210000	1342.793945	158.116562
10504.472872	5203.210000	1341.702148	98.930695
10504.472872	5203.210000	1340.611328	273.182220
10504.472872	5203.210000	1339.519531	390.408997
10504.472872	5203.210000	1338.427734	355.815491
10504.472872	5203.210000	1337.334961	220.132004
10504.472872	5203.210000	1336.243164	317.799683
10504.472872	5203.210000	1335.150391	391.761169
10504.472872	5203.210000	1334.057617	499.804657
10504.472872	5203.210000	1332.964844	614.624878
10504.472872	5203.210000	1331.871094	417.895752
10504.472872	5203.210000	1330.778320	310.526642
10504.472872	5203.210000	1329.684570	533.888489
10504.472872	5203.210000	1328.590820	343.239807
10504.472872	5203.210000	1327.496094	277.268433
10504.472872	5203.210000	1326.402344	300.121552
10504.472872	5203.210000	1325.307617	431.577698
10504.472872	5203.210000	1324.212891	364.045624
10504.472872	5203.210000	1323.117188	424.979889
10504.472872	5203.210000	1322.022461	265.090759
10504.472872	5203.210000	1320.926758	186.332016
10504.472872	5203.210000	1319.831055	374.555481
10504.472872	5203.210000	1318.735352	-81.692528
10504.472872	5203.210000	1317.638672	155.266449
10504.472872	5203.210000	1316.542969	78.876534
10504.472872	5203.210000	1315.446289	80.058739
10504.472872	5203.210000	1314.349609	188.314102
10504.472872	5203.210000	1313.251953	255.309525
10504.472872	5203.210000	1312.155273	185.292480
10504.472872	5203.210000	1311.057617	111.225334
10504.472872	5203.210000	1309.959961	173.898010
10504.472872	5203.210000	1308.862305	-2.800454
10504.472872	5203.210000	1307.763672	91.643753
10504.472872	5203.210000	1306.665039	140.884659
10504.472872	5203.210000	1305.566406	181.222427
10504.472872	5203.210000	1304.467773	237.836136
10504.472872	5203.210000	1303.369141	270.727142
10504.472872	5203.210000	1302.269531	349.681915
10504.472872	5203.210000	1301.169922	373.097412
10504.472872	5203.210000	1300.070313	284.108734
10504.472872	5203.210000	1298.970703	303.654785
10504.472872	5203.210000	1297.870117	344.985992
10504.472872	5203.210000	1296.769531	304.604675
10504.472872	5203.210000	1295.668945	268.243561
10504.472872	5203.210000	1294.568359	377.913757
10504.472872	5203.210000	1293.466797	352.346405
10504.472872	5203.210000	1292.366211	254.820587
10504.472872	5203.210000	1291.264648	315.991577
10504.472872	5203.210000	1290.162109	405.052216
10504.472872	5203.210000	1289.060547	440.304840
10504.472872	5203.210000	1287.958008	342.486969
10504.472872	5203.210000	1286.855469	608.393433
10504.472872	5203.210000	1285.752930	433.078369
10504.472872	5203.210000	1284.650391	432.979584
10504.472872	5203.210000	1283.546875	444.389984
10504.472872	5203.210000	1282.444336	520.748230
10504.472872	5203.210000	1281.339844	410.421844
10504.472872	5203.210000	1280.236328	503.720734
10504.472872	5203.210000	1279.132813	627.972107
10504.472872	5203.210000	1278.028320	572.140869
10504.472872	5203.210000	1276.923828	417.156433
10504.472872	5203.210000	1275.819336	406.147034
10504.472872	5203.210000	1274.713867	509.114807
10504.472872	5203.210000	1273.608398	591.460754
10504.472872	5203.210000	1272.503906	434.445038
10504.472872	5203.210000	1271.397461	316.925171
10504.472872	5203.210000	1270.291992	356.973053
10504.472872	5203.210000	1269.185547	294.696320
10504.472872	5203.210000	1268.080078	514.961670
10504.472872	5203.210000	1266.972656	367.527191
10504.472872	5203.210000	1265.866211	280.963593
10504.472872	5203.210000	1264.759766	251.883545
10504.472872	5203.210000	1263.652344	238.465164
10504.472872	5203.210000	1262.544922	197.992004
10504.472872	5203.210000	1261.436523	205.557312
10504.472872	5203.210000	1260.329102	221.248108
10504.472872	5203.210000	1259.220703	252.228119
10504.472872	5203.210000	1258.112305	163.863785
10504.472872	5203.210000	1257.003906	193.580246
10504.472872	5203.210000	1255.895508	-17.638706
10504.472872	5203.210000	1254.786133	-162.268082
10504.472872	5203.210000	1253.676758	2.547742
10504.472872	5203.210000	1252.567383	-106.895943
10504.472872	5203.210000	1251.458008	46.309425
10504.472872	5203.210000	1250.347656	-192.353073
10504.472872	5203.210000	1249.237305	-107.647972
10504.472872	5203.210000	1248.126953	-153.388397
10504.472872	5203.210000	1247.016602	-74.818130
10504.472872	5203.210000	1245.905273	-55.829002
10504.472872	5203.210000	1244.793945	-177.194427
10504.472872	5203.210000	1243.682617	-71.727493
10504.472872	5203.210000	1242.571289	-87.242287
10504.472872	5203.210000	1241.459961	-62.733551
10504.472872	5203.210000	1240.347656	210.457718
10504.472872	5203.210000	1239.235352	203.309036
10504.472872	5203.210000	1238.123047	172.119614
10504.472872	5203.210000	1237.009766	66.376625
10504.472872	5203.210000	1235.897461	153.807098
10504.472872	5203.210000	1234.784180	190.283417
10504.472872	5203.210000	1233.670898	55.529156
10504.472872	5203.210000	1232.556641	49.421169
10504.472872	5203.210000	1231.443359	1.241131
10504.472872	5203.210000	1230.329102	-43.456871
10504.472872	5203.210000	1229.214844	212.359314
10504.472872	5203.210000	1228.099609	142.110504
10504.472872	5203.210000	1226.985352	257.744354
10504.472872	5203.210000	1225.870117	209.274994
10504.472872	5203.210000	1224.754883	402.019684
10504.472872	5203.210000	1223.639648	284.431976
10504.472872	5203.210000	1222.523438	364.778412
10504.472872	5203.210000	1221.408203	379.777161
10504.472872	5203.210000	1220.291992	266.706024
10504.472872	5203.210000	1219.174805	393.857422
10504.472872	5203.210000	1218.058594	480.330353
10504.472872	5203.210000	1216.941406	466.222992
10504.472872	5203.210000	1215.824219	368.624054
10504.472872	5203.210000	1214.707031	366.468597
10504.472872	5203.210000	1213.589844	255.483627
10504.472872	5203.210000	1212.471680	381.810699
10504.472872	5203.210000	1211.353516	423.275909
10504.472872	5203.210000	1210.235352	412.279175
10504.472872	5203.210000	1209.117188	433.940002
10504.472872	5203.210000	1207.998047	434.187134
10504.472872	5203.210000	1206.878906	505.283203
10504.472872	5203.210000	1205.759766	395.964050
10504.472872	5203.210000	1204.640625	527.293579
10504.472872	5203.210000	1203.520508	358.151672
10504.472872	5203.210000	1202.401367	525.488953
10504.472872	5203.210000	1201.281250	492.120422
10504.472872	5203.210000	1200.160156	393.724182
10504.472872	5203.210000	1199.040039	429.730499
10504.472872	5203.210000	1197.918945	581.158386
10504.472872	5203.210000	1196.797852	443.993134
10504.472872	5203.210000	1195.676758	533.464783
10504.472872	5203.210000	1194.555664	279.341400
10504.472872	5203.210000	1193.433594	305.880737
10504.472872	5203.210000	1192.311523	157.492065
10504.472872	5203.210000	1191.189453	123.920990
10504.472872	5203.210000	1190.066406	121.309029
10504.472872	5203.210000	1188.944336	219.023132
10504.472872	5203.210000	1187.821289	111.302826
10504.472872	5203.210000	1186.698242	109.419769
10504.472872	5203.210000	1185.574219	243.790817
10504.472872	5203.210000	1184.451172	46.292797
10504.472872	5203.210000	1183.327148	31.917124
10504.472872	5203.210000	1182.203125	147.359314
10504.472872	5203.210000	1181.078125	122.284279
10504.472872	5203.210000	1179.954102	9.122632
10504.472872	5203.210000	1178.829102	-60.782715
10504.472872	5203.210000	1177.704102	-9.307463
10504.472872	5203.210000	1176.579102	3.107547
10504.472872	5203.210000	1175.453125	48.250198
10504.472872	5203.210000	1174.327148	-26.617458
10504.472872	5203.210000	1173.201172	-13.492890
10504.472872	5203.210000	1172.075195	86.472137
10504.472872	5203.210000	1170.949219	-40.556747
10504.472872	5203.210000	1169.822266	41.253197
10504.472872	5203.210000	1168.695313	60.639717
10504.472872	5203.210000	1167.568359	15.453013
10504.472872	5203.210000	1166.440430	-167.844315
10504.472872	5203.210000	1165.313477	-54.966679
10504.472872	5203.210000	1164.185547	-9.991452
10504.472872	5203.210000	1163.057617	-11.764773
10504.472872	5203.210000	1161.928711	-2.177629
10504.472872	5203.210000	1160.800781	61.569431
10504.472872	5203.210000	1159.671875	93.497513
10504.472872	5203.210000	1158.541992	185.240982
10504.472872	5203.210000	1157.413086	63.204884
10504.472872	5203.210000	1156.283203	-19.611258
10504.472872	5203.210000	1155.154297	202.676208
10504.472872	5203.210000	1154.023438	90.622246
10504.472872	5203.210000	1152.893555	128.077499
10504.472872	5203.210000	1151.763672	152.589386
10504.472872	5203.210000	1150.632813	200.346848
10504.472872	5203.210000	1149.501953	346.600708
10504.472872	5203.210000	1148.370117	276.818207
10504.472872	5203.210000	1147.239258	258.289551
10504.472872	5203.210000	1146.107422	471.291321
10504.472872	5203.210000	1144.975586	426.126160
10504.472872	5203.210000	1143.843750	371.880737
10504.472872	5203.210000	1142.710938	266.345398
10504.472872	5203.210000	1141.578125	319.845428
10504.472872	5203.210000	1140.445313	297.061218
10504.472872	5203.210000	1139.312500	224.294250
10504.472872	5203.210000	1138.178711	110.633652
10504.472872	5203.210000	1137.045898	89.629921
10504.472872	5203.210000	1135.912109	36.815994
10504.472872	5203.210000	1134.777344	44.989422
10504.472872	5203.210000	1133.643555	250.604172
10504.472872	5203.210000	1132.508789	55.044632
10504.472872	5203.210000	1131.374023	132.398041
10504.472872	5203.210000	1130.239258	74.105583
10504.472872	5203.210000	1129.104492	253.087952
10504.472872	5203.210000	1127.968750	132.857895
10504.472872	5203.210000	1126.833008	-17.310692
10504.472872	5203.210000	1125.697266	2.175740
10504.472872	5203.210000	1124.560547	72.099403
10504.472872	5203.210000	1123.424805	107.786880
10504.472872	5203.210000	1122.288086	17.695339
10504.472872	5203.210000	1121.151367	-116.223419
10504.472872	5203.210000	1120.013672	57.217991
10504.472872	5203.210000	1118.876953	29.744829
10504.472872	5203.210000	1117.739258	35.075790
10504.472872	5203.210000	1116.601563	-105.042282
10504.472872	5203.210000	1115.462891	38.177517
10504.472872	5203.210000	1114.324219	25.236988
10504.472872	5203.210000	1113.186523	52.917336
10504.472872	5203.210000	1112.046875	-97.945946
10504.472872	5203.210000	1110.908203	49.692230
10504.472872	5203.210000	1109.769531	-141.450577
10504.472872	5203.210000	1108.629883	-14.340550
10504.472872	5203.210000	1107.490234	40.909084
10504.472872	5203.210000	1106.349609	47.549885
10504.472872	5203.210000	1105.209961	36.458244
10504.472872	5203.210000	1104.069336	53.935230
10504.472872	5203.210000	1102.928711	-66.990662
10504.472872	5203.210000	1101.787109	-79.550377
10504.472872	5203.210000	1100.646484	83.442284
10504.472872	5203.210000	1099.504883	199.591888
10504.472872	5203.210000	1098.363281	-58.317062
10504.472872	5203.210000	1097.221680	86.505394
10504.472872	5203.210000	1096.079102	39.066448
10504.472872	5203.210000	1094.936523	84.180977
10504.472872	5203.210000	1093.793945	31.884071
10504.472872	5203.210000	1092.651367	-76.426865
10504.472872	5203.210000	1091.507813	-45.884380
10504.472872	5203.210000	1090.364258	-159.159790
10504.472872	5203.210000	1089.220703	-25.118389
10504.472872	5203.210000	1088.077148	164.981018
10504.472872	5203.210000	1086.933594	-80.576469
10504.472872	5203.210000	1085.789063	124.297188
10504.472872	5203.210000	1084.644531	270.165222
10504.472872	5203.210000	1083.499023	2.244478
10504.472872	5203.210000	1082.354492	25.519123
10504.472872	5203.210000	1081.208984	35.008831
10504.472872	5203.210000	1080.063477	31.165640
10504.472872	5203.210000	1078.917969	58.763969
10504.472872	5203.210000	1077.771484	84.857468
10504.472872	5203.210000	1076.625977	250.062439
10504.472872	5203.210000	1075.479492	203.001801
10504.472872	5203.210000	1074.332031	231.223328
10504.472872	5203.210000	1073.185547	129.679428
10504.472872	5203.210000	1072.038086	213.817108
10504.472872	5203.210000	1070.890625	251.817169
10504.472872	5203.210000	1069.743164	320.663055
10504.472872	5203.210000	1068.594727	417.771484
10504.472872	5203.210000	1067.447266	451.586456
10504.472872	5203.210000	1066.298828	560.836853
10504.472872	5203.210000	1065.149414	575.389771
10504.472872	5203.210000	1064.000977	810.347656
10504.472872	5203.210000	1062.851563	674.913818
10504.472872	5203.210000	1061.702148	649.747925
10504.472872	5203.210000	1060.552734	448.059937
10504.472872	5203.210000	1059.402344	598.773193
10504.472872	5203.210000	1058.252930	575.296143
10504.472872	5203.210000	1057.102539	457.987061
10504.472872	5203.210000	1055.951172	380.297089
10504.472872	5203.210000	1054.800781	498.023499
10504.472872	5203.210000	1053.649414	477.915009
10504.472872	5203.210000	1052.498047	471.167725
10504.472872	5203.210000	1051.346680	488.685974
10504.472872	5203.210000	1050.194336	312.705444
10504.472872	5203.210000	1049.042969	239.830307
10504.472872	5203.210000	1047.890625	320.240662
10504.472872	5203.210000	1046.738281	316.334930
10504.472872	5203.210000	1045.584961	229.175735
10504.472872	5203.210000	1044.431641	81.891022
10504.472872	5203.210000	1043.278320	176.247498
10504.472872	5203.210000	1042.125000	218.029465
10504.472872	5203.210000	1040.971680	251.129608
10504.472872	5203.210000	1039.817383	232.593903
10504.472872	5203.210000	1038.663086	99.708611
10504.472872	5203.210000	1037.508789	191.246323
10504.472872	5203.210000	1036.353516	332.524414
10504.472872	5203.210000	1035.198242	275.093872
10504.472872	5203.210000	1034.042969	253.052536
10504.472872	5203.210000	1032.887695	340.584106
10504.472872	5203.210000	1031.732422	466.450470
10504.472872	5203.210000	1030.576172	335.224701
10504.472872	5203.210000	1029.419922	446.755859
10504.472872	5203.210000	1028.263672	447.465942
10504.472872	5203.210000	1027.106445	354.635956
10504.472872	5203.210000	1025.949219	457.707855
10504.472872	5203.210000	1024.792969	173.580627
10504.472872	5203.210000	1023.634766	9.818557
10504.472872	5203.210000	1022.477539	-5.209675
10504.472872	5203.210000	1021.319336	10.086932
10504.472872	5203.210000	1020.161133	-131.305634
10504.472872	5203.210000	1019.002930	149.004410
10504.472872	5203.210000	1017.843750	-156.879868
10504.472872	5203.210000	1016.684570	-7.667681
10504.472872	5203.210000	1015.525391	56.848171
10504.472872	5203.210000	1014.366211	185.729385
10504.472872	5203.210000	1013.207031	74.102142
10504.472872	5203.210000	1012.046875	-42.284130
10504.472872	5203.210000	1010.886719	-66.166832
10504.472872	5203.210000	1009.726563	-75.462769
10504.472872	5203.210000	1008.565430	42.262978
10504.472872	5203.210000	1007.404297	117.871719
10504.472872	5203.210000	1006.243164	36.374390
10504.472872	5203.210000	1005.082031	138.984070
10504.472872	5203.210000	1003.920898	101.790794
10504.472872	5203.210000	1002.758789	130.361221
10504.472872	5203.210000	1001.596680	18.962055
10504.472872	5203.210000	1000.433594	44.668682
10504.472872	5203.210000	999.271484	-50.399570
10504.472872	5203.210000	998.108398	212.106094
10504.472872	5203.210000	996.945313	209.078476
10504.472872	5203.210000	995.782227	289.032410
10504.472872	5203.210000	994.618164	216.510971
10504.472872	5203.210000	993.454102	291.595490
10504.472872	5203.210000	992.290039	306.772461
10504.472872	5203.210000	991.125977	564.532349
10504.472872	5203.210000	989.960938	432.902557
10504.472872	5203.210000	988.796875	460.458801
10504.472872	5203.210000	987.630859	420.234802
10504.472872	5203.210000	986.465820	501.913116
10504.472872	5203.210000	985.300781	321.032776
10504.472872	5203.210000	984.134766	387.407166
10504.472872	5203.210000	982.968750	294.730103
10504.472872	5203.210000	981.801758	372.256348
10504.472872	5203.210000	980.635742	274.214325
10504.472872	5203.210000	979.468750	163.639664
10504.472872	5203.210000	978.301758	253.468475
10504.472872	5203.210000	977.133789	52.007145
10504.472872	5203.210000	975.966797	240.130814
10504.472872	5203.210000	974.798828	10.609269
10504.472872	5203.210000	973.630859	214.178528
10504.472872	5203.210000	972.461914	193.952515
10504.472872	5203.210000	971.293945	262.270386
10504.472872	5203.210000	970.125000	80.320747
10504.472872	5203.210000	968.956055	140.020325
10504.472872	5203.210000	967.786133	-25.275822
10504.472872	5203.210000	966.617188	-15.456874
10504.472872	5203.210000	965.447266	-133.038528
10504.472872	5203.210000	964.276367	45.003777
10504.472872	5203.210000	963.106445	-51.840137
10504.472872	5203.210000	961.935547	11.771342
10504.472872	5203.210000	960.764648	27.684801
10504.472872	5203.210000	959.593750	63.425835
10504.472872	5203.210000	958.422852	-145.484848
10504.472872	5203.210000	957.250977	33.848671
10504.472872	5203.210000	956.079102	-180.083420
10504.472872	5203.210000	954.907227	-92.024063
10504.472872	5203.210000	953.734375	30.047573
10504.472872	5203.210000	952.562500	-57.388130
10504.472872	5203.210000	951.389648	67.017914
10504.472872	5203.210000	950.215820	-231.314224
10504.472872	5203.210000	949.042969	-68.781013
10504.472872	5203.210000	947.869141	-21.712204
10504.472872	5203.210000	946.695313	1.456777
10504.472872	5203.210000	945.521484	72.913620
10504.472872	5203.210000	944.346680	45.798164
10504.472872	5203.210000	943.172852	-17.510523
10504.472872	5203.210000	941.998047	195.233841
10504.472872	5203.210000	940.822266	81.555794
10504.472872	5203.210000	939.647461	8.650905
10504.472872	5203.210000	938.471680	-4.345001
10504.472872	5203.210000	937.295898	-29.199284
10504.472872	5203.210000	936.119141	51.372311
10504.472872	5203.210000	934.943359	-9.433561
10504.472872	5203.210000	933.766602	-156.906998
10504.472872	5203.210000	932.589844	-52.214699
10504.472872	5203.210000	931.413086	107.531181
10504.472872	5203.210000	930.235352	-25.386154
10504.472872	5203.210000	929.057617	98.387115
10504.472872	5203.210000	927.879883	258.067932
10504.472872	5203.210000	926.702148	240.199478
10504.472872	5203.210000	925.523438	59.291374
10504.472872	5203.210000	924.344727	393.861603
10504.472872	5203.210000	923.166016	215.332153
10504.472872	5203.210000	921.987305	252.542084
10504.472872	5203.210000	920.807617	4.600597
10504.472872	5203.210000	919.627930	7.781543
10504.472872	5203.210000	919.497070	-223.741379
10504.472872	5203.210000	918.331055	-23.664705
10504.472872	5203.210000	917.165039	80.529205
10504.472872	5203.210000	915.999023	-73.903671
10504.472872	5203.210000	914.833008	-125.360657
10504.472872	5203.210000	913.666016	17.039839
10504.472872	5203.210000	912.499023	46.910576
10504.472872	5203.210000	911.332031	-138.544220
10504.472872	5203.210000	910.165039	-106.291229
10504.472872	5203.210000	908.997070	-78.845406
10504.472872	5203.210000	907.830078	-135.104263
10504.472872	5203.210000	906.661133	40.507202
10504.472872	5203.210000	905.493164	110.880989
10504.472872	5203.210000	904.325195	197.936707
10504.472872	5203.210000	903.156250	-92.487167
10504.472872	5203.210000	901.987305	-120.090286
10504.472872	5203.210000	900.818359	-92.774895
10504.472872	5203.210000	899.648438	-17.735754
10504.472872	5203.210000	898.478516	102.610710
10504.472872	5203.210000	897.308594	-10.970765
10504.472872	5203.210000	896.138672	-26.697882
10504.472872	5203.210000	894.968750	117.390373
10504.472872	5203.210000	893.797852	-136.872528
10504.472872	5203.210000	892.626953	2.386127
10504.472872	5203.210000	891.456055	58.137081
10504.472872	5203.210000	890.284180	54.267494
10504.472872	5203.210000	889.113281	183.831345
10504.472872	5203.210000	887.941406	108.437836
10504.472872	5203.210000	886.768555	414.183655
10504.472872	5203.210000	885.596680	319.696075
10504.472872	5203.210000	884.423828	277.618378
10504.472872	5203.210000	883.250977	197.456161
10504.472872	5203.210000	882.078125	181.575653
10504.472872	5203.210000	880.905273	232.316696
10504.472872	5203.210000	879.731445	285.405212
10504.472872	5203.210000	878.557617	133.900497
10504.472872	5203.210000	877.383789	44.276192
10504.472872	5203.210000	876.209961	73.556725
10504.472872	5203.210000	875.035156	43.385902
10504.472872	5203.210000	873.860352	-10.551953
10504.472872	5203.210000	872.685547	-2.700198
10504.472872	5203.210000	871.510742	36.019295
10504.472872	5203.210000	870.334961	24.833269
10504.472872	5203.210000	869.159180	-204.833679
10504.472872	5203.210000	867.983398	99.779167
10504.472872	5203.210000	866.807617	55.316334
10504.472872	5203.210000	865.630859	-65.082405
10504.472872	5203.210000	864.454102	144.367920
10504.472872	5203.210000	863.277344	12.112585
10504.472872	5203.210000	862.100586	-8.627728
10504.472872	5203.210000	860.922852	58.366768
10504.472872	5203.210000	859.745117	-54.860138
10504.472872	5203.210000	858.567383	-82.721581
10504.472872	5203.210000	857.389648	43.453304
10504.472872	5203.210000	856.210938	13.188921
10504.472872	5203.210000	855.032227	65.833778
10504.472872	5203.210000	853.853516	355.281372
10504.472872	5203.210000	852.674805	76.302155
10504.472872	5203.210000	851.495117	107.557182
10504.472872	5203.210000	850.315430	96.180168
10504.472872	5203.210000	849.135742	165.253052
10504.472872	5203.210000	847.956055	250.845093
10504.472872	5203.210000	846.775391	263.061646
10504.472872	5203.210000	845.595703	104.977905
10504.472872	5203.210000	844.415039	93.545807
10504.472872	5203.210000	843.233398	197.941986
10504.472872	5203.210000	842.052734	148.650879
10504.472872	5203.210000	840.871094	42.654629
10504.472872	5203.210000	839.689453	-56.225502
10504.472872	5203.210000	838.506836	88.214355
10504.472872	5203.210000	837.325195	149.923553
10504.472872	5203.210000	836.142578	110.067711
10504.472872	5203.210000	834.959961	72.573608
10504.472872	5203.210000	833.777344	-92.366501
10504.472872	5203.210000	832.593750	-162.867188
10504.472872	5203.210000	831.410156	-61.136429
10504.472872	5203.210000	830.226563	-72.679245
10504.472872	5203.210000	829.042969	-72.442055
10504.472872	5203.210000	827.858398	81.030807
10504.472872	5203.210000	826.673828	111.849762
10504.472872	5203.210000	825.489258	-5.833969
10504.472872	5203.210000	824.304688	180.468719
10504.472872	5203.210000	823.120117	166.439316
10504.472872	5203.210000	821.934570	171.243362
10504.472872	5203.210000	820.749023	265.509888
10504.472872	5203.210000	819.562500	107.812599
10504.472872	5203.210000	818.376953	30.191065
10504.472872	5203.210000	817.190430	-0.347770
10504.472872	5203.210000	816.003906	131.454071
10504.472872	5203.210000	814.817383	-49.678989
10504.472872	5203.210000	813.629883	-146.086395
10504.472872	5203.210000	812.442383	-94.335350
10504.472872	5203.210000	811.254883	-35.572521
10504.472872	5203.210000	810.067383	107.762451
10504.472872	5203.210000	808.878906	-80.317421
10504.472872	5203.210000	807.690430	-80.384171
10504.472872	5203.210000	806.501953	-26.444830
10504.472872	5203.210000	805.313477	34.498444
10504.472872	5203.210000	804.124023	-29.044340
10504.472872	5203.210000	802.934570	31.836285
10504.472872	5203.210000	801.745117	-48.148949
10504.472872	5203.210000	800.555664	26.748764
10504.472872	5203.210000	799.365234	85.174118
10504.472872	5203.210000	798.175781	80.223785
10504.472872	5203.210000	796.985352	-2.132002
10504.472872	5203.210000	795.793945	-126.675735
10504.472872	5203.210000	794.603516	-84.760849
10504.472872	5203.210000	793.412109	-167.093979
10504.472872	5203.210000	792.220703	120.796021
10504.472872	5203.210000	791.028320	-29.525415
10504.472872	5203.210000	789.836914	-13.516069
10504.472872	5203.210000	788.644531	21.198330
10504.472872	5203.210000	787.452148	23.098740
10504.472872	5203.210000	786.258789	43.701698
10504.472872	5203.210000	785.066406	134.477295
10504.472872	5203.210000	783.873047	28.656099
10504.472872	5203.210000	782.679688	109.993538
10504.472872	5203.210000	781.485352	41.593956
10504.472872	5203.210000	780.291992	31.654165
10504.472872	5203.210000	779.097656	264.822510
10504.472872	5203.210000	777.903320	21.061575
10504.472872	5203.210000	776.708008	193.329086
10504.472872	5203.210000	775.512695	3.369887
10504.472872	5203.210000	774.318359	103.105606
10504.472872	5203.210000	773.122070	265.829865
10504.472872	5203.210000	771.926758	232.330551
10504.472872	5203.210000	770.730469	-11.274509
10504.472872	5203.210000	769.534180	209.639450
10504.472872	5203.210000	768.337891	407.098572
10504.472872	5203.210000	767.141602	415.482422
10504.472872	5203.210000	765.944336	636.087524
10504.472872	5203.210000	764.747070	663.020081
10504.472872	5203.210000	763.549805	699.238953
10504.472872	5203.210000	762.351563	637.513062
10504.472872	5203.210000	761.154297	622.393494
10504.472872	5203.210000	759.956055	844.911621
10504.472872	5203.210000	758.757813	487.256866
10504.472872	5203.210000	757.558594	667.729492
10504.472872	5203.210000	756.359375	650.169373
10504.472872	5203.210000	755.160156	506.870148
10504.472872	5203.210000	753.960938	652.220215
10504.472872	5203.210000	752.761719	499.610046
10504.472872	5203.210000	751.561523	461.036896
10504.472872	5203.210000	750.361328	575.972595
10504.472872	5203.210000	749.160156	676.875366
10504.472872	5203.210000	747.959961	426.604401
10504.472872	5203.210000	746.758789	618.092896
10504.472872	5203.210000	745.557617	551.484741
10504.472872	5203.210000	744.356445	675.414429
10504.472872	5203.210000	743.154297	555.321533
10504.472872	5203.210000	741.952148	516.541260
10504.472872	5203.210000	740.750000	524.187744
10504.472872	5203.210000	739.547852	524.831909
10504.472872	5203.210000	738.344727	481.338104
10504.472872	5203.210000	737.142578	379.807159
10504.472872	5203.210000	735.939453	452.306610
10504.472872	5203.210000	734.735352	401.790253
10504.472872	5203.210000	733.532227	492.739990
10504.472872	5203.210000	732.328125	456.077698
10504.472872	5203.210000	731.124023	303.476868
10504.472872	5203.210000	729.918945	252.891373
10504.472872	5203.210000	728.714844	355.238922
10504.472872	5203.210000	727.509766	174.842514
10504.472872	5203.210000	726.303711	219.178452
10504.472872	5203.210000	725.098633	288.935089
10504.472872	5203.210000	723.892578	328.523193
10504.472872	5203.210000	722.686523	296.293213
10504.472872	5203.210000	721.480469	217.748840
10504.472872	5203.210000	720.274414	21.184839
10504.472872	5203.210000	719.067383	9.746248
10504.472872	5203.210000	717.860352	9.839330
10504.472872	5203.210000	716.653320	160.209991
10504.472872	5203.210000	715.445313	74.646774
10504.472872	5203.210000	714.238281	-20.165264
10504.472872	5203.210000	713.030273	79.155792
10504.472872	5203.210000	711.821289	12.029613
10504.472872	5203.210000	710.613281	69.640472
10504.472872	5203.210000	709.404297	14.013673
10504.472872	5203.210000	708.195313	110.774506
10504.472872	5203.210000	706.986328	11.216764
10504.472872	5203.210000	705.776367	151.712769
10504.472872	5203.210000	704.566406	107.492393
10504.472872	5203.210000	703.356445	93.243019
10504.472872	5203.210000	702.146484	143.547531
10504.472872	5203.210000	700.935547	207.626755
10504.472872	5203.210000	699.724609	188.630661
10504.472872	5203.210000	698.513672	344.802307
10504.472872	5203.210000	697.302734	364.883789
10504.472872	5203.210000	696.090820	290.436615
10504.472872	5203.210000	694.878906	266.663666
10504.472872	5203.210000	693.666992	104.657646
10504.472872	5203.210000	692.455078	90.062012
10504.472872	5203.210000	691.242188	96.150124
10504.472872	5203.210000	690.029297	-52.033215
10504.472872	5203.210000	688.816406	131.206284
10504.472872	5203.210000	687.602539	-3.201862
10504.472872	5203.210000	686.389648	-36.376644
10504.472872	5203.210000	685.175781	-28.180655
10504.472872	5203.210000	683.960938	-105.113045
10504.472872	5203.210000	682.747070	-122.280869
10504.472872	5203.210000	681.532227	186.904266
10504.472872	5203.210000	680.317383	61.589058
10504.472872	5203.210000	679.102539	195.906311
10504.472872	5203.210000	677.886719	167.030472
10504.472872	5203.210000	676.670898	236.877884
10504.472872	5203.210000	675.455078	396.200531
10504.472872	5203.210000	674.239258	282.235718
10504.472872	5203.210000	673.022461	363.359955
10504.472872	5203.210000	671.805664	616.506348
10504.472872	5203.210000	670.588867	619.438660
10504.472872	5203.210000	669.372070	720.955688
10504.472872	5203.210000	668.154297	668.741577
10504.472872	5203.210000	666.936523	754.069336
10504.472872	5203.210000	665.718750	880.578735
10504.472872	5203.210000	664.500977	702.189758
10504.472872	5203.210000	663.282227	629.229980
10504.472872	5203.210000	662.063477	668.506714
10504.472872	5203.210000	660.844727	705.434265
10504.472872	5203.210000	659.625000	543.089050
10504.472872	5203.210000	658.405273	316.669189
10504.472872	5203.210000	657.185547	239.077240
10504.472872	5203.210000	655.965820	195.801636
10504.472872	5203.210000	654.745117	138.774185
10504.472872	5203.210000	653.525391	182.375900
10504.472872	5203.210000	652.303711	65.829506
10504.472872	5203.210000	651.083008	-30.128328
10504.472872	5203.210000	649.861328	159.654755
10504.472872	5203.210000	648.640625	132.198746
10504.472872	5203.210000	647.417969	-137.496628
10504.472872	5203.210000	646.196289	189.135788
10504.472872	5203.210000	644.973633	6.253013
10504.472872	5203.210000	643.750977	1.523497
10504.472872	5203.210000	642.528320	21.868395
10504.472872	5203.210000	641.305664	-51.418072
10504.472872	5203.210000	640.082031	-142.972733
10504.472872	5203.210000	638.858398	14.165983
10504.472872	5203.210000	637.634766	-72.879562
10504.472872	5203.210000	636.410156	47.608253
10504.472872	5203.210000	635.185547	-96.489960
10504.472872	5203.210000	633.960938	14.756800
10504.472872	5203.210000	632.736328	-15.389408
10504.472872	5203.210000	631.510742	-68.350700
10504.472872	5203.210000	630.285156	-232.958206
10504.472872	5203.210000	629.059570	-272.257477
10504.472872	5203.210000	627.833984	-63.356495
10504.472872	5203.210000	626.607422	-120.963615
10504.472872	5203.210000	625.380859	-14.690078
10504.472872	5203.210000	624.154297	25.505527
10504.472872	5203.210000	622.927734	174.863861
10504.472872	5203.210000	621.700195	-8.003170
10504.472872	5203.210000	620.472656	-54.365845
10504.472872	5203.210000	619.245117	-98.468849
10504.472872	5203.210000	618.016602	-53.926861
10504.472872	5203.210000	616.788086	-13.981760
10504.472872	5203.210000	615.559570	182.710678
10504.472872	5203.210000	614.331055	-41.020954
10504.472872	5203.210000	613.101563	194.142197
10504.472872	5203.210000	611.872070	31.755276
10504.472872	5203.210000	610.642578	275.823639
10504.472872	5203.210000	609.413086	90.727715
10504.472872	5203.210000	608.182617	207.524551
10504.472872	5203.210000	606.952148	95.069214
10504.472872	5203.210000	605.721680	125.552666
10504.472872	5203.210000	604.491211	237.646347
10504.472872	5203.210000	603.259766	222.676819
10504.472872	5203.210000	602.028320	180.481674
10504.472872	5203.210000	600.796875	296.941345
10504.472872	5203.210000	599.564453	77.933136
10504.472872	5203.210000	598.332031	49.309376
10504.472872	5203.210000	597.099609	88.628265
10504.472872	5203.210000	595.867188	123.376709
10504.472872	5203.210000	594.633789	239.596039
10504.472872	5203.210000	593.400391	437.237305
10504.472872	5203.210000	592.166992	458.238586
10504.472872	5203.210000	590.933594	110.375900
10504.472872	5203.210000	589.699219	260.341919
10504.472872	5203.210000	588.464844	276.777161
10504.472872	5203.210000	587.230469	216.299515
10504.472872	5203.210000	585.995117	436.170898
10504.472872	5203.210000	584.760742	359.824341
10504.472872	5203.210000	583.525391	283.490173
10504.472872	5203.210000	582.289063	91.937515
10504.472872	5203.210000	581.053711	180.558502
10504.472872	5203.210000	579.817383	172.010132
10504.472872	5203.210000	578.581055	68.615738
10504.472872	5203.210000	577.343750	270.006348
10504.472872	5203.210000	576.107422	340.393524
10504.472872	5203.210000	574.870117	-6.720163
10504.472872	5203.210000	573.631836	230.609314
10504.472872	5203.210000	572.394531	210.696075
10504.472872	5203.210000	571.156250	111.848343
10504.472872	5203.210000	569.917969	89.688370
10504.472872	5203.210000	568.679688	-2.350595
10504.472872	5203.210000	567.440430	245.934692
10504.472872	5203.210000	566.202148	162.895508
10504.472872	5203.210000	564.961914	246.572922
10504.472872	5203.210000	563.722656	168.053101
10504.472872	5203.210000	562.482422	58.032883
10504.472872	5203.210000	561.243164	67.370415
10504.472872	5203.210000	560.001953	24.924047
10504.472872	5203.210000	558.761719	92.756577
10504.472872	5203.210000	557.520508	255.042313
10504.472872	5203.210000	556.279297	300.291199
10504.472872	5203.210000	555.038086	239.822159
10504.472872	5203.210000	553.795898	305.278778
10504.472872	5203.210000	552.554688	87.480148
10504.472872	5203.210000	551.311523	173.159515
10504.472872	5203.210000	550.069336	377.890411
10504.472872	5203.210000	548.826172	393.830414
10504.472872	5203.210000	547.583984	362.601349
10504.472872	5203.210000	546.339844	293.207886
10504.472872	5203.210000	545.096680	264.256653
10504.472872	5203.210000	543.852539	361.005920
10504.472872	5203.210000	542.608398	401.616791
10504.472872	5203.210000	541.364258	213.371948
10504.472872	5203.210000	540.119141	224.837738
10504.472872	5203.210000	538.875000	166.785172
10504.472872	5203.210000	537.628906	146.869324
10504.472872	5203.210000	536.383789	1.439799
10504.472872	5203.210000	535.137695	91.391449
10504.472872	5203.210000	533.892578	-174.950150
10504.472872	5203.210000	532.645508	-98.435799
10504.472872	5203.210000	531.399414	13.890422
10504.472872	5203.210000	530.152344	-135.816940
10504.472872	5203.210000	528.905273	5.579586
10504.472872	5203.210000	527.658203	-11.993027
10504.472872	5203.210000	526.410156	-136.968643
10504.472872	5203.210000	525.163086	2.117714
10504.472872	5203.210000	523.914063	44.962067
10504.472872	5203.210000	522.666016	-200.688019
10504.472872	5203.210000	521.416992	-30.362648
10504.472872	5203.210000	520.167969	-99.287903
10504.472872	5203.210000	518.918945	73.190529
10504.472872	5203.210000	517.669922	-91.793602
10504.472872	5203.210000	516.419922	94.022903
10504.472872	5203.210000	515.169922	51.953838
10504.472872	5203.210000	513.919922	157.285187
10504.472872	5203.210000	512.668945	280.433380
10504.472872	5203.210000	511.417969	86.590988
10504.472872	5203.210000	510.166992	109.294815
10504.472872	5203.210000	508.916016	42.752567
10504.472872	5203.210000	507.664063	-99.598000
10504.472872	5203.210000	506.412109	81.478432
10504.472872	5203.210000	505.160156	164.378860
10504.472872	5203.210000	503.907227	-22.480591
10504.472872	5203.210000	502.655273	176.302582
10504.472872	5203.210000	501.402344	11.808101
10504.472872	5203.210000	500.148438	297.376129
10504.472872	5203.210000	498.895508	141.837708
10504.472872	5203.210000	497.641602	168.955978
10504.472872	5203.210000	496.387695	271.753876
10504.472872	5203.210000	495.132813	450.178406
10504.472872	5203.210000	493.878906	181.243896
10504.472872	5203.210000	492.624023	337.356842
10504.472872	5203.210000	491.368164	351.037659
10504.472872	5203.210000	490.113281	222.383408
10504.472872	5203.210000	488.857422	409.493805
10504.472872	5203.210000	487.601563	196.393188
10504.472872	5203.210000	486.344727	183.389404
10504.472872	5203.210000	485.088867	423.683838
10504.472872	5203.210000	483.832031	383.954834
10504.472872	5203.210000	482.575195	379.763641
10504.472872	5203.210000	481.317383	235.662842
10504.472872	5203.210000	480.059570	207.048431
10504.472872	5203.210000	478.801758	375.964417
10504.472872	5203.210000	477.543945	416.080658
10504.472872	5203.210000	476.285156	389.593872
10504.472872	5203.210000	475.027344	622.614136
10504.472872	5203.210000	473.767578	531.724548
10504.472872	5203.210000	472.508789	613.784668
10504.472872	5203.210000	471.249023	518.438354
10504.472872	5203.210000	469.989258	576.014587
10504.472872	5203.210000	468.729492	524.956970
10504.472872	5203.210000	467.469727	476.095764
10504.472872	5203.210000	466.208984	622.105103
10504.472872	5203.210000	464.948242	535.504028
10504.472872	5203.210000	463.686523	552.935120
10504.472872	5203.210000	462.425781	557.028503
10504.472872	5203.210000	461.164063	594.250793
10504.472872	5203.210000	459.901367	591.570190
10504.472872	5203.210000	458.639648	433.997345
10504.472872	5203.210000	457.376953	398.047211
10504.472872	5203.210000	456.114258	505.749969
10504.472872	5203.210000	454.851563	507.228516
10504.472872	5203.210000	453.587891	550.611328
10504.472872	5203.210000	452.324219	532.023071
10504.472872	5203.210000	451.060547	482.426941
10504.472872	5203.210000	449.796875	728.702148
10504.472872	5203.210000	448.532227	477.952911
10504.472872	5203.210000	447.267578	447.965515
10504.472872	5203.210000	446.002930	517.201721
10504.472872	5203.210000	444.737305	696.620422
10504.472872	5203.210000	443.471680	681.699097
10504.472872	5203.210000	442.206055	476.969299
10504.472872	5203.210000	440.940430	572.102966
10504.472872	5203.210000	439.673828	777.289429
10504.472872	5203.210000	438.407227	821.331970
10504.472872	5203.210000	437.140625	607.363892
10504.472872	5203.210000	435.873047	666.533569
10504.472872	5203.210000	434.605469	705.688110
10504.472872	5203.210000	433.337891	685.190613
10504.472872	5203.210000	432.070313	851.682556
10504.472872	5203.210000	430.801758	795.570618
10504.472872	5203.210000	429.533203	838.329468
10504.472872	5203.210000	428.264648	852.262939
10504.472872	5203.210000	426.996094	1000.178589
10504.472872	5203.210000	425.726563	883.867310
10504.472872	5203.210000	424.457031	595.857300
10504.472872	5203.210000	423.186523	683.678955
10504.472872	5203.210000	421.916992	747.046021
10504.472872	5203.210000	420.646484	838.694275
10504.472872	5203.210000	419.375977	677.372192
10504.472872	5203.210000	418.104492	665.211121
10504.472872	5203.210000	416.833008	795.520813
10504.472872	5203.210000	415.561523	778.370483
10504.472872	5203.210000	414.290039	877.269287
10504.472872	5203.210000	413.017578	852.898193
10504.472872	5203.210000	411.746094	924.767212
10504.472872	5203.210000	410.472656	860.236145
10504.472872	5203.210000	409.200195	845.838684
10504.472872	5203.210000	407.926758	758.714600
10504.472872	5203.210000	406.653320	686.601196
10504.472872	5203.210000	405.379883	734.685364
10504.472872	5203.210000	404.105469	894.100220
10504.472872	5203.210000	402.831055	961.015747
10504.472872	5203.210000	401.556641	764.624756
10504.472872	5203.210000	400.282227	859.143127
10504.472872	5203.210000	399.006836	714.502258
10504.472872	5203.210000	397.731445	705.173706
10504.472872	5203.210000	396.456055	642.841248
10504.472872	5203.210000	395.179688	676.300293
10504.472872	5203.210000	393.903320	757.355469
10504.472872	5203.210000	392.626953	527.277283
10504.472872	5203.210000	391.350586	576.640686
10504.472872	5203.210000	390.073242	586.055420
10504.472872	5203.210000	388.795898	618.926819
10504.472872	5203.210000	387.518555	777.928223
10504.472872	5203.210000	386.240234	617.258667
10504.472872	5203.210000	384.961914	630.764038
10504.472872	5203.210000	383.683594	425.233734
10504.472872	5203.210000	382.405273	502.948944
10504.472872	5203.210000	381.125977	499.157837
10504.472872	5203.210000	379.846680	664.878418
10504.472872	5203.210000	378.567383	408.693390
10504.472872	5203.210000	377.287109	522.684814
10504.472872	5203.210000	376.006836	657.662048
10504.472872	5203.210000	374.726563	695.843079
10504.472872	5203.210000	373.446289	499.931000
10504.472872	5203.210000	372.165039	547.346375
10504.472872	5203.210000	370.883789	282.273987
10504.472872	5203.210000	369.602539	595.924255
10504.472872	5203.210000	368.320313	374.871552
10504.472872	5203.210000	367.039063	379.472534
10504.472872	5203.210000	365.755859	537.635803
10504.472872	5203.210000	364.473633	538.045776
10504.472872	5203.210000	363.190430	382.905212
10504.472872	5203.210000	361.907227	459.590576
10504.472872	5203.210000	360.624023	439.462952
10504.472872	5203.210000	359.340820	550.906372
10504.472872	5203.210000	358.056641	528.514038
10504.472872	5203.210000	356.772461	520.192810
10504.472872	5203.210000	355.487305	443.283020
10504.472872	5203.210000	354.202148	482.525848
10504.472872	5203.210000	352.916992	374.952850
10504.472872	5203.210000	351.631836	101.082321
10504.472872	5203.210000	350.346680	496.998291
10504.472872	5203.210000	349.060547	285.660339
10504.472872	5203.210000	347.774414	459.386475
10504.472872	5203.210000	346.487305	490.534210
10504.472872	5203.210000	345.200195	494.186981
10504.472872	5203.210000	343.913086	370.547760
10504.472872	5203.210000	342.625977	137.014114
10504.472872	5203.210000	341.338867	179.548508
10504.472872	5203.210000	340.050781	365.662506
10504.472872	5203.210000	338.762695	463.375305
10504.472872	5203.210000	337.473633	201.819489
10504.472872	5203.210000	336.184570	257.105072
10504.472872	5203.210000	334.895508	63.716236
10504.472872	5203.210000	333.606445	61.330906
10504.472872	5203.210000	332.317383	310.397705
10504.472872	5203.210000	331.027344	260.909058
10504.472872	5203.210000	329.736328	-28.562326
10504.472872	5203.210000	328.446289	78.249573
10504.472872	5203.210000	327.155273	98.590675
10504.472872	5203.210000	325.864258	-12.882464
10504.472872	5203.210000	324.573242	83.301430
10504.472872	5203.210000	323.281250	-162.131180
10504.472872	5203.210000	321.989258	-18.508993
10504.472872	5203.210000	320.697266	-149.433563
10504.472872	5203.210000	319.405273	-25.550245
10504.472872	5203.210000	318.112305	22.429441
10504.472872	5203.210000	316.819336	-16.226339
10504.472872	5203.210000	315.526367	-14.149989
10504.472872	5203.210000	314.232422	-66.459694
10504.472872	5203.210000	312.938477	-112.687477
10504.472872	5203.210000	311.644531	0.275618
10504.472872	5203.210000	310.349609	-94.470764
10504.472872	5203.210000	309.054688	-159.574997
10504.472872	5203.210000	307.759766	22.628555
10504.472872	5203.210000	306.464844	89.810394
10504.472872	5203.210000	305.168945	-80.933426
10504.472872	5203.210000	303.873047	34.106407
10504.472872	5203.210000	302.577148	167.586594
10504.472872	5203.210000	301.281250	45.936295
10504.472872	5203.210000	299.984375	259.088776
