#X		#Y		#Wave		#Intensity
146.286702	5421.175000	1999.946289	-71.202988
146.286702	5421.175000	1998.981445	235.302368
146.286702	5421.175000	1998.017578	-76.722420
146.286702	5421.175000	1997.052734	67.325302
146.286702	5421.175000	1996.088867	15.570872
146.286702	5421.175000	1995.124023	48.045517
146.286702	5421.175000	1994.159180	1.239830
146.286702	5421.175000	1993.193359	125.301125
146.286702	5421.175000	1992.228516	-0.751200
146.286702	5421.175000	1991.262695	96.014282
146.286702	5421.175000	1990.296875	118.487045
146.286702	5421.175000	1989.331055	-57.012833
146.286702	5421.175000	1988.365234	-2.375723
146.286702	5421.175000	1987.398438	-12.079017
146.286702	5421.175000	1986.432617	47.461601
146.286702	5421.175000	1985.465820	-194.684998
146.286702	5421.175000	1984.499023	136.790024
146.286702	5421.175000	1983.532227	70.195877
146.286702	5421.175000	1982.565430	72.816841
146.286702	5421.175000	1981.597656	95.197845
146.286702	5421.175000	1980.629883	-146.755676
146.286702	5421.175000	1979.662109	-77.421104
146.286702	5421.175000	1978.694336	214.130783
146.286702	5421.175000	1977.726563	-5.495989
146.286702	5421.175000	1976.758789	155.102371
146.286702	5421.175000	1975.790039	24.414042
146.286702	5421.175000	1974.821289	-17.394434
146.286702	5421.175000	1973.852539	130.779434
146.286702	5421.175000	1972.883789	51.967789
146.286702	5421.175000	1971.915039	64.435188
146.286702	5421.175000	1970.945313	42.378204
146.286702	5421.175000	1969.975586	64.705986
146.286702	5421.175000	1969.005859	40.196217
146.286702	5421.175000	1968.036133	-36.053604
146.286702	5421.175000	1967.066406	72.519821
146.286702	5421.175000	1966.096680	-77.604691
146.286702	5421.175000	1965.125977	-23.244326
146.286702	5421.175000	1964.155273	151.762894
146.286702	5421.175000	1963.184570	-0.745386
146.286702	5421.175000	1962.213867	51.120235
146.286702	5421.175000	1961.242188	-29.932070
146.286702	5421.175000	1960.271484	78.524292
146.286702	5421.175000	1959.299805	76.233551
146.286702	5421.175000	1958.328125	59.190079
146.286702	5421.175000	1957.356445	17.564463
146.286702	5421.175000	1956.384766	212.010178
146.286702	5421.175000	1955.412109	-1.706558
146.286702	5421.175000	1954.439453	52.577034
146.286702	5421.175000	1953.467773	-99.581314
146.286702	5421.175000	1952.495117	-146.026733
146.286702	5421.175000	1951.521484	77.774109
146.286702	5421.175000	1950.548828	58.342266
146.286702	5421.175000	1949.575195	105.225693
146.286702	5421.175000	1948.601563	-0.125371
146.286702	5421.175000	1947.627930	56.582584
146.286702	5421.175000	1946.654297	-14.347662
146.286702	5421.175000	1945.680664	-99.968330
146.286702	5421.175000	1944.706055	-237.072815
146.286702	5421.175000	1943.732422	50.236271
146.286702	5421.175000	1942.757813	-74.570267
146.286702	5421.175000	1941.783203	58.136417
146.286702	5421.175000	1940.807617	46.157661
146.286702	5421.175000	1939.833008	19.483501
146.286702	5421.175000	1938.857422	22.232735
146.286702	5421.175000	1937.881836	32.337360
146.286702	5421.175000	1936.906250	-55.544960
146.286702	5421.175000	1935.930664	-38.070053
146.286702	5421.175000	1934.955078	104.294243
146.286702	5421.175000	1933.978516	-5.570673
146.286702	5421.175000	1933.001953	36.380894
146.286702	5421.175000	1932.025391	-26.917553
146.286702	5421.175000	1931.048828	-41.246872
146.286702	5421.175000	1930.072266	44.741947
146.286702	5421.175000	1929.094727	-177.501831
146.286702	5421.175000	1928.118164	23.435436
146.286702	5421.175000	1927.140625	136.276108
146.286702	5421.175000	1926.163086	31.500843
146.286702	5421.175000	1925.184570	61.202469
146.286702	5421.175000	1924.207031	61.572861
146.286702	5421.175000	1923.228516	-82.210022
146.286702	5421.175000	1922.250000	11.025353
146.286702	5421.175000	1921.271484	128.653824
146.286702	5421.175000	1920.292969	-37.025928
146.286702	5421.175000	1919.314453	68.368225
146.286702	5421.175000	1918.334961	32.144451
146.286702	5421.175000	1917.355469	169.221298
146.286702	5421.175000	1916.375977	-3.648981
146.286702	5421.175000	1915.396484	128.509995
146.286702	5421.175000	1914.416992	75.241005
146.286702	5421.175000	1913.436523	48.820450
146.286702	5421.175000	1912.457031	-55.613667
146.286702	5421.175000	1911.476563	103.283653
146.286702	5421.175000	1910.496094	64.692635
146.286702	5421.175000	1909.515625	11.496362
146.286702	5421.175000	1908.534180	70.400436
146.286702	5421.175000	1907.552734	124.412209
146.286702	5421.175000	1906.572266	129.693802
146.286702	5421.175000	1905.590820	110.621979
146.286702	5421.175000	1904.608398	-127.564255
146.286702	5421.175000	1903.626953	43.291611
146.286702	5421.175000	1902.644531	-206.961029
146.286702	5421.175000	1901.663086	-114.019699
146.286702	5421.175000	1900.680664	-81.936363
146.286702	5421.175000	1899.698242	-18.243259
146.286702	5421.175000	1898.714844	8.945379
146.286702	5421.175000	1897.732422	-63.567986
146.286702	5421.175000	1896.749023	-111.745483
146.286702	5421.175000	1895.765625	153.640900
146.286702	5421.175000	1894.782227	25.243259
146.286702	5421.175000	1893.798828	152.009598
146.286702	5421.175000	1892.814453	171.839325
146.286702	5421.175000	1891.831055	-68.219498
146.286702	5421.175000	1890.846680	-53.217377
146.286702	5421.175000	1889.862305	17.617636
146.286702	5421.175000	1888.877930	27.737434
146.286702	5421.175000	1887.892578	200.455978
146.286702	5421.175000	1886.908203	-17.560495
146.286702	5421.175000	1885.922852	-17.155006
146.286702	5421.175000	1884.937500	-82.244560
146.286702	5421.175000	1883.952148	163.104187
146.286702	5421.175000	1882.965820	71.323814
146.286702	5421.175000	1881.980469	69.270546
146.286702	5421.175000	1880.994141	202.944092
146.286702	5421.175000	1880.007813	43.339569
146.286702	5421.175000	1879.021484	67.927437
146.286702	5421.175000	1878.035156	-4.396085
146.286702	5421.175000	1877.047852	25.023251
146.286702	5421.175000	1876.061523	10.838593
146.286702	5421.175000	1875.074219	-68.717003
146.286702	5421.175000	1874.086914	127.699753
146.286702	5421.175000	1873.098633	-72.869705
146.286702	5421.175000	1872.111328	62.967075
146.286702	5421.175000	1871.123047	19.720451
146.286702	5421.175000	1870.135742	-9.003716
146.286702	5421.175000	1869.147461	80.772179
146.286702	5421.175000	1868.158203	66.535660
146.286702	5421.175000	1867.169922	204.595779
146.286702	5421.175000	1866.180664	-92.462502
146.286702	5421.175000	1865.192383	127.719223
146.286702	5421.175000	1864.203125	21.638025
146.286702	5421.175000	1863.213867	130.577713
146.286702	5421.175000	1862.223633	87.309616
146.286702	5421.175000	1861.234375	205.834793
146.286702	5421.175000	1860.244141	138.406082
146.286702	5421.175000	1859.253906	112.026604
146.286702	5421.175000	1858.263672	39.792789
146.286702	5421.175000	1857.273438	182.323074
146.286702	5421.175000	1856.282227	192.102585
146.286702	5421.175000	1855.291992	105.388390
146.286702	5421.175000	1854.300781	-118.763557
146.286702	5421.175000	1853.309570	52.574715
146.286702	5421.175000	1852.317383	-60.618996
146.286702	5421.175000	1851.326172	96.158043
146.286702	5421.175000	1850.333984	64.904099
146.286702	5421.175000	1849.342773	50.514549
146.286702	5421.175000	1848.350586	79.475410
146.286702	5421.175000	1847.357422	-31.274597
146.286702	5421.175000	1846.365234	-52.902527
146.286702	5421.175000	1845.372070	-26.387756
146.286702	5421.175000	1844.379883	33.801937
146.286702	5421.175000	1843.386719	-55.252808
146.286702	5421.175000	1842.393555	14.514806
146.286702	5421.175000	1841.399414	33.721622
146.286702	5421.175000	1840.406250	86.580147
146.286702	5421.175000	1839.412109	19.165556
146.286702	5421.175000	1838.417969	7.059848
146.286702	5421.175000	1837.423828	-38.710789
146.286702	5421.175000	1836.429688	146.246048
146.286702	5421.175000	1835.434570	40.360588
146.286702	5421.175000	1834.440430	-10.242342
146.286702	5421.175000	1833.445313	-113.688416
146.286702	5421.175000	1832.450195	59.069801
146.286702	5421.175000	1831.454102	-10.768933
146.286702	5421.175000	1830.458984	99.454010
146.286702	5421.175000	1829.462891	-25.604439
146.286702	5421.175000	1828.466797	2.952849
146.286702	5421.175000	1827.470703	-33.299572
146.286702	5421.175000	1826.474609	28.797323
146.286702	5421.175000	1825.478516	126.829819
146.286702	5421.175000	1824.481445	8.990233
146.286702	5421.175000	1823.484375	138.120117
146.286702	5421.175000	1822.487305	15.492762
146.286702	5421.175000	1821.490234	43.879528
146.286702	5421.175000	1820.493164	-93.097153
146.286702	5421.175000	1819.495117	-28.803143
146.286702	5421.175000	1818.498047	66.588104
146.286702	5421.175000	1817.500000	-24.871336
146.286702	5421.175000	1816.500977	94.385765
146.286702	5421.175000	1815.502930	53.189964
146.286702	5421.175000	1814.504883	55.072849
146.286702	5421.175000	1813.505859	131.116226
146.286702	5421.175000	1812.506836	-161.338623
146.286702	5421.175000	1811.507813	65.380089
146.286702	5421.175000	1810.508789	-16.527056
146.286702	5421.175000	1809.508789	107.217010
146.286702	5421.175000	1808.508789	108.967323
146.286702	5421.175000	1807.508789	141.771164
146.286702	5421.175000	1806.508789	-57.270466
146.286702	5421.175000	1805.508789	71.086975
146.286702	5421.175000	1804.508789	294.933258
146.286702	5421.175000	1803.507813	143.682571
146.286702	5421.175000	1802.506836	207.390762
146.286702	5421.175000	1801.505859	15.585122
146.286702	5421.175000	1800.504883	-4.296432
146.286702	5421.175000	1799.502930	71.273994
146.286702	5421.175000	1798.501953	289.969940
146.286702	5421.175000	1797.500000	141.153336
146.286702	5421.175000	1796.498047	123.564316
146.286702	5421.175000	1795.496094	117.885910
146.286702	5421.175000	1794.493164	97.880310
146.286702	5421.175000	1793.491211	39.719788
146.286702	5421.175000	1792.488281	79.282257
146.286702	5421.175000	1791.485352	23.487106
146.286702	5421.175000	1790.482422	174.977859
146.286702	5421.175000	1789.478516	204.898956
146.286702	5421.175000	1788.475586	37.108429
146.286702	5421.175000	1787.471680	-4.435428
146.286702	5421.175000	1786.467773	73.055542
146.286702	5421.175000	1785.463867	110.029572
146.286702	5421.175000	1784.459961	56.533051
146.286702	5421.175000	1783.455078	-27.899551
146.286702	5421.175000	1782.450195	63.724110
146.286702	5421.175000	1781.445313	79.178452
146.286702	5421.175000	1780.440430	-93.263077
146.286702	5421.175000	1779.435547	119.516731
146.286702	5421.175000	1778.429688	-7.745098
146.286702	5421.175000	1777.424805	76.551620
146.286702	5421.175000	1776.418945	153.664627
146.286702	5421.175000	1775.413086	-6.856469
146.286702	5421.175000	1774.406250	-31.943624
146.286702	5421.175000	1773.400391	71.206635
146.286702	5421.175000	1772.393555	3.331386
146.286702	5421.175000	1771.386719	39.918343
146.286702	5421.175000	1770.379883	62.228779
146.286702	5421.175000	1769.373047	-60.250935
146.286702	5421.175000	1768.365234	37.951431
146.286702	5421.175000	1767.358398	-18.096718
146.286702	5421.175000	1766.350586	134.569016
146.286702	5421.175000	1765.342773	28.681610
146.286702	5421.175000	1764.334961	69.808014
146.286702	5421.175000	1763.326172	82.450157
146.286702	5421.175000	1762.318359	23.970572
146.286702	5421.175000	1761.309570	1.032226
146.286702	5421.175000	1760.300781	-31.394014
146.286702	5421.175000	1759.291016	87.760612
146.286702	5421.175000	1758.282227	206.851974
146.286702	5421.175000	1757.272461	34.645908
146.286702	5421.175000	1756.262695	-130.412979
146.286702	5421.175000	1755.252930	-108.451080
146.286702	5421.175000	1754.243164	-65.220726
146.286702	5421.175000	1753.233398	30.023783
146.286702	5421.175000	1752.222656	103.919952
146.286702	5421.175000	1751.211914	-110.763802
146.286702	5421.175000	1750.201172	-70.012711
146.286702	5421.175000	1749.190430	-86.035660
146.286702	5421.175000	1748.179688	-26.434587
146.286702	5421.175000	1747.167969	18.941620
146.286702	5421.175000	1746.156250	38.291172
146.286702	5421.175000	1745.144531	-197.515686
146.286702	5421.175000	1744.132813	3.692538
146.286702	5421.175000	1743.121094	25.337862
146.286702	5421.175000	1742.108398	129.586456
146.286702	5421.175000	1741.095703	-14.077232
146.286702	5421.175000	1740.083008	83.021240
146.286702	5421.175000	1739.070313	50.285831
146.286702	5421.175000	1738.057617	8.107296
146.286702	5421.175000	1737.043945	-29.358509
146.286702	5421.175000	1736.030273	62.875401
146.286702	5421.175000	1735.016602	-14.705480
146.286702	5421.175000	1734.002930	-179.497482
146.286702	5421.175000	1732.989258	-122.694786
146.286702	5421.175000	1731.974609	-188.470703
146.286702	5421.175000	1730.959961	-56.333782
146.286702	5421.175000	1729.945313	-44.398586
146.286702	5421.175000	1728.930664	-171.436447
146.286702	5421.175000	1727.916016	-6.465267
146.286702	5421.175000	1726.900391	80.734161
146.286702	5421.175000	1725.885742	-60.427933
146.286702	5421.175000	1724.870117	54.954453
146.286702	5421.175000	1723.853516	113.804787
146.286702	5421.175000	1722.837891	-97.907524
146.286702	5421.175000	1721.822266	57.350674
146.286702	5421.175000	1720.805664	-13.214672
146.286702	5421.175000	1719.789063	-1.481536
146.286702	5421.175000	1718.772461	-93.195335
146.286702	5421.175000	1717.754883	-10.981216
146.286702	5421.175000	1716.738281	92.336952
146.286702	5421.175000	1715.720703	40.546295
146.286702	5421.175000	1714.703125	-55.866341
146.286702	5421.175000	1713.685547	-30.142948
146.286702	5421.175000	1712.667969	-72.532837
146.286702	5421.175000	1711.649414	2.448649
146.286702	5421.175000	1710.630859	-47.003571
146.286702	5421.175000	1709.612305	156.976929
146.286702	5421.175000	1708.593750	-28.588184
146.286702	5421.175000	1707.575195	-56.936966
146.286702	5421.175000	1706.555664	20.242830
146.286702	5421.175000	1705.536133	-87.855766
146.286702	5421.175000	1704.516602	-62.299923
146.286702	5421.175000	1703.497070	7.766042
146.286702	5421.175000	1702.477539	-15.943298
146.286702	5421.175000	1701.457031	-13.887222
146.286702	5421.175000	1700.437500	-126.623093
146.286702	5421.175000	1699.416992	175.213516
146.286702	5421.175000	1698.395508	48.404533
146.286702	5421.175000	1697.375000	76.152428
146.286702	5421.175000	1696.354492	-6.134410
146.286702	5421.175000	1695.333008	-22.877226
146.286702	5421.175000	1694.311523	-60.682659
146.286702	5421.175000	1693.290039	16.144342
146.286702	5421.175000	1692.267578	-5.305761
146.286702	5421.175000	1691.246094	-5.708808
146.286702	5421.175000	1690.223633	26.607586
146.286702	5421.175000	1689.201172	-8.887492
146.286702	5421.175000	1688.178711	-39.704060
146.286702	5421.175000	1687.155273	-72.858620
146.286702	5421.175000	1686.132813	-166.747147
146.286702	5421.175000	1685.109375	-78.421928
146.286702	5421.175000	1684.085938	84.590553
146.286702	5421.175000	1683.062500	25.719740
146.286702	5421.175000	1682.039063	-9.792419
146.286702	5421.175000	1681.014648	62.060486
146.286702	5421.175000	1679.990234	3.201231
146.286702	5421.175000	1678.965820	0.350763
146.286702	5421.175000	1677.941406	16.154839
146.286702	5421.175000	1676.916992	73.925713
146.286702	5421.175000	1675.891602	138.659042
146.286702	5421.175000	1674.866211	82.135063
146.286702	5421.175000	1673.840820	-7.004879
146.286702	5421.175000	1672.815430	-68.151642
146.286702	5421.175000	1671.790039	59.443085
146.286702	5421.175000	1670.763672	238.227570
146.286702	5421.175000	1669.737305	156.087997
146.286702	5421.175000	1668.710938	-65.739494
146.286702	5421.175000	1667.684570	80.358109
146.286702	5421.175000	1666.658203	68.112511
146.286702	5421.175000	1665.630859	79.136543
146.286702	5421.175000	1664.603516	-14.552723
146.286702	5421.175000	1663.576172	26.717335
146.286702	5421.175000	1662.548828	93.552933
146.286702	5421.175000	1661.520508	-18.701674
146.286702	5421.175000	1660.493164	85.310692
146.286702	5421.175000	1659.464844	93.970673
146.286702	5421.175000	1658.436523	77.060493
146.286702	5421.175000	1657.408203	234.427109
146.286702	5421.175000	1656.378906	45.572968
146.286702	5421.175000	1655.350586	54.226349
146.286702	5421.175000	1654.321289	206.852859
146.286702	5421.175000	1653.291992	229.396820
146.286702	5421.175000	1652.261719	340.140533
146.286702	5421.175000	1651.232422	167.689651
146.286702	5421.175000	1650.202148	252.876038
146.286702	5421.175000	1649.171875	154.746063
146.286702	5421.175000	1648.141602	205.108582
146.286702	5421.175000	1647.111328	225.302734
146.286702	5421.175000	1646.080078	115.639587
146.286702	5421.175000	1645.049805	189.165253
146.286702	5421.175000	1644.018555	327.557770
146.286702	5421.175000	1642.987305	333.809814
146.286702	5421.175000	1641.955078	247.381393
146.286702	5421.175000	1640.923828	258.283447
146.286702	5421.175000	1639.891602	178.855637
146.286702	5421.175000	1638.859375	270.811859
146.286702	5421.175000	1637.827148	376.625946
146.286702	5421.175000	1636.794922	338.893890
146.286702	5421.175000	1635.761719	305.804749
146.286702	5421.175000	1634.729492	446.266815
146.286702	5421.175000	1633.696289	135.580338
146.286702	5421.175000	1632.662109	289.898865
146.286702	5421.175000	1631.628906	367.856293
146.286702	5421.175000	1630.594727	253.892044
146.286702	5421.175000	1629.561523	385.000275
146.286702	5421.175000	1628.527344	347.351898
146.286702	5421.175000	1627.493164	312.034210
146.286702	5421.175000	1626.458008	380.689911
146.286702	5421.175000	1625.423828	333.842468
146.286702	5421.175000	1624.388672	256.995300
146.286702	5421.175000	1623.353516	374.125336
146.286702	5421.175000	1622.318359	345.789490
146.286702	5421.175000	1621.282227	488.253571
146.286702	5421.175000	1620.247070	303.012573
146.286702	5421.175000	1619.210938	265.497314
146.286702	5421.175000	1618.174805	364.091858
146.286702	5421.175000	1617.137695	499.550354
146.286702	5421.175000	1616.101563	568.103088
146.286702	5421.175000	1615.064453	535.204407
146.286702	5421.175000	1614.027344	322.555145
146.286702	5421.175000	1612.990234	427.994537
146.286702	5421.175000	1611.953125	491.931976
146.286702	5421.175000	1610.916016	535.123535
146.286702	5421.175000	1609.877930	536.850708
146.286702	5421.175000	1608.839844	517.864807
146.286702	5421.175000	1607.801758	549.541931
146.286702	5421.175000	1606.763672	473.040619
146.286702	5421.175000	1605.724609	470.214142
146.286702	5421.175000	1604.685547	644.556335
146.286702	5421.175000	1603.646484	485.300385
146.286702	5421.175000	1602.607422	533.103210
146.286702	5421.175000	1601.568359	445.235138
146.286702	5421.175000	1600.528320	617.190613
146.286702	5421.175000	1599.489258	570.737671
146.286702	5421.175000	1598.449219	441.581940
146.286702	5421.175000	1597.408203	595.090881
146.286702	5421.175000	1596.368164	502.760406
146.286702	5421.175000	1595.327148	529.904663
146.286702	5421.175000	1594.287109	671.867126
146.286702	5421.175000	1593.246094	432.681793
146.286702	5421.175000	1592.204102	478.223816
146.286702	5421.175000	1591.163086	340.173126
146.286702	5421.175000	1590.121094	397.216492
146.286702	5421.175000	1589.079102	575.834412
146.286702	5421.175000	1588.037109	435.592407
146.286702	5421.175000	1586.995117	318.351135
146.286702	5421.175000	1585.953125	357.072205
146.286702	5421.175000	1584.910156	391.205444
146.286702	5421.175000	1583.867188	301.586121
146.286702	5421.175000	1582.824219	331.166138
146.286702	5421.175000	1581.781250	248.497925
146.286702	5421.175000	1580.737305	369.723267
146.286702	5421.175000	1579.693359	197.800415
146.286702	5421.175000	1578.649414	284.678345
146.286702	5421.175000	1577.605469	117.451485
146.286702	5421.175000	1576.561523	277.581451
146.286702	5421.175000	1575.516602	256.896576
146.286702	5421.175000	1574.472656	396.381439
146.286702	5421.175000	1573.427734	343.694946
146.286702	5421.175000	1572.381836	243.020493
146.286702	5421.175000	1571.336914	240.720886
146.286702	5421.175000	1570.291016	357.307251
146.286702	5421.175000	1569.246094	206.466537
146.286702	5421.175000	1568.200195	231.648941
146.286702	5421.175000	1567.153320	71.785843
146.286702	5421.175000	1566.107422	293.459595
146.286702	5421.175000	1565.060547	115.416344
146.286702	5421.175000	1564.013672	163.503769
146.286702	5421.175000	1562.966797	289.207397
146.286702	5421.175000	1561.919922	97.634804
146.286702	5421.175000	1560.872070	227.903183
146.286702	5421.175000	1559.825195	253.196198
146.286702	5421.175000	1558.777344	365.175751
146.286702	5421.175000	1557.729492	171.537064
146.286702	5421.175000	1556.680664	244.765518
146.286702	5421.175000	1555.632813	251.878586
146.286702	5421.175000	1554.583984	322.825989
146.286702	5421.175000	1553.535156	282.106964
146.286702	5421.175000	1552.486328	275.600128
146.286702	5421.175000	1551.436523	25.383734
146.286702	5421.175000	1550.387695	82.741173
146.286702	5421.175000	1549.337891	42.186771
146.286702	5421.175000	1548.288086	38.094219
146.286702	5421.175000	1547.238281	147.829865
146.286702	5421.175000	1546.187500	268.920837
146.286702	5421.175000	1545.136719	123.790543
146.286702	5421.175000	1544.086914	269.908203
146.286702	5421.175000	1543.035156	13.438975
146.286702	5421.175000	1541.984375	70.885460
146.286702	5421.175000	1540.933594	110.145409
146.286702	5421.175000	1539.881836	8.489233
146.286702	5421.175000	1538.830078	70.515968
146.286702	5421.175000	1537.778320	46.204266
146.286702	5421.175000	1536.725586	80.985725
146.286702	5421.175000	1535.673828	81.712387
146.286702	5421.175000	1534.621094	91.543739
146.286702	5421.175000	1533.568359	128.638748
146.286702	5421.175000	1532.515625	49.983391
146.286702	5421.175000	1531.461914	216.472260
146.286702	5421.175000	1530.409180	199.140732
146.286702	5421.175000	1529.355469	297.530853
146.286702	5421.175000	1528.301758	148.693573
146.286702	5421.175000	1527.247070	56.627079
146.286702	5421.175000	1526.193359	62.110699
146.286702	5421.175000	1525.138672	10.948871
146.286702	5421.175000	1524.083984	154.727585
146.286702	5421.175000	1523.029297	-9.669780
146.286702	5421.175000	1521.974609	-65.240662
146.286702	5421.175000	1520.918945	-14.316315
146.286702	5421.175000	1519.863281	56.993828
146.286702	5421.175000	1518.807617	-66.400475
146.286702	5421.175000	1517.751953	38.897350
146.286702	5421.175000	1516.696289	-129.653625
146.286702	5421.175000	1515.639648	129.525131
146.286702	5421.175000	1514.583008	-25.352203
146.286702	5421.175000	1513.526367	-3.725997
146.286702	5421.175000	1512.469727	-52.181614
146.286702	5421.175000	1511.412109	-73.462196
146.286702	5421.175000	1510.355469	-78.883461
146.286702	5421.175000	1509.297852	44.539948
146.286702	5421.175000	1508.240234	14.295445
146.286702	5421.175000	1507.181641	31.529152
146.286702	5421.175000	1506.124023	-41.559242
146.286702	5421.175000	1505.065430	-6.201473
146.286702	5421.175000	1504.006836	42.716236
146.286702	5421.175000	1502.948242	51.011326
146.286702	5421.175000	1501.888672	183.454544
146.286702	5421.175000	1500.830078	67.673531
146.286702	5421.175000	1499.770508	127.927040
146.286702	5421.175000	1498.710938	0.980070
146.286702	5421.175000	1497.650391	-83.043991
146.286702	5421.175000	1496.590820	-9.185212
146.286702	5421.175000	1495.530273	-9.715392
146.286702	5421.175000	1494.469727	73.169411
146.286702	5421.175000	1493.409180	9.589361
146.286702	5421.175000	1492.348633	153.318420
146.286702	5421.175000	1491.287109	-56.598507
146.286702	5421.175000	1490.225586	-140.298004
146.286702	5421.175000	1489.164063	55.242920
146.286702	5421.175000	1488.102539	3.125348
146.286702	5421.175000	1487.041016	-84.951958
146.286702	5421.175000	1485.978516	-123.463966
146.286702	5421.175000	1484.916016	69.788025
146.286702	5421.175000	1483.853516	-20.419600
146.286702	5421.175000	1482.791016	-22.850002
146.286702	5421.175000	1481.727539	-189.370148
146.286702	5421.175000	1480.664063	-83.808792
146.286702	5421.175000	1479.600586	-59.161034
146.286702	5421.175000	1478.537109	-158.067993
146.286702	5421.175000	1477.473633	-54.784523
146.286702	5421.175000	1476.409180	88.907486
146.286702	5421.175000	1475.344727	-70.437576
146.286702	5421.175000	1474.280273	-77.109238
146.286702	5421.175000	1473.215820	104.731346
146.286702	5421.175000	1472.151367	17.295122
146.286702	5421.175000	1471.085938	129.658249
146.286702	5421.175000	1470.020508	313.611786
146.286702	5421.175000	1468.955078	156.829575
146.286702	5421.175000	1467.888672	148.076782
146.286702	5421.175000	1466.823242	103.498802
146.286702	5421.175000	1465.756836	168.426361
146.286702	5421.175000	1464.690430	169.063950
146.286702	5421.175000	1463.624023	138.063400
146.286702	5421.175000	1462.556641	126.969345
146.286702	5421.175000	1461.490234	221.520126
146.286702	5421.175000	1460.422852	181.460312
146.286702	5421.175000	1459.355469	76.911240
146.286702	5421.175000	1458.287109	-20.833332
146.286702	5421.175000	1457.219727	205.466660
146.286702	5421.175000	1456.151367	219.390472
146.286702	5421.175000	1455.083008	214.873795
146.286702	5421.175000	1454.014648	180.488342
146.286702	5421.175000	1452.945313	257.006012
146.286702	5421.175000	1451.876953	322.014282
146.286702	5421.175000	1450.807617	260.372925
146.286702	5421.175000	1449.738281	198.521378
146.286702	5421.175000	1448.668945	321.382446
146.286702	5421.175000	1447.598633	307.399048
146.286702	5421.175000	1446.528320	119.504684
146.286702	5421.175000	1445.458008	256.859467
146.286702	5421.175000	1444.387695	259.421783
146.286702	5421.175000	1443.317383	37.684330
146.286702	5421.175000	1442.246094	131.089630
146.286702	5421.175000	1441.174805	244.545624
146.286702	5421.175000	1440.103516	-4.622033
146.286702	5421.175000	1439.032227	24.647121
146.286702	5421.175000	1437.960938	67.452148
146.286702	5421.175000	1436.888672	128.810928
146.286702	5421.175000	1435.816406	105.152267
146.286702	5421.175000	1434.744141	84.274925
146.286702	5421.175000	1433.670898	-26.190342
146.286702	5421.175000	1432.598633	-31.148790
146.286702	5421.175000	1431.525391	4.674359
146.286702	5421.175000	1430.452148	92.117447
146.286702	5421.175000	1429.378906	-170.621857
146.286702	5421.175000	1428.304688	76.486725
146.286702	5421.175000	1427.231445	-31.245514
146.286702	5421.175000	1426.157227	45.744534
146.286702	5421.175000	1425.083008	-54.970554
146.286702	5421.175000	1424.007813	-89.873100
146.286702	5421.175000	1422.933594	-20.019215
146.286702	5421.175000	1421.858398	-165.258682
146.286702	5421.175000	1420.783203	-37.072239
146.286702	5421.175000	1419.708008	135.976028
146.286702	5421.175000	1418.631836	-72.836777
146.286702	5421.175000	1417.555664	-176.883606
146.286702	5421.175000	1416.479492	-167.732895
146.286702	5421.175000	1415.403320	-68.249512
146.286702	5421.175000	1414.327148	-99.964790
146.286702	5421.175000	1413.250000	46.809582
146.286702	5421.175000	1412.173828	-83.970810
146.286702	5421.175000	1411.096680	53.176762
146.286702	5421.175000	1410.018555	16.239580
146.286702	5421.175000	1408.941406	35.147175
146.286702	5421.175000	1407.863281	75.046013
146.286702	5421.175000	1406.785156	67.214264
146.286702	5421.175000	1405.707031	7.461383
146.286702	5421.175000	1404.628906	179.015289
146.286702	5421.175000	1403.549805	96.435112
146.286702	5421.175000	1402.470703	80.619537
146.286702	5421.175000	1401.391602	132.072357
146.286702	5421.175000	1400.312500	80.268036
146.286702	5421.175000	1399.233398	109.423759
146.286702	5421.175000	1398.153320	57.138329
146.286702	5421.175000	1397.073242	-120.724869
146.286702	5421.175000	1395.993164	79.047905
146.286702	5421.175000	1394.913086	58.704090
146.286702	5421.175000	1393.832031	151.357224
146.286702	5421.175000	1392.750977	104.759758
146.286702	5421.175000	1391.669922	50.755314
146.286702	5421.175000	1390.588867	60.839855
146.286702	5421.175000	1389.506836	159.320847
146.286702	5421.175000	1388.425781	7.494598
146.286702	5421.175000	1387.343750	43.394161
146.286702	5421.175000	1386.261719	70.748909
146.286702	5421.175000	1385.178711	23.556826
146.286702	5421.175000	1384.096680	131.345474
146.286702	5421.175000	1383.013672	87.288216
146.286702	5421.175000	1381.930664	-36.536049
146.286702	5421.175000	1380.846680	53.423473
146.286702	5421.175000	1379.763672	66.602364
146.286702	5421.175000	1378.679688	52.614601
146.286702	5421.175000	1377.595703	-33.811611
146.286702	5421.175000	1376.511719	11.260105
146.286702	5421.175000	1375.427734	-44.503410
146.286702	5421.175000	1374.342773	-52.563438
146.286702	5421.175000	1373.257813	74.200714
146.286702	5421.175000	1372.172852	42.291824
146.286702	5421.175000	1371.087891	7.518822
146.286702	5421.175000	1370.001953	106.709076
146.286702	5421.175000	1368.916992	136.756241
146.286702	5421.175000	1367.831055	-159.917679
146.286702	5421.175000	1366.744141	143.701843
146.286702	5421.175000	1365.658203	138.601135
146.286702	5421.175000	1364.571289	22.494787
146.286702	5421.175000	1363.484375	72.584351
146.286702	5421.175000	1362.397461	128.685104
146.286702	5421.175000	1361.310547	157.787109
146.286702	5421.175000	1360.222656	172.388809
146.286702	5421.175000	1359.135742	76.144241
146.286702	5421.175000	1358.047852	114.309723
146.286702	5421.175000	1356.958984	139.265030
146.286702	5421.175000	1355.871094	6.121622
146.286702	5421.175000	1354.782227	131.437668
146.286702	5421.175000	1353.693359	2.239747
146.286702	5421.175000	1352.604492	-25.964977
146.286702	5421.175000	1351.515625	84.299889
146.286702	5421.175000	1350.425781	144.868881
146.286702	5421.175000	1349.335938	249.873962
146.286702	5421.175000	1348.246094	180.419449
146.286702	5421.175000	1347.156250	108.867004
146.286702	5421.175000	1346.066406	288.765778
146.286702	5421.175000	1344.975586	313.616364
146.286702	5421.175000	1343.884766	221.609299
146.286702	5421.175000	1342.793945	366.215057
146.286702	5421.175000	1341.702148	341.181396
146.286702	5421.175000	1340.611328	293.806793
146.286702	5421.175000	1339.519531	415.172821
146.286702	5421.175000	1338.427734	189.160828
146.286702	5421.175000	1337.334961	173.052277
146.286702	5421.175000	1336.243164	178.380844
146.286702	5421.175000	1335.150391	101.921646
146.286702	5421.175000	1334.057617	149.368408
146.286702	5421.175000	1332.964844	193.870377
146.286702	5421.175000	1331.871094	113.810188
146.286702	5421.175000	1330.778320	146.168625
146.286702	5421.175000	1329.684570	248.707779
146.286702	5421.175000	1328.590820	241.561218
146.286702	5421.175000	1327.496094	92.289886
146.286702	5421.175000	1326.402344	119.101006
146.286702	5421.175000	1325.307617	-4.392659
146.286702	5421.175000	1324.212891	81.687065
146.286702	5421.175000	1323.117188	121.272263
146.286702	5421.175000	1322.022461	36.562218
146.286702	5421.175000	1320.926758	96.907608
146.286702	5421.175000	1319.831055	42.391628
146.286702	5421.175000	1318.735352	-31.888243
146.286702	5421.175000	1317.638672	45.034313
146.286702	5421.175000	1316.542969	-103.572693
146.286702	5421.175000	1315.446289	-82.049370
146.286702	5421.175000	1314.349609	181.839264
146.286702	5421.175000	1313.251953	-2.199713
146.286702	5421.175000	1312.155273	14.086486
146.286702	5421.175000	1311.057617	174.966248
146.286702	5421.175000	1309.959961	7.771654
146.286702	5421.175000	1308.862305	-87.531151
146.286702	5421.175000	1307.763672	130.184433
146.286702	5421.175000	1306.665039	120.533157
146.286702	5421.175000	1305.566406	-49.177525
146.286702	5421.175000	1304.467773	-2.247108
146.286702	5421.175000	1303.369141	-2.885241
146.286702	5421.175000	1302.269531	178.860886
146.286702	5421.175000	1301.169922	203.494202
146.286702	5421.175000	1300.070313	165.857269
146.286702	5421.175000	1298.970703	98.472382
146.286702	5421.175000	1297.870117	35.721615
146.286702	5421.175000	1296.769531	-78.027443
146.286702	5421.175000	1295.668945	163.742142
146.286702	5421.175000	1294.568359	47.762096
146.286702	5421.175000	1293.466797	136.215332
146.286702	5421.175000	1292.366211	111.237984
146.286702	5421.175000	1291.264648	81.610573
146.286702	5421.175000	1290.162109	6.236259
146.286702	5421.175000	1289.060547	51.884937
146.286702	5421.175000	1287.958008	15.539315
146.286702	5421.175000	1286.855469	68.042984
146.286702	5421.175000	1285.752930	56.457294
146.286702	5421.175000	1284.650391	72.957367
146.286702	5421.175000	1283.546875	108.284264
146.286702	5421.175000	1282.444336	42.575455
146.286702	5421.175000	1281.339844	76.671219
146.286702	5421.175000	1280.236328	110.305649
146.286702	5421.175000	1279.132813	31.229080
146.286702	5421.175000	1278.028320	116.063011
146.286702	5421.175000	1276.923828	85.733955
146.286702	5421.175000	1275.819336	49.460022
146.286702	5421.175000	1274.713867	38.157135
146.286702	5421.175000	1273.608398	8.538430
146.286702	5421.175000	1272.503906	94.828728
146.286702	5421.175000	1271.397461	105.211281
146.286702	5421.175000	1270.291992	-124.477974
146.286702	5421.175000	1269.185547	-41.984089
146.286702	5421.175000	1268.080078	72.573387
146.286702	5421.175000	1266.972656	-16.786772
146.286702	5421.175000	1265.866211	59.904602
146.286702	5421.175000	1264.759766	18.916519
146.286702	5421.175000	1263.652344	-39.885311
146.286702	5421.175000	1262.544922	32.351830
146.286702	5421.175000	1261.436523	-38.110340
146.286702	5421.175000	1260.329102	-27.337248
146.286702	5421.175000	1259.220703	-69.060661
146.286702	5421.175000	1258.112305	-113.055321
146.286702	5421.175000	1257.003906	-13.211033
146.286702	5421.175000	1255.895508	-109.906387
146.286702	5421.175000	1254.786133	7.250751
146.286702	5421.175000	1253.676758	77.240494
146.286702	5421.175000	1252.567383	-76.837700
146.286702	5421.175000	1251.458008	5.636117
146.286702	5421.175000	1250.347656	-102.620224
146.286702	5421.175000	1249.237305	-92.935211
146.286702	5421.175000	1248.126953	56.980064
146.286702	5421.175000	1247.016602	41.591751
146.286702	5421.175000	1245.905273	69.447281
146.286702	5421.175000	1244.793945	-35.978619
146.286702	5421.175000	1243.682617	-119.405830
146.286702	5421.175000	1242.571289	38.224567
146.286702	5421.175000	1241.459961	-104.544113
146.286702	5421.175000	1240.347656	-152.759155
146.286702	5421.175000	1239.235352	-101.851601
146.286702	5421.175000	1238.123047	-140.845535
146.286702	5421.175000	1237.009766	68.221069
146.286702	5421.175000	1235.897461	-9.261825
146.286702	5421.175000	1234.784180	-55.314365
146.286702	5421.175000	1233.670898	-24.870546
146.286702	5421.175000	1232.556641	-13.651449
146.286702	5421.175000	1231.443359	18.592760
146.286702	5421.175000	1230.329102	-80.788429
146.286702	5421.175000	1229.214844	-129.979996
146.286702	5421.175000	1228.099609	11.499148
146.286702	5421.175000	1226.985352	37.007706
146.286702	5421.175000	1225.870117	67.405434
146.286702	5421.175000	1224.754883	107.331085
146.286702	5421.175000	1223.639648	156.073105
146.286702	5421.175000	1222.523438	13.023211
146.286702	5421.175000	1221.408203	14.364821
146.286702	5421.175000	1220.291992	65.570496
146.286702	5421.175000	1219.174805	-110.108925
146.286702	5421.175000	1218.058594	-60.522255
146.286702	5421.175000	1216.941406	-46.586086
146.286702	5421.175000	1215.824219	-0.111367
146.286702	5421.175000	1214.707031	-16.268154
146.286702	5421.175000	1213.589844	-10.683045
146.286702	5421.175000	1212.471680	-109.616158
146.286702	5421.175000	1211.353516	9.372049
146.286702	5421.175000	1210.235352	-77.688278
146.286702	5421.175000	1209.117188	20.117773
146.286702	5421.175000	1207.998047	-36.727734
146.286702	5421.175000	1206.878906	53.929108
146.286702	5421.175000	1205.759766	25.569130
146.286702	5421.175000	1204.640625	46.194649
146.286702	5421.175000	1203.520508	-38.765491
146.286702	5421.175000	1202.401367	107.894615
146.286702	5421.175000	1201.281250	-51.399841
146.286702	5421.175000	1200.160156	-99.576225
146.286702	5421.175000	1199.040039	-9.590250
146.286702	5421.175000	1197.918945	-87.383911
146.286702	5421.175000	1196.797852	54.816349
146.286702	5421.175000	1195.676758	-16.024744
146.286702	5421.175000	1194.555664	-32.460045
146.286702	5421.175000	1193.433594	10.105788
146.286702	5421.175000	1192.311523	-100.909149
146.286702	5421.175000	1191.189453	-11.769612
146.286702	5421.175000	1190.066406	-43.830956
146.286702	5421.175000	1188.944336	-16.905771
146.286702	5421.175000	1187.821289	-133.952682
146.286702	5421.175000	1186.698242	93.954224
146.286702	5421.175000	1185.574219	-96.678589
146.286702	5421.175000	1184.451172	-68.974220
146.286702	5421.175000	1183.327148	-19.465065
146.286702	5421.175000	1182.203125	-40.671463
146.286702	5421.175000	1181.078125	-48.478565
146.286702	5421.175000	1179.954102	61.749329
146.286702	5421.175000	1178.829102	-100.979164
146.286702	5421.175000	1177.704102	-67.002243
146.286702	5421.175000	1176.579102	-60.857124
146.286702	5421.175000	1175.453125	-33.600353
146.286702	5421.175000	1174.327148	-90.622360
146.286702	5421.175000	1173.201172	0.512780
146.286702	5421.175000	1172.075195	35.485157
146.286702	5421.175000	1170.949219	-61.815681
146.286702	5421.175000	1169.822266	-15.799813
146.286702	5421.175000	1168.695313	9.227312
146.286702	5421.175000	1167.568359	22.025368
146.286702	5421.175000	1166.440430	-16.911442
146.286702	5421.175000	1165.313477	20.998016
146.286702	5421.175000	1164.185547	73.436584
146.286702	5421.175000	1163.057617	160.697464
146.286702	5421.175000	1161.928711	76.722610
146.286702	5421.175000	1160.800781	72.127365
146.286702	5421.175000	1159.671875	141.691223
146.286702	5421.175000	1158.541992	5.819843
146.286702	5421.175000	1157.413086	32.913273
146.286702	5421.175000	1156.283203	41.153809
146.286702	5421.175000	1155.154297	-25.799692
146.286702	5421.175000	1154.023438	45.794724
146.286702	5421.175000	1152.893555	0.066520
146.286702	5421.175000	1151.763672	26.775501
146.286702	5421.175000	1150.632813	13.832807
146.286702	5421.175000	1149.501953	-57.361839
146.286702	5421.175000	1148.370117	116.048508
146.286702	5421.175000	1147.239258	46.553829
146.286702	5421.175000	1146.107422	83.654701
146.286702	5421.175000	1144.975586	81.333870
146.286702	5421.175000	1143.843750	36.290012
146.286702	5421.175000	1142.710938	27.701311
146.286702	5421.175000	1141.578125	75.209732
146.286702	5421.175000	1140.445313	79.450943
146.286702	5421.175000	1139.312500	132.278397
146.286702	5421.175000	1138.178711	-37.002785
146.286702	5421.175000	1137.045898	-47.064594
146.286702	5421.175000	1135.912109	-11.228338
146.286702	5421.175000	1134.777344	60.676792
146.286702	5421.175000	1133.643555	51.373856
146.286702	5421.175000	1132.508789	47.619148
146.286702	5421.175000	1131.374023	-26.085939
146.286702	5421.175000	1130.239258	-13.267836
146.286702	5421.175000	1129.104492	-34.537441
146.286702	5421.175000	1127.968750	-32.399731
146.286702	5421.175000	1126.833008	78.648186
146.286702	5421.175000	1125.697266	133.258102
146.286702	5421.175000	1124.560547	116.858620
146.286702	5421.175000	1123.424805	39.897049
146.286702	5421.175000	1122.288086	174.671066
146.286702	5421.175000	1121.151367	98.640640
146.286702	5421.175000	1120.013672	162.821243
146.286702	5421.175000	1118.876953	202.482040
146.286702	5421.175000	1117.739258	198.230225
146.286702	5421.175000	1116.601563	21.382706
146.286702	5421.175000	1115.462891	58.060432
146.286702	5421.175000	1114.324219	125.284439
146.286702	5421.175000	1113.186523	196.019653
146.286702	5421.175000	1112.046875	23.314951
146.286702	5421.175000	1110.908203	27.677994
146.286702	5421.175000	1109.769531	153.102264
146.286702	5421.175000	1108.629883	51.101707
146.286702	5421.175000	1107.490234	113.276047
146.286702	5421.175000	1106.349609	126.654839
146.286702	5421.175000	1105.209961	17.171961
146.286702	5421.175000	1104.069336	45.284065
146.286702	5421.175000	1102.928711	125.708069
146.286702	5421.175000	1101.787109	55.708870
146.286702	5421.175000	1100.646484	157.595886
146.286702	5421.175000	1099.504883	-49.044876
146.286702	5421.175000	1098.363281	252.952240
146.286702	5421.175000	1097.221680	195.306946
146.286702	5421.175000	1096.079102	271.282135
146.286702	5421.175000	1094.936523	167.908737
146.286702	5421.175000	1093.793945	20.190151
146.286702	5421.175000	1092.651367	84.786011
146.286702	5421.175000	1091.507813	72.559776
146.286702	5421.175000	1090.364258	213.165466
146.286702	5421.175000	1089.220703	285.145538
146.286702	5421.175000	1088.077148	213.515076
146.286702	5421.175000	1086.933594	224.935684
146.286702	5421.175000	1085.789063	212.688751
146.286702	5421.175000	1084.644531	200.096802
146.286702	5421.175000	1083.499023	90.124321
146.286702	5421.175000	1082.354492	4.766066
146.286702	5421.175000	1081.208984	-18.032373
146.286702	5421.175000	1080.063477	63.954887
146.286702	5421.175000	1078.917969	95.254677
146.286702	5421.175000	1077.771484	133.325089
146.286702	5421.175000	1076.625977	144.470047
146.286702	5421.175000	1075.479492	74.305954
146.286702	5421.175000	1074.332031	183.766373
146.286702	5421.175000	1073.185547	174.674789
146.286702	5421.175000	1072.038086	146.054306
146.286702	5421.175000	1070.890625	39.930199
146.286702	5421.175000	1069.743164	212.282425
146.286702	5421.175000	1068.594727	135.426437
146.286702	5421.175000	1067.447266	138.483673
146.286702	5421.175000	1066.298828	82.757431
146.286702	5421.175000	1065.149414	130.905365
146.286702	5421.175000	1064.000977	151.913254
146.286702	5421.175000	1062.851563	249.125336
146.286702	5421.175000	1061.702148	175.050827
146.286702	5421.175000	1060.552734	-6.913782
146.286702	5421.175000	1059.402344	105.847176
146.286702	5421.175000	1058.252930	75.728226
146.286702	5421.175000	1057.102539	204.250809
146.286702	5421.175000	1055.951172	90.342094
146.286702	5421.175000	1054.800781	49.379601
146.286702	5421.175000	1053.649414	111.763596
146.286702	5421.175000	1052.498047	125.844696
146.286702	5421.175000	1051.346680	93.234192
146.286702	5421.175000	1050.194336	44.973000
146.286702	5421.175000	1049.042969	158.691635
146.286702	5421.175000	1047.890625	8.293215
146.286702	5421.175000	1046.738281	42.796848
146.286702	5421.175000	1045.584961	70.868904
146.286702	5421.175000	1044.431641	23.748222
146.286702	5421.175000	1043.278320	146.727280
146.286702	5421.175000	1042.125000	-35.460072
146.286702	5421.175000	1040.971680	75.944458
146.286702	5421.175000	1039.817383	190.142838
146.286702	5421.175000	1038.663086	-46.233467
146.286702	5421.175000	1037.508789	-87.008194
146.286702	5421.175000	1036.353516	74.588936
146.286702	5421.175000	1035.198242	111.500481
146.286702	5421.175000	1034.042969	134.315781
146.286702	5421.175000	1032.887695	47.918579
146.286702	5421.175000	1031.732422	82.942673
146.286702	5421.175000	1030.576172	126.255966
146.286702	5421.175000	1029.419922	110.133064
146.286702	5421.175000	1028.263672	255.070053
146.286702	5421.175000	1027.106445	219.246323
146.286702	5421.175000	1025.949219	121.212906
146.286702	5421.175000	1024.792969	39.340172
146.286702	5421.175000	1023.634766	124.003227
146.286702	5421.175000	1022.477539	89.583282
146.286702	5421.175000	1021.319336	38.589005
146.286702	5421.175000	1020.161133	72.944977
146.286702	5421.175000	1019.002930	-88.151062
146.286702	5421.175000	1017.843750	27.521727
146.286702	5421.175000	1016.684570	249.459732
146.286702	5421.175000	1015.525391	-14.208144
146.286702	5421.175000	1014.366211	2.202640
146.286702	5421.175000	1013.207031	125.956230
146.286702	5421.175000	1012.046875	-125.290550
146.286702	5421.175000	1010.886719	31.511469
146.286702	5421.175000	1009.726563	-122.914574
146.286702	5421.175000	1008.565430	35.824917
146.286702	5421.175000	1007.404297	37.755234
146.286702	5421.175000	1006.243164	107.354385
146.286702	5421.175000	1005.082031	78.483673
146.286702	5421.175000	1003.920898	160.471207
146.286702	5421.175000	1002.758789	14.147079
146.286702	5421.175000	1001.596680	130.268539
146.286702	5421.175000	1000.433594	151.270630
146.286702	5421.175000	999.271484	174.716812
146.286702	5421.175000	998.108398	-116.110733
146.286702	5421.175000	996.945313	129.117569
146.286702	5421.175000	995.782227	-79.550446
146.286702	5421.175000	994.618164	79.877831
146.286702	5421.175000	993.454102	157.021545
146.286702	5421.175000	992.290039	149.086243
146.286702	5421.175000	991.125977	-7.659550
146.286702	5421.175000	989.960938	147.292374
146.286702	5421.175000	988.796875	62.240974
146.286702	5421.175000	987.630859	15.725016
146.286702	5421.175000	986.465820	-63.886108
146.286702	5421.175000	985.300781	-139.376694
146.286702	5421.175000	984.134766	-4.422662
146.286702	5421.175000	982.968750	-83.617691
146.286702	5421.175000	981.801758	-76.548370
146.286702	5421.175000	980.635742	-23.331135
146.286702	5421.175000	979.468750	-38.965832
146.286702	5421.175000	978.301758	-90.907898
146.286702	5421.175000	977.133789	33.189129
146.286702	5421.175000	975.966797	65.776291
146.286702	5421.175000	974.798828	-77.075562
146.286702	5421.175000	973.630859	10.056123
146.286702	5421.175000	972.461914	-26.741037
146.286702	5421.175000	971.293945	136.878616
146.286702	5421.175000	970.125000	34.447765
146.286702	5421.175000	968.956055	-105.060715
146.286702	5421.175000	967.786133	145.359711
146.286702	5421.175000	966.617188	-24.249916
146.286702	5421.175000	965.447266	39.145943
146.286702	5421.175000	964.276367	100.993515
146.286702	5421.175000	963.106445	-104.994209
146.286702	5421.175000	961.935547	-120.127953
146.286702	5421.175000	960.764648	21.896763
146.286702	5421.175000	959.593750	-53.726242
146.286702	5421.175000	958.422852	-48.769459
146.286702	5421.175000	957.250977	-45.051155
146.286702	5421.175000	956.079102	67.487579
146.286702	5421.175000	954.907227	-114.719704
146.286702	5421.175000	953.734375	-42.695389
146.286702	5421.175000	952.562500	-126.475845
146.286702	5421.175000	951.389648	-69.478409
146.286702	5421.175000	950.215820	-49.095242
146.286702	5421.175000	949.042969	37.868328
146.286702	5421.175000	947.869141	-75.193100
146.286702	5421.175000	946.695313	6.240402
146.286702	5421.175000	945.521484	16.804052
146.286702	5421.175000	944.346680	-34.561260
146.286702	5421.175000	943.172852	123.404663
146.286702	5421.175000	941.998047	-1.662966
146.286702	5421.175000	940.822266	-176.563034
146.286702	5421.175000	939.647461	-50.651016
146.286702	5421.175000	938.471680	97.537346
146.286702	5421.175000	937.295898	-5.563381
146.286702	5421.175000	936.119141	-199.822937
146.286702	5421.175000	934.943359	-29.564976
146.286702	5421.175000	933.766602	22.483278
146.286702	5421.175000	932.589844	64.631416
146.286702	5421.175000	931.413086	121.545914
146.286702	5421.175000	930.235352	143.857941
146.286702	5421.175000	929.057617	-141.386536
146.286702	5421.175000	927.879883	139.373459
146.286702	5421.175000	926.702148	139.592514
146.286702	5421.175000	925.523438	9.391469
146.286702	5421.175000	924.344727	44.015568
146.286702	5421.175000	923.166016	110.591225
146.286702	5421.175000	921.987305	-93.332771
146.286702	5421.175000	920.807617	29.764315
146.286702	5421.175000	919.627930	31.260559
146.286702	5421.175000	919.497070	30.075630
146.286702	5421.175000	918.331055	121.110062
146.286702	5421.175000	917.165039	49.944767
146.286702	5421.175000	915.999023	-23.662008
146.286702	5421.175000	914.833008	121.315086
146.286702	5421.175000	913.666016	32.965561
146.286702	5421.175000	912.499023	-28.359289
146.286702	5421.175000	911.332031	158.213531
146.286702	5421.175000	910.165039	-77.360451
146.286702	5421.175000	908.997070	-3.732986
146.286702	5421.175000	907.830078	42.868019
146.286702	5421.175000	906.661133	77.176338
146.286702	5421.175000	905.493164	99.196877
146.286702	5421.175000	904.325195	-70.009727
146.286702	5421.175000	903.156250	-158.282791
146.286702	5421.175000	901.987305	128.365326
146.286702	5421.175000	900.818359	35.159168
146.286702	5421.175000	899.648438	20.355585
146.286702	5421.175000	898.478516	66.764503
146.286702	5421.175000	897.308594	-75.381210
146.286702	5421.175000	896.138672	115.420830
146.286702	5421.175000	894.968750	68.739418
146.286702	5421.175000	893.797852	-34.213585
146.286702	5421.175000	892.626953	-5.037862
146.286702	5421.175000	891.456055	53.460873
146.286702	5421.175000	890.284180	192.617981
146.286702	5421.175000	889.113281	28.542839
146.286702	5421.175000	887.941406	62.511189
146.286702	5421.175000	886.768555	113.558586
146.286702	5421.175000	885.596680	181.672424
146.286702	5421.175000	884.423828	293.714783
146.286702	5421.175000	883.250977	-97.425644
146.286702	5421.175000	882.078125	163.549438
146.286702	5421.175000	880.905273	224.212723
146.286702	5421.175000	879.731445	187.202179
146.286702	5421.175000	878.557617	47.697086
146.286702	5421.175000	877.383789	93.661263
146.286702	5421.175000	876.209961	122.515541
146.286702	5421.175000	875.035156	102.566307
146.286702	5421.175000	873.860352	85.047073
146.286702	5421.175000	872.685547	-20.242884
146.286702	5421.175000	871.510742	188.911697
146.286702	5421.175000	870.334961	27.564226
146.286702	5421.175000	869.159180	66.047386
146.286702	5421.175000	867.983398	97.190720
146.286702	5421.175000	866.807617	47.938503
146.286702	5421.175000	865.630859	-8.613446
146.286702	5421.175000	864.454102	-38.381397
146.286702	5421.175000	863.277344	-26.778004
146.286702	5421.175000	862.100586	-10.328714
146.286702	5421.175000	860.922852	-6.067160
146.286702	5421.175000	859.745117	124.658806
146.286702	5421.175000	858.567383	87.515617
146.286702	5421.175000	857.389648	-44.451843
146.286702	5421.175000	856.210938	125.044991
146.286702	5421.175000	855.032227	146.203247
146.286702	5421.175000	853.853516	-39.202721
146.286702	5421.175000	852.674805	-30.200802
146.286702	5421.175000	851.495117	-6.645538
146.286702	5421.175000	850.315430	-94.822662
146.286702	5421.175000	849.135742	23.387877
146.286702	5421.175000	847.956055	-118.196098
146.286702	5421.175000	846.775391	97.011246
146.286702	5421.175000	845.595703	69.474297
146.286702	5421.175000	844.415039	107.430664
146.286702	5421.175000	843.233398	60.465706
146.286702	5421.175000	842.052734	202.642044
146.286702	5421.175000	840.871094	138.670837
146.286702	5421.175000	839.689453	55.316296
146.286702	5421.175000	838.506836	202.199783
146.286702	5421.175000	837.325195	145.482681
146.286702	5421.175000	836.142578	54.856979
146.286702	5421.175000	834.959961	68.392128
146.286702	5421.175000	833.777344	21.368347
146.286702	5421.175000	832.593750	-15.970509
146.286702	5421.175000	831.410156	19.299047
146.286702	5421.175000	830.226563	-47.099407
146.286702	5421.175000	829.042969	-62.682522
146.286702	5421.175000	827.858398	25.735395
146.286702	5421.175000	826.673828	111.679459
146.286702	5421.175000	825.489258	30.734570
146.286702	5421.175000	824.304688	-50.195507
146.286702	5421.175000	823.120117	33.237808
146.286702	5421.175000	821.934570	143.198166
146.286702	5421.175000	820.749023	93.644844
146.286702	5421.175000	819.562500	-40.446541
146.286702	5421.175000	818.376953	127.361755
146.286702	5421.175000	817.190430	290.252472
146.286702	5421.175000	816.003906	54.762104
146.286702	5421.175000	814.817383	-18.951696
146.286702	5421.175000	813.629883	23.164759
146.286702	5421.175000	812.442383	142.441452
146.286702	5421.175000	811.254883	-35.015205
146.286702	5421.175000	810.067383	-26.739935
146.286702	5421.175000	808.878906	3.211028
146.286702	5421.175000	807.690430	50.002205
146.286702	5421.175000	806.501953	-26.151110
146.286702	5421.175000	805.313477	-217.945251
146.286702	5421.175000	804.124023	50.424816
146.286702	5421.175000	802.934570	44.103172
146.286702	5421.175000	801.745117	13.684988
146.286702	5421.175000	800.555664	65.111641
146.286702	5421.175000	799.365234	-80.870987
146.286702	5421.175000	798.175781	-60.769928
146.286702	5421.175000	796.985352	-35.885380
146.286702	5421.175000	795.793945	-66.356575
146.286702	5421.175000	794.603516	-92.024933
146.286702	5421.175000	793.412109	-124.916809
146.286702	5421.175000	792.220703	130.657440
146.286702	5421.175000	791.028320	73.657463
146.286702	5421.175000	789.836914	47.899208
146.286702	5421.175000	788.644531	-88.381599
146.286702	5421.175000	787.452148	-39.676411
146.286702	5421.175000	786.258789	-111.084709
146.286702	5421.175000	785.066406	84.021599
146.286702	5421.175000	783.873047	-69.039368
146.286702	5421.175000	782.679688	173.934860
146.286702	5421.175000	781.485352	28.075199
146.286702	5421.175000	780.291992	138.944458
146.286702	5421.175000	779.097656	74.658478
146.286702	5421.175000	777.903320	151.858276
146.286702	5421.175000	776.708008	-10.741797
146.286702	5421.175000	775.512695	-12.698432
146.286702	5421.175000	774.318359	-26.657124
146.286702	5421.175000	773.122070	45.623257
146.286702	5421.175000	771.926758	-40.248341
146.286702	5421.175000	770.730469	-8.751511
146.286702	5421.175000	769.534180	-20.389637
146.286702	5421.175000	768.337891	27.805540
146.286702	5421.175000	767.141602	32.876499
146.286702	5421.175000	765.944336	73.819191
146.286702	5421.175000	764.747070	16.631287
146.286702	5421.175000	763.549805	224.957321
146.286702	5421.175000	762.351563	184.459213
146.286702	5421.175000	761.154297	86.573860
146.286702	5421.175000	759.956055	-20.854401
146.286702	5421.175000	758.757813	72.500801
146.286702	5421.175000	757.558594	55.877995
146.286702	5421.175000	756.359375	94.188545
146.286702	5421.175000	755.160156	8.259130
146.286702	5421.175000	753.960938	244.725510
146.286702	5421.175000	752.761719	48.932911
146.286702	5421.175000	751.561523	84.740402
146.286702	5421.175000	750.361328	254.156601
146.286702	5421.175000	749.160156	225.440445
146.286702	5421.175000	747.959961	75.055092
146.286702	5421.175000	746.758789	117.896782
146.286702	5421.175000	745.557617	8.089936
146.286702	5421.175000	744.356445	34.197578
146.286702	5421.175000	743.154297	69.806206
146.286702	5421.175000	741.952148	79.165779
146.286702	5421.175000	740.750000	164.741196
146.286702	5421.175000	739.547852	-111.809319
146.286702	5421.175000	738.344727	30.884380
146.286702	5421.175000	737.142578	104.448357
146.286702	5421.175000	735.939453	92.260506
146.286702	5421.175000	734.735352	-24.666965
146.286702	5421.175000	733.532227	-79.696648
146.286702	5421.175000	732.328125	-44.320858
146.286702	5421.175000	731.124023	50.482521
146.286702	5421.175000	729.918945	114.310074
146.286702	5421.175000	728.714844	66.346222
146.286702	5421.175000	727.509766	84.938385
146.286702	5421.175000	726.303711	-86.624855
146.286702	5421.175000	725.098633	-51.417278
146.286702	5421.175000	723.892578	83.528076
146.286702	5421.175000	722.686523	-2.485308
146.286702	5421.175000	721.480469	51.616863
146.286702	5421.175000	720.274414	198.264847
146.286702	5421.175000	719.067383	12.528735
146.286702	5421.175000	717.860352	-4.660941
146.286702	5421.175000	716.653320	6.607516
146.286702	5421.175000	715.445313	-81.777458
146.286702	5421.175000	714.238281	-30.220417
146.286702	5421.175000	713.030273	-35.612064
146.286702	5421.175000	711.821289	-69.470421
146.286702	5421.175000	710.613281	-157.844955
146.286702	5421.175000	709.404297	-94.548332
146.286702	5421.175000	708.195313	89.526360
146.286702	5421.175000	706.986328	-53.363926
146.286702	5421.175000	705.776367	-127.539848
146.286702	5421.175000	704.566406	-59.646877
146.286702	5421.175000	703.356445	34.236980
146.286702	5421.175000	702.146484	-54.167458
146.286702	5421.175000	700.935547	-59.741436
146.286702	5421.175000	699.724609	38.756367
146.286702	5421.175000	698.513672	4.746480
146.286702	5421.175000	697.302734	39.306671
146.286702	5421.175000	696.090820	54.918926
146.286702	5421.175000	694.878906	16.142511
146.286702	5421.175000	693.666992	83.706070
146.286702	5421.175000	692.455078	-75.591919
146.286702	5421.175000	691.242188	119.480988
146.286702	5421.175000	690.029297	104.266327
146.286702	5421.175000	688.816406	-104.575096
146.286702	5421.175000	687.602539	0.620756
146.286702	5421.175000	686.389648	169.480820
146.286702	5421.175000	685.175781	0.817400
146.286702	5421.175000	683.960938	131.822021
146.286702	5421.175000	682.747070	184.919571
146.286702	5421.175000	681.532227	25.739172
146.286702	5421.175000	680.317383	92.947205
146.286702	5421.175000	679.102539	-59.108494
146.286702	5421.175000	677.886719	5.697950
146.286702	5421.175000	676.670898	89.309822
146.286702	5421.175000	675.455078	83.353767
146.286702	5421.175000	674.239258	103.291878
146.286702	5421.175000	673.022461	40.789063
146.286702	5421.175000	671.805664	93.652924
146.286702	5421.175000	670.588867	207.676132
146.286702	5421.175000	669.372070	72.194313
146.286702	5421.175000	668.154297	30.862108
146.286702	5421.175000	666.936523	133.017929
146.286702	5421.175000	665.718750	-35.333149
146.286702	5421.175000	664.500977	160.813965
146.286702	5421.175000	663.282227	107.683693
146.286702	5421.175000	662.063477	-32.397717
146.286702	5421.175000	660.844727	64.890762
146.286702	5421.175000	659.625000	44.660233
146.286702	5421.175000	658.405273	94.886909
146.286702	5421.175000	657.185547	-47.477821
146.286702	5421.175000	655.965820	68.458351
146.286702	5421.175000	654.745117	-83.257942
146.286702	5421.175000	653.525391	-108.195381
146.286702	5421.175000	652.303711	-13.478694
146.286702	5421.175000	651.083008	71.804909
146.286702	5421.175000	649.861328	93.715714
146.286702	5421.175000	648.640625	38.229557
146.286702	5421.175000	647.417969	41.358337
146.286702	5421.175000	646.196289	32.757629
146.286702	5421.175000	644.973633	106.162964
146.286702	5421.175000	643.750977	-0.870213
146.286702	5421.175000	642.528320	16.274069
146.286702	5421.175000	641.305664	155.175156
146.286702	5421.175000	640.082031	94.993393
146.286702	5421.175000	638.858398	81.643150
146.286702	5421.175000	637.634766	-60.429028
146.286702	5421.175000	636.410156	-66.742012
146.286702	5421.175000	635.185547	-19.256899
146.286702	5421.175000	633.960938	-63.015900
146.286702	5421.175000	632.736328	-78.704788
146.286702	5421.175000	631.510742	-0.882975
146.286702	5421.175000	630.285156	23.138380
146.286702	5421.175000	629.059570	5.077814
146.286702	5421.175000	627.833984	-64.382278
146.286702	5421.175000	626.607422	71.733841
146.286702	5421.175000	625.380859	39.638481
146.286702	5421.175000	624.154297	105.614632
146.286702	5421.175000	622.927734	92.187477
146.286702	5421.175000	621.700195	25.078335
146.286702	5421.175000	620.472656	-4.674274
146.286702	5421.175000	619.245117	-8.758061
146.286702	5421.175000	618.016602	-22.176802
146.286702	5421.175000	616.788086	81.000114
146.286702	5421.175000	615.559570	123.511261
146.286702	5421.175000	614.331055	126.375000
146.286702	5421.175000	613.101563	105.926407
146.286702	5421.175000	611.872070	-5.384848
146.286702	5421.175000	610.642578	281.681274
146.286702	5421.175000	609.413086	240.241302
146.286702	5421.175000	608.182617	89.376877
146.286702	5421.175000	606.952148	134.121185
146.286702	5421.175000	605.721680	-2.696862
146.286702	5421.175000	604.491211	-118.516907
146.286702	5421.175000	603.259766	-104.009247
146.286702	5421.175000	602.028320	22.137156
146.286702	5421.175000	600.796875	-63.389915
146.286702	5421.175000	599.564453	-137.258789
146.286702	5421.175000	598.332031	-132.064194
146.286702	5421.175000	597.099609	-29.264833
146.286702	5421.175000	595.867188	-56.625046
146.286702	5421.175000	594.633789	-95.590500
146.286702	5421.175000	593.400391	83.776772
146.286702	5421.175000	592.166992	-150.249985
146.286702	5421.175000	590.933594	47.626900
146.286702	5421.175000	589.699219	154.898773
146.286702	5421.175000	588.464844	-39.542789
146.286702	5421.175000	587.230469	-90.056870
146.286702	5421.175000	585.995117	5.581779
146.286702	5421.175000	584.760742	89.589088
146.286702	5421.175000	583.525391	43.722382
146.286702	5421.175000	582.289063	-106.436005
146.286702	5421.175000	581.053711	135.143311
146.286702	5421.175000	579.817383	170.402237
146.286702	5421.175000	578.581055	126.886124
146.286702	5421.175000	577.343750	111.184494
146.286702	5421.175000	576.107422	-27.230429
146.286702	5421.175000	574.870117	28.884558
146.286702	5421.175000	573.631836	105.810516
146.286702	5421.175000	572.394531	-97.295815
146.286702	5421.175000	571.156250	-52.755150
146.286702	5421.175000	569.917969	220.771271
146.286702	5421.175000	568.679688	80.227547
146.286702	5421.175000	567.440430	55.354614
146.286702	5421.175000	566.202148	35.125065
146.286702	5421.175000	564.961914	146.641983
146.286702	5421.175000	563.722656	82.511299
146.286702	5421.175000	562.482422	-0.067133
146.286702	5421.175000	561.243164	180.700989
146.286702	5421.175000	560.001953	-12.689094
146.286702	5421.175000	558.761719	13.338186
146.286702	5421.175000	557.520508	150.153625
146.286702	5421.175000	556.279297	201.534821
146.286702	5421.175000	555.038086	84.478615
146.286702	5421.175000	553.795898	96.655151
146.286702	5421.175000	552.554688	69.632507
146.286702	5421.175000	551.311523	132.550140
146.286702	5421.175000	550.069336	29.477047
146.286702	5421.175000	548.826172	-151.903885
146.286702	5421.175000	547.583984	-164.986084
146.286702	5421.175000	546.339844	13.155124
146.286702	5421.175000	545.096680	9.276604
146.286702	5421.175000	543.852539	279.436798
146.286702	5421.175000	542.608398	6.158750
146.286702	5421.175000	541.364258	-117.375710
146.286702	5421.175000	540.119141	-17.623337
146.286702	5421.175000	538.875000	176.431427
146.286702	5421.175000	537.628906	-16.036552
146.286702	5421.175000	536.383789	37.670223
146.286702	5421.175000	535.137695	174.139587
146.286702	5421.175000	533.892578	211.715591
146.286702	5421.175000	532.645508	129.771942
146.286702	5421.175000	531.399414	240.895615
146.286702	5421.175000	530.152344	202.655930
146.286702	5421.175000	528.905273	118.508888
146.286702	5421.175000	527.658203	199.748489
146.286702	5421.175000	526.410156	85.816467
146.286702	5421.175000	525.163086	233.619644
146.286702	5421.175000	523.914063	170.241852
146.286702	5421.175000	522.666016	22.013905
146.286702	5421.175000	521.416992	68.841667
146.286702	5421.175000	520.167969	106.489044
146.286702	5421.175000	518.918945	47.832039
146.286702	5421.175000	517.669922	46.524460
146.286702	5421.175000	516.419922	-12.069110
146.286702	5421.175000	515.169922	62.278534
146.286702	5421.175000	513.919922	67.880348
146.286702	5421.175000	512.668945	25.391932
146.286702	5421.175000	511.417969	33.314342
146.286702	5421.175000	510.166992	-96.121048
146.286702	5421.175000	508.916016	-117.905533
146.286702	5421.175000	507.664063	-43.553932
146.286702	5421.175000	506.412109	74.250626
146.286702	5421.175000	505.160156	-36.731236
146.286702	5421.175000	503.907227	17.010059
146.286702	5421.175000	502.655273	93.606766
146.286702	5421.175000	501.402344	-117.854919
146.286702	5421.175000	500.148438	166.742020
146.286702	5421.175000	498.895508	-19.484905
146.286702	5421.175000	497.641602	-36.565716
146.286702	5421.175000	496.387695	-42.207188
146.286702	5421.175000	495.132813	-56.970085
146.286702	5421.175000	493.878906	-30.619390
146.286702	5421.175000	492.624023	27.685991
146.286702	5421.175000	491.368164	-3.025897
146.286702	5421.175000	490.113281	27.890003
146.286702	5421.175000	488.857422	-94.031853
146.286702	5421.175000	487.601563	-72.213768
146.286702	5421.175000	486.344727	56.768280
146.286702	5421.175000	485.088867	5.614869
146.286702	5421.175000	483.832031	-61.463287
146.286702	5421.175000	482.575195	5.934631
146.286702	5421.175000	481.317383	25.469410
146.286702	5421.175000	480.059570	-71.157898
146.286702	5421.175000	478.801758	39.484814
146.286702	5421.175000	477.543945	-54.814915
146.286702	5421.175000	476.285156	-35.260616
146.286702	5421.175000	475.027344	150.416840
146.286702	5421.175000	473.767578	51.616245
146.286702	5421.175000	472.508789	-40.312923
146.286702	5421.175000	471.249023	-45.780670
146.286702	5421.175000	469.989258	114.739014
146.286702	5421.175000	468.729492	116.063774
146.286702	5421.175000	467.469727	26.479010
146.286702	5421.175000	466.208984	50.544670
146.286702	5421.175000	464.948242	260.884308
146.286702	5421.175000	463.686523	155.422546
146.286702	5421.175000	462.425781	168.086441
146.286702	5421.175000	461.164063	117.171822
146.286702	5421.175000	459.901367	157.065964
146.286702	5421.175000	458.639648	26.740253
146.286702	5421.175000	457.376953	71.163277
146.286702	5421.175000	456.114258	122.364632
146.286702	5421.175000	454.851563	-41.908669
146.286702	5421.175000	453.587891	156.653976
146.286702	5421.175000	452.324219	-98.251434
146.286702	5421.175000	451.060547	204.469208
146.286702	5421.175000	449.796875	26.679941
146.286702	5421.175000	448.532227	-44.574902
146.286702	5421.175000	447.267578	146.914749
146.286702	5421.175000	446.002930	9.965956
146.286702	5421.175000	444.737305	49.642441
146.286702	5421.175000	443.471680	107.390999
146.286702	5421.175000	442.206055	72.312790
146.286702	5421.175000	440.940430	-21.595570
146.286702	5421.175000	439.673828	160.471115
146.286702	5421.175000	438.407227	75.580627
146.286702	5421.175000	437.140625	67.573723
146.286702	5421.175000	435.873047	104.750519
146.286702	5421.175000	434.605469	227.761749
146.286702	5421.175000	433.337891	41.134563
146.286702	5421.175000	432.070313	-23.457464
146.286702	5421.175000	430.801758	140.054565
146.286702	5421.175000	429.533203	181.523956
146.286702	5421.175000	428.264648	-34.424694
146.286702	5421.175000	426.996094	257.520233
146.286702	5421.175000	425.726563	37.050831
146.286702	5421.175000	424.457031	114.436852
146.286702	5421.175000	423.186523	184.973770
146.286702	5421.175000	421.916992	174.249023
146.286702	5421.175000	420.646484	28.199213
146.286702	5421.175000	419.375977	112.080818
146.286702	5421.175000	418.104492	11.070309
146.286702	5421.175000	416.833008	15.944146
146.286702	5421.175000	415.561523	18.503223
146.286702	5421.175000	414.290039	52.529339
146.286702	5421.175000	413.017578	30.180996
146.286702	5421.175000	411.746094	5.526368
146.286702	5421.175000	410.472656	167.616837
146.286702	5421.175000	409.200195	12.284562
146.286702	5421.175000	407.926758	-35.070480
146.286702	5421.175000	406.653320	14.234367
146.286702	5421.175000	405.379883	-66.991173
146.286702	5421.175000	404.105469	11.358846
146.286702	5421.175000	402.831055	91.836197
146.286702	5421.175000	401.556641	140.726517
146.286702	5421.175000	400.282227	-37.425385
146.286702	5421.175000	399.006836	-40.386139
146.286702	5421.175000	397.731445	55.372112
146.286702	5421.175000	396.456055	-62.322285
146.286702	5421.175000	395.179688	154.409576
146.286702	5421.175000	393.903320	72.435913
146.286702	5421.175000	392.626953	-110.589447
146.286702	5421.175000	391.350586	119.132759
146.286702	5421.175000	390.073242	23.410021
146.286702	5421.175000	388.795898	113.725365
146.286702	5421.175000	387.518555	58.148346
146.286702	5421.175000	386.240234	15.908809
146.286702	5421.175000	384.961914	67.672447
146.286702	5421.175000	383.683594	90.147766
146.286702	5421.175000	382.405273	36.310272
146.286702	5421.175000	381.125977	65.205490
146.286702	5421.175000	379.846680	31.243855
146.286702	5421.175000	378.567383	-49.868885
146.286702	5421.175000	377.287109	-52.779690
146.286702	5421.175000	376.006836	58.259857
146.286702	5421.175000	374.726563	54.990917
146.286702	5421.175000	373.446289	-64.752655
146.286702	5421.175000	372.165039	18.855433
146.286702	5421.175000	370.883789	100.006653
146.286702	5421.175000	369.602539	-111.865784
146.286702	5421.175000	368.320313	-171.891357
146.286702	5421.175000	367.039063	-42.182392
146.286702	5421.175000	365.755859	85.020477
146.286702	5421.175000	364.473633	127.102966
146.286702	5421.175000	363.190430	-45.390797
146.286702	5421.175000	361.907227	-93.027756
146.286702	5421.175000	360.624023	59.983559
146.286702	5421.175000	359.340820	105.597603
146.286702	5421.175000	358.056641	-16.358141
146.286702	5421.175000	356.772461	-29.222305
146.286702	5421.175000	355.487305	-73.554214
146.286702	5421.175000	354.202148	64.678253
146.286702	5421.175000	352.916992	-60.409805
146.286702	5421.175000	351.631836	66.087631
146.286702	5421.175000	350.346680	230.127747
146.286702	5421.175000	349.060547	86.434387
146.286702	5421.175000	347.774414	218.645584
146.286702	5421.175000	346.487305	74.426407
146.286702	5421.175000	345.200195	7.874103
146.286702	5421.175000	343.913086	-70.084953
146.286702	5421.175000	342.625977	76.390053
146.286702	5421.175000	341.338867	-28.881653
146.286702	5421.175000	340.050781	41.243740
146.286702	5421.175000	338.762695	15.392858
146.286702	5421.175000	337.473633	-61.930893
146.286702	5421.175000	336.184570	-19.560101
146.286702	5421.175000	334.895508	2.433253
146.286702	5421.175000	333.606445	84.028831
146.286702	5421.175000	332.317383	71.928825
146.286702	5421.175000	331.027344	130.495514
146.286702	5421.175000	329.736328	-73.336151
146.286702	5421.175000	328.446289	39.929852
146.286702	5421.175000	327.155273	50.645737
146.286702	5421.175000	325.864258	-156.485687
146.286702	5421.175000	324.573242	-53.417751
146.286702	5421.175000	323.281250	31.413261
146.286702	5421.175000	321.989258	-12.834228
146.286702	5421.175000	320.697266	-152.834671
146.286702	5421.175000	319.405273	-89.350517
146.286702	5421.175000	318.112305	-13.088522
146.286702	5421.175000	316.819336	-145.575027
146.286702	5421.175000	315.526367	24.920250
146.286702	5421.175000	314.232422	-28.818291
146.286702	5421.175000	312.938477	-65.337837
146.286702	5421.175000	311.644531	61.416172
146.286702	5421.175000	310.349609	-164.271530
146.286702	5421.175000	309.054688	-80.684258
146.286702	5421.175000	307.759766	-68.468575
146.286702	5421.175000	306.464844	53.741478
146.286702	5421.175000	305.168945	80.233261
146.286702	5421.175000	303.873047	95.070656
146.286702	5421.175000	302.577148	177.807159
146.286702	5421.175000	301.281250	69.884323
146.286702	5421.175000	299.984375	255.151489
