#X		#Y		#Wave		#Intensity
625.897872	5991.636667	1999.946289	-113.149742
625.897872	5991.636667	1998.981445	27.291754
625.897872	5991.636667	1998.017578	94.168571
625.897872	5991.636667	1997.052734	158.494324
625.897872	5991.636667	1996.088867	22.057573
625.897872	5991.636667	1995.124023	-119.328529
625.897872	5991.636667	1994.159180	51.361431
625.897872	5991.636667	1993.193359	18.892000
625.897872	5991.636667	1992.228516	45.810776
625.897872	5991.636667	1991.262695	55.352268
625.897872	5991.636667	1990.296875	45.052689
625.897872	5991.636667	1989.331055	212.877258
625.897872	5991.636667	1988.365234	209.899582
625.897872	5991.636667	1987.398438	70.844719
625.897872	5991.636667	1986.432617	-45.935776
625.897872	5991.636667	1985.465820	7.904277
625.897872	5991.636667	1984.499023	81.469475
625.897872	5991.636667	1983.532227	4.204344
625.897872	5991.636667	1982.565430	141.935226
625.897872	5991.636667	1981.597656	-21.845634
625.897872	5991.636667	1980.629883	-5.260184
625.897872	5991.636667	1979.662109	-25.755619
625.897872	5991.636667	1978.694336	-24.044781
625.897872	5991.636667	1977.726563	49.241486
625.897872	5991.636667	1976.758789	-146.587265
625.897872	5991.636667	1975.790039	-33.862335
625.897872	5991.636667	1974.821289	-32.241829
625.897872	5991.636667	1973.852539	-116.990494
625.897872	5991.636667	1972.883789	30.136679
625.897872	5991.636667	1971.915039	31.685427
625.897872	5991.636667	1970.945313	18.421875
625.897872	5991.636667	1969.975586	103.756256
625.897872	5991.636667	1969.005859	149.605331
625.897872	5991.636667	1968.036133	62.346786
625.897872	5991.636667	1967.066406	-22.430782
625.897872	5991.636667	1966.096680	-6.191542
625.897872	5991.636667	1965.125977	46.973938
625.897872	5991.636667	1964.155273	8.992450
625.897872	5991.636667	1963.184570	44.874367
625.897872	5991.636667	1962.213867	169.348785
625.897872	5991.636667	1961.242188	-50.795109
625.897872	5991.636667	1960.271484	-123.227760
625.897872	5991.636667	1959.299805	-114.455429
625.897872	5991.636667	1958.328125	-142.592392
625.897872	5991.636667	1957.356445	35.853043
625.897872	5991.636667	1956.384766	145.375473
625.897872	5991.636667	1955.412109	158.970917
625.897872	5991.636667	1954.439453	93.898094
625.897872	5991.636667	1953.467773	-49.798122
625.897872	5991.636667	1952.495117	-43.568584
625.897872	5991.636667	1951.521484	129.698364
625.897872	5991.636667	1950.548828	76.930901
625.897872	5991.636667	1949.575195	137.137054
625.897872	5991.636667	1948.601563	-16.287807
625.897872	5991.636667	1947.627930	-22.376596
625.897872	5991.636667	1946.654297	-126.640762
625.897872	5991.636667	1945.680664	-7.573209
625.897872	5991.636667	1944.706055	187.500519
625.897872	5991.636667	1943.732422	161.733154
625.897872	5991.636667	1942.757813	18.252668
625.897872	5991.636667	1941.783203	39.105705
625.897872	5991.636667	1940.807617	40.333839
625.897872	5991.636667	1939.833008	164.112244
625.897872	5991.636667	1938.857422	-6.235915
625.897872	5991.636667	1937.881836	247.356491
625.897872	5991.636667	1936.906250	108.894463
625.897872	5991.636667	1935.930664	-105.447105
625.897872	5991.636667	1934.955078	-79.729637
625.897872	5991.636667	1933.978516	70.842201
625.897872	5991.636667	1933.001953	45.105030
625.897872	5991.636667	1932.025391	53.637997
625.897872	5991.636667	1931.048828	211.430389
625.897872	5991.636667	1930.072266	-0.265828
625.897872	5991.636667	1929.094727	-148.289154
625.897872	5991.636667	1928.118164	163.516922
625.897872	5991.636667	1927.140625	-35.837139
625.897872	5991.636667	1926.163086	55.800621
625.897872	5991.636667	1925.184570	100.959785
625.897872	5991.636667	1924.207031	31.239269
625.897872	5991.636667	1923.228516	-23.797844
625.897872	5991.636667	1922.250000	87.297264
625.897872	5991.636667	1921.271484	-16.586803
625.897872	5991.636667	1920.292969	18.756886
625.897872	5991.636667	1919.314453	137.094833
625.897872	5991.636667	1918.334961	33.247555
625.897872	5991.636667	1917.355469	144.208755
625.897872	5991.636667	1916.375977	-27.934786
625.897872	5991.636667	1915.396484	58.590244
625.897872	5991.636667	1914.416992	23.115732
625.897872	5991.636667	1913.436523	109.589066
625.897872	5991.636667	1912.457031	-62.437740
625.897872	5991.636667	1911.476563	72.766167
625.897872	5991.636667	1910.496094	-101.637558
625.897872	5991.636667	1909.515625	-149.259460
625.897872	5991.636667	1908.534180	10.233554
625.897872	5991.636667	1907.552734	8.881042
625.897872	5991.636667	1906.572266	75.720650
625.897872	5991.636667	1905.590820	67.038780
625.897872	5991.636667	1904.608398	-148.595444
625.897872	5991.636667	1903.626953	81.309448
625.897872	5991.636667	1902.644531	-17.438681
625.897872	5991.636667	1901.663086	49.307922
625.897872	5991.636667	1900.680664	64.933235
625.897872	5991.636667	1899.698242	-48.374737
625.897872	5991.636667	1898.714844	-64.368973
625.897872	5991.636667	1897.732422	-39.030590
625.897872	5991.636667	1896.749023	132.153214
625.897872	5991.636667	1895.765625	21.314812
625.897872	5991.636667	1894.782227	-16.587099
625.897872	5991.636667	1893.798828	96.156204
625.897872	5991.636667	1892.814453	55.805309
625.897872	5991.636667	1891.831055	17.888960
625.897872	5991.636667	1890.846680	-163.295013
625.897872	5991.636667	1889.862305	12.475611
625.897872	5991.636667	1888.877930	-30.298473
625.897872	5991.636667	1887.892578	4.595409
625.897872	5991.636667	1886.908203	160.789597
625.897872	5991.636667	1885.922852	3.952888
625.897872	5991.636667	1884.937500	58.189388
625.897872	5991.636667	1883.952148	78.441177
625.897872	5991.636667	1882.965820	38.055622
625.897872	5991.636667	1881.980469	184.338989
625.897872	5991.636667	1880.994141	-1.505857
625.897872	5991.636667	1880.007813	-20.083763
625.897872	5991.636667	1879.021484	-7.172385
625.897872	5991.636667	1878.035156	129.264099
625.897872	5991.636667	1877.047852	-56.487595
625.897872	5991.636667	1876.061523	72.611397
625.897872	5991.636667	1875.074219	-74.353455
625.897872	5991.636667	1874.086914	-25.210526
625.897872	5991.636667	1873.098633	-36.604797
625.897872	5991.636667	1872.111328	-21.395750
625.897872	5991.636667	1871.123047	-117.494110
625.897872	5991.636667	1870.135742	37.980938
625.897872	5991.636667	1869.147461	142.595154
625.897872	5991.636667	1868.158203	63.392120
625.897872	5991.636667	1867.169922	117.159973
625.897872	5991.636667	1866.180664	-102.228981
625.897872	5991.636667	1865.192383	301.907990
625.897872	5991.636667	1864.203125	196.083771
625.897872	5991.636667	1863.213867	-28.085541
625.897872	5991.636667	1862.223633	-92.790016
625.897872	5991.636667	1861.234375	9.124909
625.897872	5991.636667	1860.244141	-135.274338
625.897872	5991.636667	1859.253906	-57.568821
625.897872	5991.636667	1858.263672	51.458912
625.897872	5991.636667	1857.273438	-150.839890
625.897872	5991.636667	1856.282227	69.093575
625.897872	5991.636667	1855.291992	95.962982
625.897872	5991.636667	1854.300781	142.092316
625.897872	5991.636667	1853.309570	41.104740
625.897872	5991.636667	1852.317383	255.924240
625.897872	5991.636667	1851.326172	7.885493
625.897872	5991.636667	1850.333984	70.770348
625.897872	5991.636667	1849.342773	107.105957
625.897872	5991.636667	1848.350586	47.050060
625.897872	5991.636667	1847.357422	157.985092
625.897872	5991.636667	1846.365234	-56.213978
625.897872	5991.636667	1845.372070	-60.909092
625.897872	5991.636667	1844.379883	271.352966
625.897872	5991.636667	1843.386719	160.657379
625.897872	5991.636667	1842.393555	254.495804
625.897872	5991.636667	1841.399414	45.159138
625.897872	5991.636667	1840.406250	59.558804
625.897872	5991.636667	1839.412109	97.972221
625.897872	5991.636667	1838.417969	57.002441
625.897872	5991.636667	1837.423828	-56.095928
625.897872	5991.636667	1836.429688	-20.168867
625.897872	5991.636667	1835.434570	-37.150200
625.897872	5991.636667	1834.440430	-44.542233
625.897872	5991.636667	1833.445313	36.913593
625.897872	5991.636667	1832.450195	72.678909
625.897872	5991.636667	1831.454102	-110.101120
625.897872	5991.636667	1830.458984	84.063637
625.897872	5991.636667	1829.462891	122.110229
625.897872	5991.636667	1828.466797	-17.471268
625.897872	5991.636667	1827.470703	154.880432
625.897872	5991.636667	1826.474609	118.434631
625.897872	5991.636667	1825.478516	91.566086
625.897872	5991.636667	1824.481445	-98.386841
625.897872	5991.636667	1823.484375	-50.946609
625.897872	5991.636667	1822.487305	37.194180
625.897872	5991.636667	1821.490234	72.544098
625.897872	5991.636667	1820.493164	59.925198
625.897872	5991.636667	1819.495117	145.500900
625.897872	5991.636667	1818.498047	111.250366
625.897872	5991.636667	1817.500000	-11.628292
625.897872	5991.636667	1816.500977	6.769910
625.897872	5991.636667	1815.502930	89.764175
625.897872	5991.636667	1814.504883	182.267883
625.897872	5991.636667	1813.505859	-50.745171
625.897872	5991.636667	1812.506836	-104.264824
625.897872	5991.636667	1811.507813	251.248779
625.897872	5991.636667	1810.508789	101.958580
625.897872	5991.636667	1809.508789	86.594109
625.897872	5991.636667	1808.508789	228.989883
625.897872	5991.636667	1807.508789	-23.100319
625.897872	5991.636667	1806.508789	-191.485260
625.897872	5991.636667	1805.508789	-73.118202
625.897872	5991.636667	1804.508789	262.561279
625.897872	5991.636667	1803.507813	127.547173
625.897872	5991.636667	1802.506836	-255.805222
625.897872	5991.636667	1801.505859	-8.731406
625.897872	5991.636667	1800.504883	-110.306679
625.897872	5991.636667	1799.502930	112.706024
625.897872	5991.636667	1798.501953	54.025551
625.897872	5991.636667	1797.500000	114.617355
625.897872	5991.636667	1796.498047	-208.885727
625.897872	5991.636667	1795.496094	-33.866623
625.897872	5991.636667	1794.493164	138.661621
625.897872	5991.636667	1793.491211	67.926018
625.897872	5991.636667	1792.488281	56.765728
625.897872	5991.636667	1791.485352	2.678035
625.897872	5991.636667	1790.482422	53.407990
625.897872	5991.636667	1789.478516	239.860352
625.897872	5991.636667	1788.475586	76.098442
625.897872	5991.636667	1787.471680	-4.297691
625.897872	5991.636667	1786.467773	-82.320786
625.897872	5991.636667	1785.463867	-15.150577
625.897872	5991.636667	1784.459961	9.117204
625.897872	5991.636667	1783.455078	11.921304
625.897872	5991.636667	1782.450195	-63.819729
625.897872	5991.636667	1781.445313	-23.022900
625.897872	5991.636667	1780.440430	-6.059320
625.897872	5991.636667	1779.435547	-43.826454
625.897872	5991.636667	1778.429688	82.406288
625.897872	5991.636667	1777.424805	68.328079
625.897872	5991.636667	1776.418945	-47.965160
625.897872	5991.636667	1775.413086	101.839943
625.897872	5991.636667	1774.406250	97.148674
625.897872	5991.636667	1773.400391	-9.699122
625.897872	5991.636667	1772.393555	47.291649
625.897872	5991.636667	1771.386719	-21.600641
625.897872	5991.636667	1770.379883	-7.429667
625.897872	5991.636667	1769.373047	18.564388
625.897872	5991.636667	1768.365234	260.419434
625.897872	5991.636667	1767.358398	105.987511
625.897872	5991.636667	1766.350586	93.878540
625.897872	5991.636667	1765.342773	233.501022
625.897872	5991.636667	1764.334961	24.515188
625.897872	5991.636667	1763.326172	24.163879
625.897872	5991.636667	1762.318359	0.078807
625.897872	5991.636667	1761.309570	-156.731979
625.897872	5991.636667	1760.300781	-266.138123
625.897872	5991.636667	1759.291016	41.332615
625.897872	5991.636667	1758.282227	-56.304951
625.897872	5991.636667	1757.272461	35.471615
625.897872	5991.636667	1756.262695	-142.692505
625.897872	5991.636667	1755.252930	114.668648
625.897872	5991.636667	1754.243164	26.404789
625.897872	5991.636667	1753.233398	-168.328659
625.897872	5991.636667	1752.222656	86.409050
625.897872	5991.636667	1751.211914	-1.913447
625.897872	5991.636667	1750.201172	94.197166
625.897872	5991.636667	1749.190430	-36.720875
625.897872	5991.636667	1748.179688	-37.623470
625.897872	5991.636667	1747.167969	13.425124
625.897872	5991.636667	1746.156250	151.839035
625.897872	5991.636667	1745.144531	25.586227
625.897872	5991.636667	1744.132813	57.589714
625.897872	5991.636667	1743.121094	25.788157
625.897872	5991.636667	1742.108398	-117.006859
625.897872	5991.636667	1741.095703	-7.207185
625.897872	5991.636667	1740.083008	178.036011
625.897872	5991.636667	1739.070313	28.109648
625.897872	5991.636667	1738.057617	118.840111
625.897872	5991.636667	1737.043945	-87.700417
625.897872	5991.636667	1736.030273	-25.356213
625.897872	5991.636667	1735.016602	133.601456
625.897872	5991.636667	1734.002930	136.877914
625.897872	5991.636667	1732.989258	-57.860622
625.897872	5991.636667	1731.974609	-38.125076
625.897872	5991.636667	1730.959961	115.862511
625.897872	5991.636667	1729.945313	192.023285
625.897872	5991.636667	1728.930664	-89.853439
625.897872	5991.636667	1727.916016	-126.771317
625.897872	5991.636667	1726.900391	45.813274
625.897872	5991.636667	1725.885742	-52.379509
625.897872	5991.636667	1724.870117	-4.665048
625.897872	5991.636667	1723.853516	-81.707222
625.897872	5991.636667	1722.837891	12.978962
625.897872	5991.636667	1721.822266	138.173416
625.897872	5991.636667	1720.805664	2.267280
625.897872	5991.636667	1719.789063	94.434387
625.897872	5991.636667	1718.772461	50.200428
625.897872	5991.636667	1717.754883	36.500416
625.897872	5991.636667	1716.738281	-5.415658
625.897872	5991.636667	1715.720703	-23.857775
625.897872	5991.636667	1714.703125	-105.739822
625.897872	5991.636667	1713.685547	-2.098602
625.897872	5991.636667	1712.667969	-37.052925
625.897872	5991.636667	1711.649414	-102.544868
625.897872	5991.636667	1710.630859	-34.259682
625.897872	5991.636667	1709.612305	94.981674
625.897872	5991.636667	1708.593750	69.303566
625.897872	5991.636667	1707.575195	-73.675514
625.897872	5991.636667	1706.555664	-19.634056
625.897872	5991.636667	1705.536133	3.878566
625.897872	5991.636667	1704.516602	-14.842373
625.897872	5991.636667	1703.497070	-155.461563
625.897872	5991.636667	1702.477539	170.285049
625.897872	5991.636667	1701.457031	-117.978432
625.897872	5991.636667	1700.437500	-68.829269
625.897872	5991.636667	1699.416992	-101.701202
625.897872	5991.636667	1698.395508	-59.658379
625.897872	5991.636667	1697.375000	54.926147
625.897872	5991.636667	1696.354492	82.836655
625.897872	5991.636667	1695.333008	89.645416
625.897872	5991.636667	1694.311523	14.536749
625.897872	5991.636667	1693.290039	105.527641
625.897872	5991.636667	1692.267578	-49.128033
625.897872	5991.636667	1691.246094	125.982079
625.897872	5991.636667	1690.223633	193.449326
625.897872	5991.636667	1689.201172	167.368271
625.897872	5991.636667	1688.178711	61.814503
625.897872	5991.636667	1687.155273	84.791855
625.897872	5991.636667	1686.132813	191.850540
625.897872	5991.636667	1685.109375	51.252655
625.897872	5991.636667	1684.085938	267.992279
625.897872	5991.636667	1683.062500	78.364754
625.897872	5991.636667	1682.039063	-36.507423
625.897872	5991.636667	1681.014648	37.692959
625.897872	5991.636667	1679.990234	188.854584
625.897872	5991.636667	1678.965820	80.969093
625.897872	5991.636667	1677.941406	176.047668
625.897872	5991.636667	1676.916992	359.696228
625.897872	5991.636667	1675.891602	209.816849
625.897872	5991.636667	1674.866211	143.905762
625.897872	5991.636667	1673.840820	217.854996
625.897872	5991.636667	1672.815430	396.627899
625.897872	5991.636667	1671.790039	384.264923
625.897872	5991.636667	1670.763672	190.188705
625.897872	5991.636667	1669.737305	61.386677
625.897872	5991.636667	1668.710938	79.322205
625.897872	5991.636667	1667.684570	337.036743
625.897872	5991.636667	1666.658203	222.211426
625.897872	5991.636667	1665.630859	156.285400
625.897872	5991.636667	1664.603516	283.496216
625.897872	5991.636667	1663.576172	226.868698
625.897872	5991.636667	1662.548828	195.836960
625.897872	5991.636667	1661.520508	378.742462
625.897872	5991.636667	1660.493164	391.850891
625.897872	5991.636667	1659.464844	267.792023
625.897872	5991.636667	1658.436523	332.024139
625.897872	5991.636667	1657.408203	173.156097
625.897872	5991.636667	1656.378906	293.118256
625.897872	5991.636667	1655.350586	445.551300
625.897872	5991.636667	1654.321289	356.396576
625.897872	5991.636667	1653.291992	420.510773
625.897872	5991.636667	1652.261719	403.341797
625.897872	5991.636667	1651.232422	212.110519
625.897872	5991.636667	1650.202148	269.235718
625.897872	5991.636667	1649.171875	324.014557
625.897872	5991.636667	1648.141602	432.119446
625.897872	5991.636667	1647.111328	375.521515
625.897872	5991.636667	1646.080078	465.014435
625.897872	5991.636667	1645.049805	647.206726
625.897872	5991.636667	1644.018555	595.224182
625.897872	5991.636667	1642.987305	605.829895
625.897872	5991.636667	1641.955078	424.123108
625.897872	5991.636667	1640.923828	444.022919
625.897872	5991.636667	1639.891602	547.287048
625.897872	5991.636667	1638.859375	530.103210
625.897872	5991.636667	1637.827148	554.598938
625.897872	5991.636667	1636.794922	470.299072
625.897872	5991.636667	1635.761719	392.971924
625.897872	5991.636667	1634.729492	625.726990
625.897872	5991.636667	1633.696289	608.551453
625.897872	5991.636667	1632.662109	468.801270
625.897872	5991.636667	1631.628906	638.977539
625.897872	5991.636667	1630.594727	501.596741
625.897872	5991.636667	1629.561523	463.675598
625.897872	5991.636667	1628.527344	571.366394
625.897872	5991.636667	1627.493164	685.953613
625.897872	5991.636667	1626.458008	611.064941
625.897872	5991.636667	1625.423828	720.995239
625.897872	5991.636667	1624.388672	699.258240
625.897872	5991.636667	1623.353516	709.861023
625.897872	5991.636667	1622.318359	868.204529
625.897872	5991.636667	1621.282227	920.326599
625.897872	5991.636667	1620.247070	829.380432
625.897872	5991.636667	1619.210938	863.053650
625.897872	5991.636667	1618.174805	917.484253
625.897872	5991.636667	1617.137695	895.797974
625.897872	5991.636667	1616.101563	977.893005
625.897872	5991.636667	1615.064453	970.059753
625.897872	5991.636667	1614.027344	976.070740
625.897872	5991.636667	1612.990234	1065.049561
625.897872	5991.636667	1611.953125	1128.664551
625.897872	5991.636667	1610.916016	904.340027
625.897872	5991.636667	1609.877930	986.410034
625.897872	5991.636667	1608.839844	1158.262329
625.897872	5991.636667	1607.801758	1118.271362
625.897872	5991.636667	1606.763672	1073.710083
625.897872	5991.636667	1605.724609	1250.091187
625.897872	5991.636667	1604.685547	1129.625732
625.897872	5991.636667	1603.646484	1119.640137
625.897872	5991.636667	1602.607422	1197.069702
625.897872	5991.636667	1601.568359	1081.340454
625.897872	5991.636667	1600.528320	823.135315
625.897872	5991.636667	1599.489258	983.382141
625.897872	5991.636667	1598.449219	1014.891296
625.897872	5991.636667	1597.408203	986.666260
625.897872	5991.636667	1596.368164	1066.445313
625.897872	5991.636667	1595.327148	1029.078125
625.897872	5991.636667	1594.287109	828.718811
625.897872	5991.636667	1593.246094	869.515015
625.897872	5991.636667	1592.204102	999.833374
625.897872	5991.636667	1591.163086	1107.179565
625.897872	5991.636667	1590.121094	780.850708
625.897872	5991.636667	1589.079102	768.953796
625.897872	5991.636667	1588.037109	938.278381
625.897872	5991.636667	1586.995117	628.302429
625.897872	5991.636667	1585.953125	770.127930
625.897872	5991.636667	1584.910156	845.445862
625.897872	5991.636667	1583.867188	1007.848450
625.897872	5991.636667	1582.824219	963.996277
625.897872	5991.636667	1581.781250	755.247253
625.897872	5991.636667	1580.737305	956.588257
625.897872	5991.636667	1579.693359	773.165100
625.897872	5991.636667	1578.649414	798.189270
625.897872	5991.636667	1577.605469	917.085876
625.897872	5991.636667	1576.561523	768.197205
625.897872	5991.636667	1575.516602	825.328674
625.897872	5991.636667	1574.472656	669.715515
625.897872	5991.636667	1573.427734	811.536438
625.897872	5991.636667	1572.381836	676.622192
625.897872	5991.636667	1571.336914	733.855042
625.897872	5991.636667	1570.291016	695.084961
625.897872	5991.636667	1569.246094	738.645447
625.897872	5991.636667	1568.200195	688.531067
625.897872	5991.636667	1567.153320	800.672974
625.897872	5991.636667	1566.107422	746.067505
625.897872	5991.636667	1565.060547	689.230896
625.897872	5991.636667	1564.013672	703.232361
625.897872	5991.636667	1562.966797	680.740173
625.897872	5991.636667	1561.919922	856.857300
625.897872	5991.636667	1560.872070	759.110352
625.897872	5991.636667	1559.825195	796.048950
625.897872	5991.636667	1558.777344	890.031494
625.897872	5991.636667	1557.729492	678.420837
625.897872	5991.636667	1556.680664	685.817993
625.897872	5991.636667	1555.632813	704.653992
625.897872	5991.636667	1554.583984	661.979126
625.897872	5991.636667	1553.535156	751.528992
625.897872	5991.636667	1552.486328	670.210327
625.897872	5991.636667	1551.436523	602.627136
625.897872	5991.636667	1550.387695	594.329224
625.897872	5991.636667	1549.337891	647.549805
625.897872	5991.636667	1548.288086	648.430664
625.897872	5991.636667	1547.238281	626.593201
625.897872	5991.636667	1546.187500	588.873108
625.897872	5991.636667	1545.136719	685.447266
625.897872	5991.636667	1544.086914	499.962860
625.897872	5991.636667	1543.035156	435.125854
625.897872	5991.636667	1541.984375	443.123596
625.897872	5991.636667	1540.933594	637.580933
625.897872	5991.636667	1539.881836	531.974365
625.897872	5991.636667	1538.830078	410.547821
625.897872	5991.636667	1537.778320	498.242065
625.897872	5991.636667	1536.725586	456.463440
625.897872	5991.636667	1535.673828	405.665802
625.897872	5991.636667	1534.621094	320.871582
625.897872	5991.636667	1533.568359	238.427002
625.897872	5991.636667	1532.515625	287.711243
625.897872	5991.636667	1531.461914	393.754883
625.897872	5991.636667	1530.409180	236.612900
625.897872	5991.636667	1529.355469	188.465378
625.897872	5991.636667	1528.301758	108.631897
625.897872	5991.636667	1527.247070	230.690109
625.897872	5991.636667	1526.193359	178.183823
625.897872	5991.636667	1525.138672	139.344269
625.897872	5991.636667	1524.083984	55.245716
625.897872	5991.636667	1523.029297	138.898178
625.897872	5991.636667	1521.974609	227.097839
625.897872	5991.636667	1520.918945	57.114948
625.897872	5991.636667	1519.863281	50.288239
625.897872	5991.636667	1518.807617	23.140406
625.897872	5991.636667	1517.751953	181.663879
625.897872	5991.636667	1516.696289	91.237793
625.897872	5991.636667	1515.639648	5.421735
625.897872	5991.636667	1514.583008	-55.423397
625.897872	5991.636667	1513.526367	-104.884300
625.897872	5991.636667	1512.469727	-36.685356
625.897872	5991.636667	1511.412109	49.624798
625.897872	5991.636667	1510.355469	-56.177174
625.897872	5991.636667	1509.297852	-62.449455
625.897872	5991.636667	1508.240234	30.753496
625.897872	5991.636667	1507.181641	49.423264
625.897872	5991.636667	1506.124023	158.485504
625.897872	5991.636667	1505.065430	260.781647
625.897872	5991.636667	1504.006836	69.591011
625.897872	5991.636667	1502.948242	131.344406
625.897872	5991.636667	1501.888672	73.515121
625.897872	5991.636667	1500.830078	223.351517
625.897872	5991.636667	1499.770508	136.310745
625.897872	5991.636667	1498.710938	53.872025
625.897872	5991.636667	1497.650391	82.016632
625.897872	5991.636667	1496.590820	40.314758
625.897872	5991.636667	1495.530273	34.751305
625.897872	5991.636667	1494.469727	-90.197670
625.897872	5991.636667	1493.409180	19.294134
625.897872	5991.636667	1492.348633	-109.994820
625.897872	5991.636667	1491.287109	-99.531197
625.897872	5991.636667	1490.225586	84.380539
625.897872	5991.636667	1489.164063	-46.924519
625.897872	5991.636667	1488.102539	-238.897430
625.897872	5991.636667	1487.041016	-66.147469
625.897872	5991.636667	1485.978516	-17.164473
625.897872	5991.636667	1484.916016	-64.895782
625.897872	5991.636667	1483.853516	49.426285
625.897872	5991.636667	1482.791016	-139.834900
625.897872	5991.636667	1481.727539	24.015587
625.897872	5991.636667	1480.664063	-156.052841
625.897872	5991.636667	1479.600586	-3.395552
625.897872	5991.636667	1478.537109	-12.519322
625.897872	5991.636667	1477.473633	25.619867
625.897872	5991.636667	1476.409180	-44.003521
625.897872	5991.636667	1475.344727	-266.204529
625.897872	5991.636667	1474.280273	-46.017288
625.897872	5991.636667	1473.215820	32.673492
625.897872	5991.636667	1472.151367	41.791691
625.897872	5991.636667	1471.085938	-5.001457
625.897872	5991.636667	1470.020508	-35.848446
625.897872	5991.636667	1468.955078	110.118927
625.897872	5991.636667	1467.888672	110.523956
625.897872	5991.636667	1466.823242	151.441467
625.897872	5991.636667	1465.756836	172.087814
625.897872	5991.636667	1464.690430	275.883667
625.897872	5991.636667	1463.624023	-48.037159
625.897872	5991.636667	1462.556641	212.319977
625.897872	5991.636667	1461.490234	81.155304
625.897872	5991.636667	1460.422852	111.615379
625.897872	5991.636667	1459.355469	246.180176
625.897872	5991.636667	1458.287109	155.283966
625.897872	5991.636667	1457.219727	317.402924
625.897872	5991.636667	1456.151367	376.272858
625.897872	5991.636667	1455.083008	165.597153
625.897872	5991.636667	1454.014648	258.423615
625.897872	5991.636667	1452.945313	295.452423
625.897872	5991.636667	1451.876953	313.629852
625.897872	5991.636667	1450.807617	207.216675
625.897872	5991.636667	1449.738281	409.771423
625.897872	5991.636667	1448.668945	213.573364
625.897872	5991.636667	1447.598633	319.142242
625.897872	5991.636667	1446.528320	172.257095
625.897872	5991.636667	1445.458008	251.623917
625.897872	5991.636667	1444.387695	174.363739
625.897872	5991.636667	1443.317383	196.079010
625.897872	5991.636667	1442.246094	145.564194
625.897872	5991.636667	1441.174805	389.135101
625.897872	5991.636667	1440.103516	378.117859
625.897872	5991.636667	1439.032227	327.400024
625.897872	5991.636667	1437.960938	338.982513
625.897872	5991.636667	1436.888672	415.658051
625.897872	5991.636667	1435.816406	417.454071
625.897872	5991.636667	1434.744141	518.098083
625.897872	5991.636667	1433.670898	469.624084
625.897872	5991.636667	1432.598633	336.667755
625.897872	5991.636667	1431.525391	310.734894
625.897872	5991.636667	1430.452148	239.168182
625.897872	5991.636667	1429.378906	256.599243
625.897872	5991.636667	1428.304688	173.316391
625.897872	5991.636667	1427.231445	105.620636
625.897872	5991.636667	1426.157227	150.835754
625.897872	5991.636667	1425.083008	-12.017215
625.897872	5991.636667	1424.007813	213.585526
625.897872	5991.636667	1422.933594	311.079315
625.897872	5991.636667	1421.858398	259.027649
625.897872	5991.636667	1420.783203	294.928772
625.897872	5991.636667	1419.708008	205.747437
625.897872	5991.636667	1418.631836	107.960785
625.897872	5991.636667	1417.555664	172.252502
625.897872	5991.636667	1416.479492	320.069702
625.897872	5991.636667	1415.403320	240.298889
625.897872	5991.636667	1414.327148	247.314865
625.897872	5991.636667	1413.250000	294.041351
625.897872	5991.636667	1412.173828	189.900894
625.897872	5991.636667	1411.096680	135.214767
625.897872	5991.636667	1410.018555	222.859879
625.897872	5991.636667	1408.941406	246.323883
625.897872	5991.636667	1407.863281	181.622696
625.897872	5991.636667	1406.785156	202.727539
625.897872	5991.636667	1405.707031	205.191910
625.897872	5991.636667	1404.628906	430.831970
625.897872	5991.636667	1403.549805	363.014252
625.897872	5991.636667	1402.470703	308.122833
625.897872	5991.636667	1401.391602	250.509995
625.897872	5991.636667	1400.312500	386.244843
625.897872	5991.636667	1399.233398	367.404297
625.897872	5991.636667	1398.153320	297.402924
625.897872	5991.636667	1397.073242	392.688019
625.897872	5991.636667	1395.993164	383.215393
625.897872	5991.636667	1394.913086	460.874390
625.897872	5991.636667	1393.832031	266.630646
625.897872	5991.636667	1392.750977	301.367676
625.897872	5991.636667	1391.669922	318.848938
625.897872	5991.636667	1390.588867	510.303650
625.897872	5991.636667	1389.506836	271.131073
625.897872	5991.636667	1388.425781	321.036713
625.897872	5991.636667	1387.343750	306.559753
625.897872	5991.636667	1386.261719	481.775848
625.897872	5991.636667	1385.178711	453.889191
625.897872	5991.636667	1384.096680	568.998413
625.897872	5991.636667	1383.013672	454.518036
625.897872	5991.636667	1381.930664	393.869263
625.897872	5991.636667	1380.846680	264.656830
625.897872	5991.636667	1379.763672	355.128418
625.897872	5991.636667	1378.679688	322.587555
625.897872	5991.636667	1377.595703	334.642761
625.897872	5991.636667	1376.511719	292.715576
625.897872	5991.636667	1375.427734	291.256836
625.897872	5991.636667	1374.342773	322.642090
625.897872	5991.636667	1373.257813	278.117279
625.897872	5991.636667	1372.172852	-44.436085
625.897872	5991.636667	1371.087891	355.454346
625.897872	5991.636667	1370.001953	315.639771
625.897872	5991.636667	1368.916992	316.272247
625.897872	5991.636667	1367.831055	138.042847
625.897872	5991.636667	1366.744141	302.103729
625.897872	5991.636667	1365.658203	75.878143
625.897872	5991.636667	1364.571289	161.693161
625.897872	5991.636667	1363.484375	163.977997
625.897872	5991.636667	1362.397461	337.389526
625.897872	5991.636667	1361.310547	274.284760
625.897872	5991.636667	1360.222656	236.271179
625.897872	5991.636667	1359.135742	366.712921
625.897872	5991.636667	1358.047852	277.795929
625.897872	5991.636667	1356.958984	327.097137
625.897872	5991.636667	1355.871094	278.808563
625.897872	5991.636667	1354.782227	438.930847
625.897872	5991.636667	1353.693359	222.616409
625.897872	5991.636667	1352.604492	225.384430
625.897872	5991.636667	1351.515625	260.331207
625.897872	5991.636667	1350.425781	137.830078
625.897872	5991.636667	1349.335938	389.911285
625.897872	5991.636667	1348.246094	256.441620
625.897872	5991.636667	1347.156250	261.447052
625.897872	5991.636667	1346.066406	379.925262
625.897872	5991.636667	1344.975586	117.218468
625.897872	5991.636667	1343.884766	259.974915
625.897872	5991.636667	1342.793945	365.971527
625.897872	5991.636667	1341.702148	251.527237
625.897872	5991.636667	1340.611328	286.023499
625.897872	5991.636667	1339.519531	454.799774
625.897872	5991.636667	1338.427734	253.577362
625.897872	5991.636667	1337.334961	537.640137
625.897872	5991.636667	1336.243164	524.404419
625.897872	5991.636667	1335.150391	455.225647
625.897872	5991.636667	1334.057617	663.235962
625.897872	5991.636667	1332.964844	773.313904
625.897872	5991.636667	1331.871094	809.623474
625.897872	5991.636667	1330.778320	929.644958
625.897872	5991.636667	1329.684570	957.121887
625.897872	5991.636667	1328.590820	1004.826904
625.897872	5991.636667	1327.496094	1072.569580
625.897872	5991.636667	1326.402344	790.116272
625.897872	5991.636667	1325.307617	931.187073
625.897872	5991.636667	1324.212891	834.241150
625.897872	5991.636667	1323.117188	885.025635
625.897872	5991.636667	1322.022461	717.614258
625.897872	5991.636667	1320.926758	731.665955
625.897872	5991.636667	1319.831055	737.631775
625.897872	5991.636667	1318.735352	796.277954
625.897872	5991.636667	1317.638672	797.209229
625.897872	5991.636667	1316.542969	742.939453
625.897872	5991.636667	1315.446289	753.543701
625.897872	5991.636667	1314.349609	700.268982
625.897872	5991.636667	1313.251953	667.793335
625.897872	5991.636667	1312.155273	755.135254
625.897872	5991.636667	1311.057617	588.071350
625.897872	5991.636667	1309.959961	578.022217
625.897872	5991.636667	1308.862305	546.622192
625.897872	5991.636667	1307.763672	483.850159
625.897872	5991.636667	1306.665039	483.250824
625.897872	5991.636667	1305.566406	350.409607
625.897872	5991.636667	1304.467773	438.104431
625.897872	5991.636667	1303.369141	343.719574
625.897872	5991.636667	1302.269531	501.119812
625.897872	5991.636667	1301.169922	367.659241
625.897872	5991.636667	1300.070313	357.028809
625.897872	5991.636667	1298.970703	401.182190
625.897872	5991.636667	1297.870117	359.938293
625.897872	5991.636667	1296.769531	523.918701
625.897872	5991.636667	1295.668945	339.397461
625.897872	5991.636667	1294.568359	517.137695
625.897872	5991.636667	1293.466797	517.275818
625.897872	5991.636667	1292.366211	460.086517
625.897872	5991.636667	1291.264648	342.726868
625.897872	5991.636667	1290.162109	355.174988
625.897872	5991.636667	1289.060547	212.059921
625.897872	5991.636667	1287.958008	374.671661
625.897872	5991.636667	1286.855469	238.009521
625.897872	5991.636667	1285.752930	191.619980
625.897872	5991.636667	1284.650391	263.607025
625.897872	5991.636667	1283.546875	202.068176
625.897872	5991.636667	1282.444336	171.101059
625.897872	5991.636667	1281.339844	195.452164
625.897872	5991.636667	1280.236328	264.661194
625.897872	5991.636667	1279.132813	243.421341
625.897872	5991.636667	1278.028320	175.483475
625.897872	5991.636667	1276.923828	280.434723
625.897872	5991.636667	1275.819336	130.236511
625.897872	5991.636667	1274.713867	379.467896
625.897872	5991.636667	1273.608398	305.246246
625.897872	5991.636667	1272.503906	283.430054
625.897872	5991.636667	1271.397461	175.318909
625.897872	5991.636667	1270.291992	271.579132
625.897872	5991.636667	1269.185547	348.780457
625.897872	5991.636667	1268.080078	117.094414
625.897872	5991.636667	1266.972656	204.171249
625.897872	5991.636667	1265.866211	81.966316
625.897872	5991.636667	1264.759766	222.364319
625.897872	5991.636667	1263.652344	232.929733
625.897872	5991.636667	1262.544922	170.690979
625.897872	5991.636667	1261.436523	165.112900
625.897872	5991.636667	1260.329102	215.176590
625.897872	5991.636667	1259.220703	279.013367
625.897872	5991.636667	1258.112305	184.661392
625.897872	5991.636667	1257.003906	280.281403
625.897872	5991.636667	1255.895508	137.143417
625.897872	5991.636667	1254.786133	192.023880
625.897872	5991.636667	1253.676758	132.035141
625.897872	5991.636667	1252.567383	142.941452
625.897872	5991.636667	1251.458008	361.648590
625.897872	5991.636667	1250.347656	225.995514
625.897872	5991.636667	1249.237305	238.246918
625.897872	5991.636667	1248.126953	110.231491
625.897872	5991.636667	1247.016602	235.558167
625.897872	5991.636667	1245.905273	39.958458
625.897872	5991.636667	1244.793945	90.405090
625.897872	5991.636667	1243.682617	36.104679
625.897872	5991.636667	1242.571289	45.150555
625.897872	5991.636667	1241.459961	224.084290
625.897872	5991.636667	1240.347656	46.540707
625.897872	5991.636667	1239.235352	-58.391235
625.897872	5991.636667	1238.123047	56.793907
625.897872	5991.636667	1237.009766	-12.196778
625.897872	5991.636667	1235.897461	-19.599979
625.897872	5991.636667	1234.784180	-79.799950
625.897872	5991.636667	1233.670898	-88.531921
625.897872	5991.636667	1232.556641	80.239296
625.897872	5991.636667	1231.443359	-73.190720
625.897872	5991.636667	1230.329102	19.172672
625.897872	5991.636667	1229.214844	1.480967
625.897872	5991.636667	1228.099609	121.447090
625.897872	5991.636667	1226.985352	84.523888
625.897872	5991.636667	1225.870117	29.938389
625.897872	5991.636667	1224.754883	-100.707687
625.897872	5991.636667	1223.639648	-8.906907
625.897872	5991.636667	1222.523438	-93.530357
625.897872	5991.636667	1221.408203	25.748913
625.897872	5991.636667	1220.291992	-36.857754
625.897872	5991.636667	1219.174805	42.099430
625.897872	5991.636667	1218.058594	-1.222438
625.897872	5991.636667	1216.941406	-95.836678
625.897872	5991.636667	1215.824219	77.033310
625.897872	5991.636667	1214.707031	97.304176
625.897872	5991.636667	1213.589844	14.419870
625.897872	5991.636667	1212.471680	20.997541
625.897872	5991.636667	1211.353516	44.203491
625.897872	5991.636667	1210.235352	17.552996
625.897872	5991.636667	1209.117188	-0.149611
625.897872	5991.636667	1207.998047	87.620972
625.897872	5991.636667	1206.878906	-15.331195
625.897872	5991.636667	1205.759766	29.950575
625.897872	5991.636667	1204.640625	-90.590698
625.897872	5991.636667	1203.520508	-19.027409
625.897872	5991.636667	1202.401367	117.485382
625.897872	5991.636667	1201.281250	11.499506
625.897872	5991.636667	1200.160156	-4.281306
625.897872	5991.636667	1199.040039	244.929382
625.897872	5991.636667	1197.918945	-55.740505
625.897872	5991.636667	1196.797852	-1.536569
625.897872	5991.636667	1195.676758	64.529152
625.897872	5991.636667	1194.555664	-2.649116
625.897872	5991.636667	1193.433594	79.848312
625.897872	5991.636667	1192.311523	15.919453
625.897872	5991.636667	1191.189453	44.840378
625.897872	5991.636667	1190.066406	-81.742706
625.897872	5991.636667	1188.944336	-65.321381
625.897872	5991.636667	1187.821289	-17.610737
625.897872	5991.636667	1186.698242	-10.371843
625.897872	5991.636667	1185.574219	-99.301315
625.897872	5991.636667	1184.451172	-112.569290
625.897872	5991.636667	1183.327148	14.509390
625.897872	5991.636667	1182.203125	-23.202225
625.897872	5991.636667	1181.078125	-132.554123
625.897872	5991.636667	1179.954102	-52.383308
625.897872	5991.636667	1178.829102	-124.188316
625.897872	5991.636667	1177.704102	-121.539619
625.897872	5991.636667	1176.579102	-160.765594
625.897872	5991.636667	1175.453125	-111.051285
625.897872	5991.636667	1174.327148	-217.897751
625.897872	5991.636667	1173.201172	-113.317947
625.897872	5991.636667	1172.075195	-99.760345
625.897872	5991.636667	1170.949219	-90.763283
625.897872	5991.636667	1169.822266	-136.743317
625.897872	5991.636667	1168.695313	-98.821526
625.897872	5991.636667	1167.568359	-83.745201
625.897872	5991.636667	1166.440430	-91.979782
625.897872	5991.636667	1165.313477	-179.507690
625.897872	5991.636667	1164.185547	4.750658
625.897872	5991.636667	1163.057617	-107.186028
625.897872	5991.636667	1161.928711	1.256770
625.897872	5991.636667	1160.800781	-205.935883
625.897872	5991.636667	1159.671875	41.028809
625.897872	5991.636667	1158.541992	-17.230772
625.897872	5991.636667	1157.413086	-53.182056
625.897872	5991.636667	1156.283203	111.668800
625.897872	5991.636667	1155.154297	-217.879410
625.897872	5991.636667	1154.023438	-180.787674
625.897872	5991.636667	1152.893555	-58.298004
625.897872	5991.636667	1151.763672	49.738697
625.897872	5991.636667	1150.632813	-15.044147
625.897872	5991.636667	1149.501953	-39.153393
625.897872	5991.636667	1148.370117	95.342674
625.897872	5991.636667	1147.239258	58.410172
625.897872	5991.636667	1146.107422	-39.168858
625.897872	5991.636667	1144.975586	106.587112
625.897872	5991.636667	1143.843750	-1.271766
625.897872	5991.636667	1142.710938	42.787182
625.897872	5991.636667	1141.578125	12.819304
625.897872	5991.636667	1140.445313	43.168701
625.897872	5991.636667	1139.312500	137.489044
625.897872	5991.636667	1138.178711	124.791443
625.897872	5991.636667	1137.045898	144.214859
625.897872	5991.636667	1135.912109	104.980881
625.897872	5991.636667	1134.777344	65.486748
625.897872	5991.636667	1133.643555	129.540054
625.897872	5991.636667	1132.508789	111.319252
625.897872	5991.636667	1131.374023	54.774975
625.897872	5991.636667	1130.239258	117.315811
625.897872	5991.636667	1129.104492	204.930420
625.897872	5991.636667	1127.968750	242.264481
625.897872	5991.636667	1126.833008	193.796585
625.897872	5991.636667	1125.697266	118.131622
625.897872	5991.636667	1124.560547	195.928879
625.897872	5991.636667	1123.424805	322.201019
625.897872	5991.636667	1122.288086	190.885361
625.897872	5991.636667	1121.151367	193.847336
625.897872	5991.636667	1120.013672	270.218323
625.897872	5991.636667	1118.876953	200.839859
625.897872	5991.636667	1117.739258	179.303787
625.897872	5991.636667	1116.601563	113.645645
625.897872	5991.636667	1115.462891	23.712986
625.897872	5991.636667	1114.324219	288.646362
625.897872	5991.636667	1113.186523	112.348114
625.897872	5991.636667	1112.046875	136.654434
625.897872	5991.636667	1110.908203	112.756416
625.897872	5991.636667	1109.769531	123.387810
625.897872	5991.636667	1108.629883	47.032803
625.897872	5991.636667	1107.490234	-80.932060
625.897872	5991.636667	1106.349609	20.222952
625.897872	5991.636667	1105.209961	162.427444
625.897872	5991.636667	1104.069336	139.692154
625.897872	5991.636667	1102.928711	113.443054
625.897872	5991.636667	1101.787109	104.467400
625.897872	5991.636667	1100.646484	1.752182
625.897872	5991.636667	1099.504883	42.707802
625.897872	5991.636667	1098.363281	79.700333
625.897872	5991.636667	1097.221680	63.854286
625.897872	5991.636667	1096.079102	192.331299
625.897872	5991.636667	1094.936523	174.117157
625.897872	5991.636667	1093.793945	179.764618
625.897872	5991.636667	1092.651367	211.121353
625.897872	5991.636667	1091.507813	213.517365
625.897872	5991.636667	1090.364258	162.280350
625.897872	5991.636667	1089.220703	130.880066
625.897872	5991.636667	1088.077148	145.097809
625.897872	5991.636667	1086.933594	146.699234
625.897872	5991.636667	1085.789063	176.432190
625.897872	5991.636667	1084.644531	146.259293
625.897872	5991.636667	1083.499023	71.697418
625.897872	5991.636667	1082.354492	88.421951
625.897872	5991.636667	1081.208984	96.245819
625.897872	5991.636667	1080.063477	148.933533
625.897872	5991.636667	1078.917969	94.978325
625.897872	5991.636667	1077.771484	137.777283
625.897872	5991.636667	1076.625977	218.878189
625.897872	5991.636667	1075.479492	226.717712
625.897872	5991.636667	1074.332031	88.990196
625.897872	5991.636667	1073.185547	154.529709
625.897872	5991.636667	1072.038086	209.009140
625.897872	5991.636667	1070.890625	80.321136
625.897872	5991.636667	1069.743164	224.463379
625.897872	5991.636667	1068.594727	241.874252
625.897872	5991.636667	1067.447266	344.096619
625.897872	5991.636667	1066.298828	273.411499
625.897872	5991.636667	1065.149414	137.300385
625.897872	5991.636667	1064.000977	373.499603
625.897872	5991.636667	1062.851563	374.457062
625.897872	5991.636667	1061.702148	338.372284
625.897872	5991.636667	1060.552734	227.001770
625.897872	5991.636667	1059.402344	164.302750
625.897872	5991.636667	1058.252930	186.666199
625.897872	5991.636667	1057.102539	71.811226
625.897872	5991.636667	1055.951172	266.653870
625.897872	5991.636667	1054.800781	11.367500
625.897872	5991.636667	1053.649414	6.284334
625.897872	5991.636667	1052.498047	9.816080
625.897872	5991.636667	1051.346680	11.487777
625.897872	5991.636667	1050.194336	-93.760078
625.897872	5991.636667	1049.042969	16.531271
625.897872	5991.636667	1047.890625	67.628403
625.897872	5991.636667	1046.738281	242.015411
625.897872	5991.636667	1045.584961	124.523354
625.897872	5991.636667	1044.431641	18.834124
625.897872	5991.636667	1043.278320	1.915170
625.897872	5991.636667	1042.125000	120.128952
625.897872	5991.636667	1040.971680	227.585007
625.897872	5991.636667	1039.817383	229.174316
625.897872	5991.636667	1038.663086	33.400219
625.897872	5991.636667	1037.508789	107.724304
625.897872	5991.636667	1036.353516	157.201080
625.897872	5991.636667	1035.198242	216.053665
625.897872	5991.636667	1034.042969	149.679245
625.897872	5991.636667	1032.887695	245.111649
625.897872	5991.636667	1031.732422	334.752930
625.897872	5991.636667	1030.576172	121.198471
625.897872	5991.636667	1029.419922	143.428406
625.897872	5991.636667	1028.263672	73.080124
625.897872	5991.636667	1027.106445	151.870056
625.897872	5991.636667	1025.949219	166.175369
625.897872	5991.636667	1024.792969	43.887924
625.897872	5991.636667	1023.634766	184.094070
625.897872	5991.636667	1022.477539	-9.588524
625.897872	5991.636667	1021.319336	114.504631
625.897872	5991.636667	1020.161133	147.986633
625.897872	5991.636667	1019.002930	46.100864
625.897872	5991.636667	1017.843750	113.348267
625.897872	5991.636667	1016.684570	-24.583269
625.897872	5991.636667	1015.525391	-54.553894
625.897872	5991.636667	1014.366211	8.956133
625.897872	5991.636667	1013.207031	47.641354
625.897872	5991.636667	1012.046875	-6.761532
625.897872	5991.636667	1010.886719	-45.033276
625.897872	5991.636667	1009.726563	166.146637
625.897872	5991.636667	1008.565430	3.728742
625.897872	5991.636667	1007.404297	-6.545699
625.897872	5991.636667	1006.243164	5.419240
625.897872	5991.636667	1005.082031	47.833736
625.897872	5991.636667	1003.920898	70.315689
625.897872	5991.636667	1002.758789	17.753016
625.897872	5991.636667	1001.596680	47.264057
625.897872	5991.636667	1000.433594	-78.560173
625.897872	5991.636667	999.271484	107.221992
625.897872	5991.636667	998.108398	-38.333633
625.897872	5991.636667	996.945313	8.853284
625.897872	5991.636667	995.782227	21.947515
625.897872	5991.636667	994.618164	27.558060
625.897872	5991.636667	993.454102	-24.217119
625.897872	5991.636667	992.290039	61.005508
625.897872	5991.636667	991.125977	4.522069
625.897872	5991.636667	989.960938	-78.750885
625.897872	5991.636667	988.796875	22.405476
625.897872	5991.636667	987.630859	149.825272
625.897872	5991.636667	986.465820	201.647980
625.897872	5991.636667	985.300781	61.140755
625.897872	5991.636667	984.134766	31.399729
625.897872	5991.636667	982.968750	-74.584885
625.897872	5991.636667	981.801758	-103.943504
625.897872	5991.636667	980.635742	22.252876
625.897872	5991.636667	979.468750	205.160645
625.897872	5991.636667	978.301758	39.592316
625.897872	5991.636667	977.133789	-39.495182
625.897872	5991.636667	975.966797	-20.171730
625.897872	5991.636667	974.798828	-53.782547
625.897872	5991.636667	973.630859	-44.551651
625.897872	5991.636667	972.461914	196.156525
625.897872	5991.636667	971.293945	145.751205
625.897872	5991.636667	970.125000	13.686385
625.897872	5991.636667	968.956055	-0.249690
625.897872	5991.636667	967.786133	142.655151
625.897872	5991.636667	966.617188	-105.805969
625.897872	5991.636667	965.447266	15.900918
625.897872	5991.636667	964.276367	-107.702507
625.897872	5991.636667	963.106445	80.728706
625.897872	5991.636667	961.935547	126.749947
625.897872	5991.636667	960.764648	-9.783586
625.897872	5991.636667	959.593750	57.126396
625.897872	5991.636667	958.422852	-299.808960
625.897872	5991.636667	957.250977	-65.647583
625.897872	5991.636667	956.079102	-139.815979
625.897872	5991.636667	954.907227	-210.458450
625.897872	5991.636667	953.734375	-52.720875
625.897872	5991.636667	952.562500	67.910843
625.897872	5991.636667	951.389648	-92.241516
625.897872	5991.636667	950.215820	-77.074760
625.897872	5991.636667	949.042969	-26.268064
625.897872	5991.636667	947.869141	24.291765
625.897872	5991.636667	946.695313	-135.918350
625.897872	5991.636667	945.521484	97.016846
625.897872	5991.636667	944.346680	70.254601
625.897872	5991.636667	943.172852	1.313078
625.897872	5991.636667	941.998047	14.124220
625.897872	5991.636667	940.822266	-47.909935
625.897872	5991.636667	939.647461	105.686836
625.897872	5991.636667	938.471680	-54.799088
625.897872	5991.636667	937.295898	-55.890232
625.897872	5991.636667	936.119141	29.529074
625.897872	5991.636667	934.943359	7.229545
625.897872	5991.636667	933.766602	240.142014
625.897872	5991.636667	932.589844	138.387070
625.897872	5991.636667	931.413086	99.735870
625.897872	5991.636667	930.235352	-11.573867
625.897872	5991.636667	929.057617	150.985657
625.897872	5991.636667	927.879883	98.265221
625.897872	5991.636667	926.702148	188.218628
625.897872	5991.636667	925.523438	219.679230
625.897872	5991.636667	924.344727	143.530823
625.897872	5991.636667	923.166016	74.406387
625.897872	5991.636667	921.987305	96.491173
625.897872	5991.636667	920.807617	67.130219
625.897872	5991.636667	919.627930	69.661919
625.897872	5991.636667	919.497070	-43.748604
625.897872	5991.636667	918.331055	-115.173889
625.897872	5991.636667	917.165039	-41.726025
625.897872	5991.636667	915.999023	20.007254
625.897872	5991.636667	914.833008	-21.046648
625.897872	5991.636667	913.666016	68.665756
625.897872	5991.636667	912.499023	-63.432163
625.897872	5991.636667	911.332031	133.601639
625.897872	5991.636667	910.165039	92.537804
625.897872	5991.636667	908.997070	-67.494026
625.897872	5991.636667	907.830078	-52.530521
625.897872	5991.636667	906.661133	-98.206535
625.897872	5991.636667	905.493164	-192.833725
625.897872	5991.636667	904.325195	-5.366944
625.897872	5991.636667	903.156250	-32.393887
625.897872	5991.636667	901.987305	-8.151804
625.897872	5991.636667	900.818359	-91.088333
625.897872	5991.636667	899.648438	70.570633
625.897872	5991.636667	898.478516	76.136673
625.897872	5991.636667	897.308594	146.886749
625.897872	5991.636667	896.138672	-101.298157
625.897872	5991.636667	894.968750	139.342300
625.897872	5991.636667	893.797852	168.144226
625.897872	5991.636667	892.626953	73.635483
625.897872	5991.636667	891.456055	107.083282
625.897872	5991.636667	890.284180	7.969663
625.897872	5991.636667	889.113281	80.934311
625.897872	5991.636667	887.941406	42.294758
625.897872	5991.636667	886.768555	82.684868
625.897872	5991.636667	885.596680	-14.032534
625.897872	5991.636667	884.423828	116.943459
625.897872	5991.636667	883.250977	13.287207
625.897872	5991.636667	882.078125	111.689705
625.897872	5991.636667	880.905273	131.114899
625.897872	5991.636667	879.731445	8.944182
625.897872	5991.636667	878.557617	-27.316029
625.897872	5991.636667	877.383789	-21.801422
625.897872	5991.636667	876.209961	-23.250227
625.897872	5991.636667	875.035156	-68.764450
625.897872	5991.636667	873.860352	85.149124
625.897872	5991.636667	872.685547	-213.063675
625.897872	5991.636667	871.510742	-91.637650
625.897872	5991.636667	870.334961	18.151331
625.897872	5991.636667	869.159180	-31.968182
625.897872	5991.636667	867.983398	-35.742249
625.897872	5991.636667	866.807617	-69.623970
625.897872	5991.636667	865.630859	23.855888
625.897872	5991.636667	864.454102	-19.286039
625.897872	5991.636667	863.277344	-39.268486
625.897872	5991.636667	862.100586	14.803082
625.897872	5991.636667	860.922852	31.835869
625.897872	5991.636667	859.745117	111.311836
625.897872	5991.636667	858.567383	149.126480
625.897872	5991.636667	857.389648	-7.292460
625.897872	5991.636667	856.210938	86.007103
625.897872	5991.636667	855.032227	107.620895
625.897872	5991.636667	853.853516	6.757888
625.897872	5991.636667	852.674805	120.781822
625.897872	5991.636667	851.495117	160.847885
625.897872	5991.636667	850.315430	36.938042
625.897872	5991.636667	849.135742	-1.498537
625.897872	5991.636667	847.956055	-26.071751
625.897872	5991.636667	846.775391	85.525917
625.897872	5991.636667	845.595703	100.164642
625.897872	5991.636667	844.415039	-44.377899
625.897872	5991.636667	843.233398	-207.312714
625.897872	5991.636667	842.052734	-51.967873
625.897872	5991.636667	840.871094	-219.450485
625.897872	5991.636667	839.689453	11.893722
625.897872	5991.636667	838.506836	-21.876303
625.897872	5991.636667	837.325195	54.956306
625.897872	5991.636667	836.142578	-4.153609
625.897872	5991.636667	834.959961	72.639160
625.897872	5991.636667	833.777344	-152.244583
625.897872	5991.636667	832.593750	14.325350
625.897872	5991.636667	831.410156	10.500807
625.897872	5991.636667	830.226563	-85.373589
625.897872	5991.636667	829.042969	-33.966404
625.897872	5991.636667	827.858398	104.826157
625.897872	5991.636667	826.673828	41.179371
625.897872	5991.636667	825.489258	90.219093
625.897872	5991.636667	824.304688	-44.670521
625.897872	5991.636667	823.120117	-76.083344
625.897872	5991.636667	821.934570	69.449608
625.897872	5991.636667	820.749023	86.264252
625.897872	5991.636667	819.562500	-170.264191
625.897872	5991.636667	818.376953	-17.926620
625.897872	5991.636667	817.190430	1.178894
625.897872	5991.636667	816.003906	11.089441
625.897872	5991.636667	814.817383	-82.285950
625.897872	5991.636667	813.629883	191.501617
625.897872	5991.636667	812.442383	6.355465
625.897872	5991.636667	811.254883	-13.580545
625.897872	5991.636667	810.067383	-77.083923
625.897872	5991.636667	808.878906	19.920176
625.897872	5991.636667	807.690430	32.066994
625.897872	5991.636667	806.501953	-228.509857
625.897872	5991.636667	805.313477	-69.691429
625.897872	5991.636667	804.124023	-85.040611
625.897872	5991.636667	802.934570	117.185760
625.897872	5991.636667	801.745117	65.152534
625.897872	5991.636667	800.555664	-135.673218
625.897872	5991.636667	799.365234	-114.402763
625.897872	5991.636667	798.175781	-45.094452
625.897872	5991.636667	796.985352	-135.975037
625.897872	5991.636667	795.793945	-25.530092
625.897872	5991.636667	794.603516	160.328522
625.897872	5991.636667	793.412109	64.864265
625.897872	5991.636667	792.220703	54.013176
625.897872	5991.636667	791.028320	-39.120266
625.897872	5991.636667	789.836914	71.144920
625.897872	5991.636667	788.644531	0.872868
625.897872	5991.636667	787.452148	104.213036
625.897872	5991.636667	786.258789	-7.160810
625.897872	5991.636667	785.066406	132.648178
625.897872	5991.636667	783.873047	-56.318893
625.897872	5991.636667	782.679688	-3.302679
625.897872	5991.636667	781.485352	33.709885
625.897872	5991.636667	780.291992	18.224112
625.897872	5991.636667	779.097656	-20.073471
625.897872	5991.636667	777.903320	55.649258
625.897872	5991.636667	776.708008	145.008820
625.897872	5991.636667	775.512695	179.613724
625.897872	5991.636667	774.318359	-25.096941
625.897872	5991.636667	773.122070	-136.316086
625.897872	5991.636667	771.926758	-6.039815
625.897872	5991.636667	770.730469	-28.422602
625.897872	5991.636667	769.534180	60.764210
625.897872	5991.636667	768.337891	83.879715
625.897872	5991.636667	767.141602	-36.422085
625.897872	5991.636667	765.944336	68.597282
625.897872	5991.636667	764.747070	162.181641
625.897872	5991.636667	763.549805	162.450348
625.897872	5991.636667	762.351563	112.673042
625.897872	5991.636667	761.154297	26.518950
625.897872	5991.636667	759.956055	-39.155399
625.897872	5991.636667	758.757813	-48.000172
625.897872	5991.636667	757.558594	124.925636
625.897872	5991.636667	756.359375	215.976761
625.897872	5991.636667	755.160156	86.651909
625.897872	5991.636667	753.960938	154.928329
625.897872	5991.636667	752.761719	5.199720
625.897872	5991.636667	751.561523	28.029575
625.897872	5991.636667	750.361328	225.578354
625.897872	5991.636667	749.160156	25.955896
625.897872	5991.636667	747.959961	277.827301
625.897872	5991.636667	746.758789	153.081970
625.897872	5991.636667	745.557617	10.228065
625.897872	5991.636667	744.356445	155.331680
625.897872	5991.636667	743.154297	250.489365
625.897872	5991.636667	741.952148	100.843147
625.897872	5991.636667	740.750000	32.800880
625.897872	5991.636667	739.547852	1.008248
625.897872	5991.636667	738.344727	68.854202
625.897872	5991.636667	737.142578	9.850834
625.897872	5991.636667	735.939453	116.104492
625.897872	5991.636667	734.735352	95.546921
625.897872	5991.636667	733.532227	-22.328726
625.897872	5991.636667	732.328125	88.318649
625.897872	5991.636667	731.124023	-25.030878
625.897872	5991.636667	729.918945	19.941669
625.897872	5991.636667	728.714844	73.912239
625.897872	5991.636667	727.509766	102.970291
625.897872	5991.636667	726.303711	37.071487
625.897872	5991.636667	725.098633	301.061829
625.897872	5991.636667	723.892578	282.535980
625.897872	5991.636667	722.686523	-9.296800
625.897872	5991.636667	721.480469	51.228180
625.897872	5991.636667	720.274414	-114.062752
625.897872	5991.636667	719.067383	2.832304
625.897872	5991.636667	717.860352	2.302342
625.897872	5991.636667	716.653320	-18.562635
625.897872	5991.636667	715.445313	-25.913141
625.897872	5991.636667	714.238281	115.556694
625.897872	5991.636667	713.030273	-175.981674
625.897872	5991.636667	711.821289	-75.177071
625.897872	5991.636667	710.613281	-12.761092
625.897872	5991.636667	709.404297	6.784259
625.897872	5991.636667	708.195313	60.083035
625.897872	5991.636667	706.986328	151.618805
625.897872	5991.636667	705.776367	-29.401220
625.897872	5991.636667	704.566406	68.805290
625.897872	5991.636667	703.356445	-100.932381
625.897872	5991.636667	702.146484	-77.085747
625.897872	5991.636667	700.935547	-96.033134
625.897872	5991.636667	699.724609	-128.504303
625.897872	5991.636667	698.513672	0.940368
625.897872	5991.636667	697.302734	130.296188
625.897872	5991.636667	696.090820	68.468430
625.897872	5991.636667	694.878906	8.879280
625.897872	5991.636667	693.666992	-88.923203
625.897872	5991.636667	692.455078	-114.824570
625.897872	5991.636667	691.242188	18.735119
625.897872	5991.636667	690.029297	111.777809
625.897872	5991.636667	688.816406	-28.770517
625.897872	5991.636667	687.602539	70.903908
625.897872	5991.636667	686.389648	159.276688
625.897872	5991.636667	685.175781	-30.671844
625.897872	5991.636667	683.960938	189.972977
625.897872	5991.636667	682.747070	17.965771
625.897872	5991.636667	681.532227	186.853088
625.897872	5991.636667	680.317383	133.668869
625.897872	5991.636667	679.102539	42.361580
625.897872	5991.636667	677.886719	143.786270
625.897872	5991.636667	676.670898	148.782166
625.897872	5991.636667	675.455078	91.012100
625.897872	5991.636667	674.239258	147.448990
625.897872	5991.636667	673.022461	201.582520
625.897872	5991.636667	671.805664	-55.531628
625.897872	5991.636667	670.588867	148.503296
625.897872	5991.636667	669.372070	124.156303
625.897872	5991.636667	668.154297	-159.750977
625.897872	5991.636667	666.936523	-70.027473
625.897872	5991.636667	665.718750	182.871033
625.897872	5991.636667	664.500977	-9.323220
625.897872	5991.636667	663.282227	102.538422
625.897872	5991.636667	662.063477	-11.420208
625.897872	5991.636667	660.844727	-0.242741
625.897872	5991.636667	659.625000	-87.410484
625.897872	5991.636667	658.405273	73.338211
625.897872	5991.636667	657.185547	57.563240
625.897872	5991.636667	655.965820	95.333290
625.897872	5991.636667	654.745117	54.918404
625.897872	5991.636667	653.525391	168.461121
625.897872	5991.636667	652.303711	61.022747
625.897872	5991.636667	651.083008	71.813675
625.897872	5991.636667	649.861328	-100.324753
625.897872	5991.636667	648.640625	46.422192
625.897872	5991.636667	647.417969	161.849808
625.897872	5991.636667	646.196289	107.793900
625.897872	5991.636667	644.973633	111.651749
625.897872	5991.636667	643.750977	-18.210022
625.897872	5991.636667	642.528320	32.357433
625.897872	5991.636667	641.305664	49.453640
625.897872	5991.636667	640.082031	86.534332
625.897872	5991.636667	638.858398	18.931171
625.897872	5991.636667	637.634766	44.783245
625.897872	5991.636667	636.410156	148.453445
625.897872	5991.636667	635.185547	51.821384
625.897872	5991.636667	633.960938	124.216141
625.897872	5991.636667	632.736328	176.521469
625.897872	5991.636667	631.510742	135.383835
625.897872	5991.636667	630.285156	129.780212
625.897872	5991.636667	629.059570	230.799438
625.897872	5991.636667	627.833984	251.745743
625.897872	5991.636667	626.607422	281.520813
625.897872	5991.636667	625.380859	42.517841
625.897872	5991.636667	624.154297	112.197281
625.897872	5991.636667	622.927734	141.843369
625.897872	5991.636667	621.700195	60.458263
625.897872	5991.636667	620.472656	-45.346901
625.897872	5991.636667	619.245117	248.169144
625.897872	5991.636667	618.016602	-70.653122
625.897872	5991.636667	616.788086	-105.544250
625.897872	5991.636667	615.559570	121.145264
625.897872	5991.636667	614.331055	-117.789085
625.897872	5991.636667	613.101563	-112.899010
625.897872	5991.636667	611.872070	11.587565
625.897872	5991.636667	610.642578	-123.199371
625.897872	5991.636667	609.413086	-36.505779
625.897872	5991.636667	608.182617	-120.391785
625.897872	5991.636667	606.952148	-22.760920
625.897872	5991.636667	605.721680	34.944088
625.897872	5991.636667	604.491211	-22.487047
625.897872	5991.636667	603.259766	94.833199
625.897872	5991.636667	602.028320	-48.942867
625.897872	5991.636667	600.796875	15.168821
625.897872	5991.636667	599.564453	143.323288
625.897872	5991.636667	598.332031	48.121712
625.897872	5991.636667	597.099609	65.624832
625.897872	5991.636667	595.867188	-9.723285
625.897872	5991.636667	594.633789	38.620483
625.897872	5991.636667	593.400391	7.390759
625.897872	5991.636667	592.166992	-23.869730
625.897872	5991.636667	590.933594	99.374428
625.897872	5991.636667	589.699219	-77.655052
625.897872	5991.636667	588.464844	45.458767
625.897872	5991.636667	587.230469	203.776215
625.897872	5991.636667	585.995117	35.529198
625.897872	5991.636667	584.760742	284.113129
625.897872	5991.636667	583.525391	45.281578
625.897872	5991.636667	582.289063	-81.071213
625.897872	5991.636667	581.053711	-17.875784
625.897872	5991.636667	579.817383	109.147621
625.897872	5991.636667	578.581055	114.914299
625.897872	5991.636667	577.343750	19.321030
625.897872	5991.636667	576.107422	126.314987
625.897872	5991.636667	574.870117	182.584900
625.897872	5991.636667	573.631836	161.751144
625.897872	5991.636667	572.394531	-19.753052
625.897872	5991.636667	571.156250	95.793587
625.897872	5991.636667	569.917969	99.070290
625.897872	5991.636667	568.679688	95.709770
625.897872	5991.636667	567.440430	101.104233
625.897872	5991.636667	566.202148	152.624725
625.897872	5991.636667	564.961914	171.113525
625.897872	5991.636667	563.722656	92.878586
625.897872	5991.636667	562.482422	19.031462
625.897872	5991.636667	561.243164	103.321373
625.897872	5991.636667	560.001953	9.664994
625.897872	5991.636667	558.761719	201.422394
625.897872	5991.636667	557.520508	68.205910
625.897872	5991.636667	556.279297	174.210770
625.897872	5991.636667	555.038086	-9.473731
625.897872	5991.636667	553.795898	120.560524
625.897872	5991.636667	552.554688	24.622215
625.897872	5991.636667	551.311523	165.486908
625.897872	5991.636667	550.069336	174.733978
625.897872	5991.636667	548.826172	236.541840
625.897872	5991.636667	547.583984	158.058746
625.897872	5991.636667	546.339844	35.756283
625.897872	5991.636667	545.096680	-47.095943
625.897872	5991.636667	543.852539	12.390283
625.897872	5991.636667	542.608398	71.821121
625.897872	5991.636667	541.364258	43.643349
625.897872	5991.636667	540.119141	2.315138
625.897872	5991.636667	538.875000	17.865910
625.897872	5991.636667	537.628906	-119.747345
625.897872	5991.636667	536.383789	44.478821
625.897872	5991.636667	535.137695	46.801975
625.897872	5991.636667	533.892578	22.868883
625.897872	5991.636667	532.645508	-114.737228
625.897872	5991.636667	531.399414	47.053711
625.897872	5991.636667	530.152344	-127.687889
625.897872	5991.636667	528.905273	-5.332217
625.897872	5991.636667	527.658203	-62.116596
625.897872	5991.636667	526.410156	-1.009331
625.897872	5991.636667	525.163086	-175.686188
625.897872	5991.636667	523.914063	5.395151
625.897872	5991.636667	522.666016	-188.893631
625.897872	5991.636667	521.416992	-97.366661
625.897872	5991.636667	520.167969	-64.784683
625.897872	5991.636667	518.918945	24.453339
625.897872	5991.636667	517.669922	-67.303535
625.897872	5991.636667	516.419922	-128.532578
625.897872	5991.636667	515.169922	19.430344
625.897872	5991.636667	513.919922	73.632973
625.897872	5991.636667	512.668945	-85.663246
625.897872	5991.636667	511.417969	-79.410393
625.897872	5991.636667	510.166992	-184.213577
625.897872	5991.636667	508.916016	-282.459137
625.897872	5991.636667	507.664063	-47.724617
625.897872	5991.636667	506.412109	21.535469
625.897872	5991.636667	505.160156	-229.015961
625.897872	5991.636667	503.907227	-148.910599
625.897872	5991.636667	502.655273	18.121897
625.897872	5991.636667	501.402344	58.977745
625.897872	5991.636667	500.148438	32.420364
625.897872	5991.636667	498.895508	71.050667
625.897872	5991.636667	497.641602	-83.704460
625.897872	5991.636667	496.387695	-138.496384
625.897872	5991.636667	495.132813	10.839782
625.897872	5991.636667	493.878906	-41.807434
625.897872	5991.636667	492.624023	-40.186615
625.897872	5991.636667	491.368164	-92.838684
625.897872	5991.636667	490.113281	-41.334614
625.897872	5991.636667	488.857422	-91.823494
625.897872	5991.636667	487.601563	-7.844476
625.897872	5991.636667	486.344727	-4.145494
625.897872	5991.636667	485.088867	16.883606
625.897872	5991.636667	483.832031	48.721474
625.897872	5991.636667	482.575195	-45.146694
625.897872	5991.636667	481.317383	-0.344483
625.897872	5991.636667	480.059570	-37.881367
625.897872	5991.636667	478.801758	4.704403
625.897872	5991.636667	477.543945	29.936558
625.897872	5991.636667	476.285156	104.922302
625.897872	5991.636667	475.027344	15.395697
625.897872	5991.636667	473.767578	-26.518053
625.897872	5991.636667	472.508789	59.198265
625.897872	5991.636667	471.249023	-88.710640
625.897872	5991.636667	469.989258	83.431572
625.897872	5991.636667	468.729492	127.939857
625.897872	5991.636667	467.469727	-41.554462
625.897872	5991.636667	466.208984	11.563213
625.897872	5991.636667	464.948242	27.912447
625.897872	5991.636667	463.686523	91.746880
625.897872	5991.636667	462.425781	129.624573
625.897872	5991.636667	461.164063	303.472321
625.897872	5991.636667	459.901367	67.110519
625.897872	5991.636667	458.639648	152.372589
625.897872	5991.636667	457.376953	13.186508
625.897872	5991.636667	456.114258	46.600262
625.897872	5991.636667	454.851563	-55.892555
625.897872	5991.636667	453.587891	-22.537407
625.897872	5991.636667	452.324219	-116.408989
625.897872	5991.636667	451.060547	-50.785378
625.897872	5991.636667	449.796875	-49.863663
625.897872	5991.636667	448.532227	155.675781
625.897872	5991.636667	447.267578	128.481689
625.897872	5991.636667	446.002930	21.591158
625.897872	5991.636667	444.737305	147.213638
625.897872	5991.636667	443.471680	-9.220999
625.897872	5991.636667	442.206055	-2.081677
625.897872	5991.636667	440.940430	73.859306
625.897872	5991.636667	439.673828	78.734810
625.897872	5991.636667	438.407227	72.808960
625.897872	5991.636667	437.140625	77.588013
625.897872	5991.636667	435.873047	116.702995
625.897872	5991.636667	434.605469	48.290913
625.897872	5991.636667	433.337891	194.721527
625.897872	5991.636667	432.070313	117.616470
625.897872	5991.636667	430.801758	-86.237526
625.897872	5991.636667	429.533203	98.591751
625.897872	5991.636667	428.264648	57.859890
625.897872	5991.636667	426.996094	178.053360
625.897872	5991.636667	425.726563	55.633125
625.897872	5991.636667	424.457031	51.189339
625.897872	5991.636667	423.186523	55.244640
625.897872	5991.636667	421.916992	172.880478
625.897872	5991.636667	420.646484	251.782639
625.897872	5991.636667	419.375977	294.122589
625.897872	5991.636667	418.104492	173.471603
625.897872	5991.636667	416.833008	132.054703
625.897872	5991.636667	415.561523	137.683990
625.897872	5991.636667	414.290039	123.932671
625.897872	5991.636667	413.017578	116.497635
625.897872	5991.636667	411.746094	213.857910
625.897872	5991.636667	410.472656	26.386219
625.897872	5991.636667	409.200195	142.739578
625.897872	5991.636667	407.926758	-32.045494
625.897872	5991.636667	406.653320	-22.937748
625.897872	5991.636667	405.379883	189.182892
625.897872	5991.636667	404.105469	-71.430214
625.897872	5991.636667	402.831055	93.290611
625.897872	5991.636667	401.556641	52.630531
625.897872	5991.636667	400.282227	18.241226
625.897872	5991.636667	399.006836	5.058048
625.897872	5991.636667	397.731445	-27.509228
625.897872	5991.636667	396.456055	202.392242
625.897872	5991.636667	395.179688	94.716446
625.897872	5991.636667	393.903320	42.390079
625.897872	5991.636667	392.626953	77.378258
625.897872	5991.636667	391.350586	248.683517
625.897872	5991.636667	390.073242	325.850800
625.897872	5991.636667	388.795898	381.444794
625.897872	5991.636667	387.518555	372.831238
625.897872	5991.636667	386.240234	511.055420
625.897872	5991.636667	384.961914	359.160004
625.897872	5991.636667	383.683594	405.224915
625.897872	5991.636667	382.405273	529.828918
625.897872	5991.636667	381.125977	477.344879
625.897872	5991.636667	379.846680	392.672699
625.897872	5991.636667	378.567383	322.656067
625.897872	5991.636667	377.287109	126.802299
625.897872	5991.636667	376.006836	254.156693
625.897872	5991.636667	374.726563	70.554520
625.897872	5991.636667	373.446289	56.861042
625.897872	5991.636667	372.165039	142.773010
625.897872	5991.636667	370.883789	56.105255
625.897872	5991.636667	369.602539	98.776993
625.897872	5991.636667	368.320313	153.805664
625.897872	5991.636667	367.039063	-6.132150
625.897872	5991.636667	365.755859	16.261517
625.897872	5991.636667	364.473633	97.720619
625.897872	5991.636667	363.190430	55.579239
625.897872	5991.636667	361.907227	55.486191
625.897872	5991.636667	360.624023	67.692795
625.897872	5991.636667	359.340820	32.766479
625.897872	5991.636667	358.056641	33.442616
625.897872	5991.636667	356.772461	294.507813
625.897872	5991.636667	355.487305	-13.308823
625.897872	5991.636667	354.202148	-1.385645
625.897872	5991.636667	352.916992	-68.406769
625.897872	5991.636667	351.631836	29.350609
625.897872	5991.636667	350.346680	-19.660551
625.897872	5991.636667	349.060547	108.686638
625.897872	5991.636667	347.774414	1.343186
625.897872	5991.636667	346.487305	-13.413264
625.897872	5991.636667	345.200195	2.973890
625.897872	5991.636667	343.913086	61.048641
625.897872	5991.636667	342.625977	-57.158070
625.897872	5991.636667	341.338867	-27.906672
625.897872	5991.636667	340.050781	-164.329025
625.897872	5991.636667	338.762695	-193.560425
625.897872	5991.636667	337.473633	-126.280487
625.897872	5991.636667	336.184570	-6.935798
625.897872	5991.636667	334.895508	-2.504566
625.897872	5991.636667	333.606445	11.706487
625.897872	5991.636667	332.317383	-23.467186
625.897872	5991.636667	331.027344	-184.057816
625.897872	5991.636667	329.736328	-94.218994
625.897872	5991.636667	328.446289	-167.785675
625.897872	5991.636667	327.155273	-54.422337
625.897872	5991.636667	325.864258	-17.972731
625.897872	5991.636667	324.573242	-128.016129
625.897872	5991.636667	323.281250	-266.413788
625.897872	5991.636667	321.989258	-26.224630
625.897872	5991.636667	320.697266	14.705992
625.897872	5991.636667	319.405273	-103.474571
625.897872	5991.636667	318.112305	-14.100303
625.897872	5991.636667	316.819336	-71.202805
625.897872	5991.636667	315.526367	87.534683
625.897872	5991.636667	314.232422	285.034882
625.897872	5991.636667	312.938477	114.979904
625.897872	5991.636667	311.644531	4.840223
625.897872	5991.636667	310.349609	7.114333
625.897872	5991.636667	309.054688	41.790981
625.897872	5991.636667	307.759766	-51.033100
625.897872	5991.636667	306.464844	96.695305
625.897872	5991.636667	305.168945	-89.209167
625.897872	5991.636667	303.873047	160.791550
625.897872	5991.636667	302.577148	253.758682
625.897872	5991.636667	301.281250	359.945282
625.897872	5991.636667	299.984375	523.377075
