#X		#Y		#Wave		#Intensity
-154.976596	5614.593333	1999.946289	-7.541462
-154.976596	5614.593333	1998.981445	-15.246607
-154.976596	5614.593333	1998.017578	-4.627604
-154.976596	5614.593333	1997.052734	48.036514
-154.976596	5614.593333	1996.088867	-30.709499
-154.976596	5614.593333	1995.124023	-161.521057
-154.976596	5614.593333	1994.159180	89.061638
-154.976596	5614.593333	1993.193359	64.615273
-154.976596	5614.593333	1992.228516	-73.775452
-154.976596	5614.593333	1991.262695	-115.641685
-154.976596	5614.593333	1990.296875	47.861237
-154.976596	5614.593333	1989.331055	50.404831
-154.976596	5614.593333	1988.365234	-23.804773
-154.976596	5614.593333	1987.398438	-75.782822
-154.976596	5614.593333	1986.432617	45.319050
-154.976596	5614.593333	1985.465820	-43.849148
-154.976596	5614.593333	1984.499023	-48.982677
-154.976596	5614.593333	1983.532227	-73.936638
-154.976596	5614.593333	1982.565430	39.459202
-154.976596	5614.593333	1981.597656	175.003036
-154.976596	5614.593333	1980.629883	80.713509
-154.976596	5614.593333	1979.662109	146.957047
-154.976596	5614.593333	1978.694336	158.808029
-154.976596	5614.593333	1977.726563	81.733887
-154.976596	5614.593333	1976.758789	137.948074
-154.976596	5614.593333	1975.790039	41.086697
-154.976596	5614.593333	1974.821289	84.876945
-154.976596	5614.593333	1973.852539	182.893997
-154.976596	5614.593333	1972.883789	63.777939
-154.976596	5614.593333	1971.915039	102.511116
-154.976596	5614.593333	1970.945313	-43.730667
-154.976596	5614.593333	1969.975586	115.746574
-154.976596	5614.593333	1969.005859	119.855247
-154.976596	5614.593333	1968.036133	-6.673901
-154.976596	5614.593333	1967.066406	127.992371
-154.976596	5614.593333	1966.096680	161.584259
-154.976596	5614.593333	1965.125977	25.194229
-154.976596	5614.593333	1964.155273	-96.391006
-154.976596	5614.593333	1963.184570	23.331600
-154.976596	5614.593333	1962.213867	7.602366
-154.976596	5614.593333	1961.242188	-170.576752
-154.976596	5614.593333	1960.271484	-68.186111
-154.976596	5614.593333	1959.299805	56.291256
-154.976596	5614.593333	1958.328125	77.396393
-154.976596	5614.593333	1957.356445	238.660980
-154.976596	5614.593333	1956.384766	55.611774
-154.976596	5614.593333	1955.412109	152.874512
-154.976596	5614.593333	1954.439453	-138.266159
-154.976596	5614.593333	1953.467773	-16.448936
-154.976596	5614.593333	1952.495117	-12.626939
-154.976596	5614.593333	1951.521484	32.944702
-154.976596	5614.593333	1950.548828	83.404755
-154.976596	5614.593333	1949.575195	87.179352
-154.976596	5614.593333	1948.601563	95.855293
-154.976596	5614.593333	1947.627930	173.254532
-154.976596	5614.593333	1946.654297	0.281987
-154.976596	5614.593333	1945.680664	-91.655464
-154.976596	5614.593333	1944.706055	-14.282058
-154.976596	5614.593333	1943.732422	-3.168101
-154.976596	5614.593333	1942.757813	-63.185047
-154.976596	5614.593333	1941.783203	-108.471329
-154.976596	5614.593333	1940.807617	-121.874313
-154.976596	5614.593333	1939.833008	36.303688
-154.976596	5614.593333	1938.857422	3.269734
-154.976596	5614.593333	1937.881836	-24.852476
-154.976596	5614.593333	1936.906250	22.976055
-154.976596	5614.593333	1935.930664	36.497421
-154.976596	5614.593333	1934.955078	32.871674
-154.976596	5614.593333	1933.978516	124.731773
-154.976596	5614.593333	1933.001953	99.059242
-154.976596	5614.593333	1932.025391	92.976944
-154.976596	5614.593333	1931.048828	30.617523
-154.976596	5614.593333	1930.072266	-36.610050
-154.976596	5614.593333	1929.094727	-145.395630
-154.976596	5614.593333	1928.118164	7.544610
-154.976596	5614.593333	1927.140625	-74.307526
-154.976596	5614.593333	1926.163086	107.902367
-154.976596	5614.593333	1925.184570	82.283699
-154.976596	5614.593333	1924.207031	86.005463
-154.976596	5614.593333	1923.228516	-169.267471
-154.976596	5614.593333	1922.250000	-31.136831
-154.976596	5614.593333	1921.271484	-164.164474
-154.976596	5614.593333	1920.292969	103.345512
-154.976596	5614.593333	1919.314453	-27.207830
-154.976596	5614.593333	1918.334961	-104.007652
-154.976596	5614.593333	1917.355469	-214.943359
-154.976596	5614.593333	1916.375977	42.629639
-154.976596	5614.593333	1915.396484	34.184059
-154.976596	5614.593333	1914.416992	-18.160910
-154.976596	5614.593333	1913.436523	-97.311127
-154.976596	5614.593333	1912.457031	1.573521
-154.976596	5614.593333	1911.476563	-11.719601
-154.976596	5614.593333	1910.496094	26.182669
-154.976596	5614.593333	1909.515625	112.814491
-154.976596	5614.593333	1908.534180	-178.243698
-154.976596	5614.593333	1907.552734	103.284554
-154.976596	5614.593333	1906.572266	-4.982100
-154.976596	5614.593333	1905.590820	113.262276
-154.976596	5614.593333	1904.608398	185.205124
-154.976596	5614.593333	1903.626953	81.861649
-154.976596	5614.593333	1902.644531	61.307781
-154.976596	5614.593333	1901.663086	-49.266022
-154.976596	5614.593333	1900.680664	-35.720341
-154.976596	5614.593333	1899.698242	162.687439
-154.976596	5614.593333	1898.714844	-118.074104
-154.976596	5614.593333	1897.732422	107.027687
-154.976596	5614.593333	1896.749023	-15.593836
-154.976596	5614.593333	1895.765625	-28.789375
-154.976596	5614.593333	1894.782227	106.261215
-154.976596	5614.593333	1893.798828	10.443506
-154.976596	5614.593333	1892.814453	-56.187038
-154.976596	5614.593333	1891.831055	-110.644730
-154.976596	5614.593333	1890.846680	-63.092388
-154.976596	5614.593333	1889.862305	-66.540939
-154.976596	5614.593333	1888.877930	34.392208
-154.976596	5614.593333	1887.892578	60.051083
-154.976596	5614.593333	1886.908203	-173.932693
-154.976596	5614.593333	1885.922852	-208.893341
-154.976596	5614.593333	1884.937500	30.252409
-154.976596	5614.593333	1883.952148	-12.007895
-154.976596	5614.593333	1882.965820	35.459785
-154.976596	5614.593333	1881.980469	46.547768
-154.976596	5614.593333	1880.994141	186.090271
-154.976596	5614.593333	1880.007813	97.786751
-154.976596	5614.593333	1879.021484	104.007538
-154.976596	5614.593333	1878.035156	30.285070
-154.976596	5614.593333	1877.047852	-57.944878
-154.976596	5614.593333	1876.061523	-129.190414
-154.976596	5614.593333	1875.074219	61.060875
-154.976596	5614.593333	1874.086914	60.010857
-154.976596	5614.593333	1873.098633	-42.689400
-154.976596	5614.593333	1872.111328	-41.305328
-154.976596	5614.593333	1871.123047	-25.410957
-154.976596	5614.593333	1870.135742	-62.737549
-154.976596	5614.593333	1869.147461	98.247795
-154.976596	5614.593333	1868.158203	-59.993820
-154.976596	5614.593333	1867.169922	-114.229294
-154.976596	5614.593333	1866.180664	-144.280731
-154.976596	5614.593333	1865.192383	2.082041
-154.976596	5614.593333	1864.203125	66.236603
-154.976596	5614.593333	1863.213867	48.230007
-154.976596	5614.593333	1862.223633	-276.503540
-154.976596	5614.593333	1861.234375	60.511806
-154.976596	5614.593333	1860.244141	13.524637
-154.976596	5614.593333	1859.253906	101.721191
-154.976596	5614.593333	1858.263672	4.049387
-154.976596	5614.593333	1857.273438	111.503029
-154.976596	5614.593333	1856.282227	40.385422
-154.976596	5614.593333	1855.291992	-180.255280
-154.976596	5614.593333	1854.300781	9.138041
-154.976596	5614.593333	1853.309570	-102.934860
-154.976596	5614.593333	1852.317383	-120.962227
-154.976596	5614.593333	1851.326172	63.464981
-154.976596	5614.593333	1850.333984	-104.009735
-154.976596	5614.593333	1849.342773	24.911366
-154.976596	5614.593333	1848.350586	156.179855
-154.976596	5614.593333	1847.357422	109.166451
-154.976596	5614.593333	1846.365234	62.161636
-154.976596	5614.593333	1845.372070	46.457737
-154.976596	5614.593333	1844.379883	201.647034
-154.976596	5614.593333	1843.386719	120.921707
-154.976596	5614.593333	1842.393555	208.640976
-154.976596	5614.593333	1841.399414	58.151936
-154.976596	5614.593333	1840.406250	155.443939
-154.976596	5614.593333	1839.412109	-108.028221
-154.976596	5614.593333	1838.417969	73.378899
-154.976596	5614.593333	1837.423828	-120.296478
-154.976596	5614.593333	1836.429688	8.141146
-154.976596	5614.593333	1835.434570	143.721420
-154.976596	5614.593333	1834.440430	34.183826
-154.976596	5614.593333	1833.445313	143.254517
-154.976596	5614.593333	1832.450195	115.378281
-154.976596	5614.593333	1831.454102	53.877686
-154.976596	5614.593333	1830.458984	1.988450
-154.976596	5614.593333	1829.462891	-189.113693
-154.976596	5614.593333	1828.466797	54.197254
-154.976596	5614.593333	1827.470703	91.057220
-154.976596	5614.593333	1826.474609	31.930737
-154.976596	5614.593333	1825.478516	-24.793346
-154.976596	5614.593333	1824.481445	9.605399
-154.976596	5614.593333	1823.484375	111.101707
-154.976596	5614.593333	1822.487305	-139.826218
-154.976596	5614.593333	1821.490234	-12.016062
-154.976596	5614.593333	1820.493164	79.783340
-154.976596	5614.593333	1819.495117	118.820160
-154.976596	5614.593333	1818.498047	-108.048347
-154.976596	5614.593333	1817.500000	-9.162472
-154.976596	5614.593333	1816.500977	27.409584
-154.976596	5614.593333	1815.502930	87.887482
-154.976596	5614.593333	1814.504883	-35.973778
-154.976596	5614.593333	1813.505859	115.380035
-154.976596	5614.593333	1812.506836	82.429741
-154.976596	5614.593333	1811.507813	178.640900
-154.976596	5614.593333	1810.508789	85.854546
-154.976596	5614.593333	1809.508789	-11.705221
-154.976596	5614.593333	1808.508789	122.649055
-154.976596	5614.593333	1807.508789	108.731079
-154.976596	5614.593333	1806.508789	11.150968
-154.976596	5614.593333	1805.508789	111.901627
-154.976596	5614.593333	1804.508789	57.308990
-154.976596	5614.593333	1803.507813	2.709824
-154.976596	5614.593333	1802.506836	96.163330
-154.976596	5614.593333	1801.505859	86.890945
-154.976596	5614.593333	1800.504883	17.918341
-154.976596	5614.593333	1799.502930	187.609055
-154.976596	5614.593333	1798.501953	-100.939514
-154.976596	5614.593333	1797.500000	-69.716354
-154.976596	5614.593333	1796.498047	28.256838
-154.976596	5614.593333	1795.496094	-179.095352
-154.976596	5614.593333	1794.493164	100.019249
-154.976596	5614.593333	1793.491211	-19.115660
-154.976596	5614.593333	1792.488281	33.375927
-154.976596	5614.593333	1791.485352	-131.037308
-154.976596	5614.593333	1790.482422	71.503838
-154.976596	5614.593333	1789.478516	95.275772
-154.976596	5614.593333	1788.475586	23.746576
-154.976596	5614.593333	1787.471680	42.699242
-154.976596	5614.593333	1786.467773	109.232971
-154.976596	5614.593333	1785.463867	170.951614
-154.976596	5614.593333	1784.459961	6.527855
-154.976596	5614.593333	1783.455078	65.801956
-154.976596	5614.593333	1782.450195	246.352249
-154.976596	5614.593333	1781.445313	131.866104
-154.976596	5614.593333	1780.440430	24.527922
-154.976596	5614.593333	1779.435547	9.928411
-154.976596	5614.593333	1778.429688	109.405762
-154.976596	5614.593333	1777.424805	61.461884
-154.976596	5614.593333	1776.418945	163.207840
-154.976596	5614.593333	1775.413086	22.549356
-154.976596	5614.593333	1774.406250	-72.956741
-154.976596	5614.593333	1773.400391	-104.330750
-154.976596	5614.593333	1772.393555	101.720818
-154.976596	5614.593333	1771.386719	-93.547577
-154.976596	5614.593333	1770.379883	34.033890
-154.976596	5614.593333	1769.373047	216.117493
-154.976596	5614.593333	1768.365234	101.511879
-154.976596	5614.593333	1767.358398	181.446136
-154.976596	5614.593333	1766.350586	135.609940
-154.976596	5614.593333	1765.342773	-57.262577
-154.976596	5614.593333	1764.334961	110.279709
-154.976596	5614.593333	1763.326172	175.794373
-154.976596	5614.593333	1762.318359	257.845764
-154.976596	5614.593333	1761.309570	162.117401
-154.976596	5614.593333	1760.300781	267.763550
-154.976596	5614.593333	1759.291016	276.220612
-154.976596	5614.593333	1758.282227	431.472107
-154.976596	5614.593333	1757.272461	427.992371
-154.976596	5614.593333	1756.262695	497.866486
-154.976596	5614.593333	1755.252930	643.420593
-154.976596	5614.593333	1754.243164	682.399780
-154.976596	5614.593333	1753.233398	501.302063
-154.976596	5614.593333	1752.222656	424.317657
-154.976596	5614.593333	1751.211914	607.481873
-154.976596	5614.593333	1750.201172	230.142456
-154.976596	5614.593333	1749.190430	313.916534
-154.976596	5614.593333	1748.179688	132.895996
-154.976596	5614.593333	1747.167969	-52.818077
-154.976596	5614.593333	1746.156250	82.841164
-154.976596	5614.593333	1745.144531	105.026093
-154.976596	5614.593333	1744.132813	-104.292542
-154.976596	5614.593333	1743.121094	54.816940
-154.976596	5614.593333	1742.108398	187.858871
-154.976596	5614.593333	1741.095703	-30.898571
-154.976596	5614.593333	1740.083008	194.086670
-154.976596	5614.593333	1739.070313	173.554871
-154.976596	5614.593333	1738.057617	150.638931
-154.976596	5614.593333	1737.043945	26.270798
-154.976596	5614.593333	1736.030273	88.221741
-154.976596	5614.593333	1735.016602	-36.150734
-154.976596	5614.593333	1734.002930	-132.218613
-154.976596	5614.593333	1732.989258	-79.797218
-154.976596	5614.593333	1731.974609	224.709320
-154.976596	5614.593333	1730.959961	48.442589
-154.976596	5614.593333	1729.945313	100.700523
-154.976596	5614.593333	1728.930664	16.311369
-154.976596	5614.593333	1727.916016	-25.693508
-154.976596	5614.593333	1726.900391	-72.427307
-154.976596	5614.593333	1725.885742	-76.800980
-154.976596	5614.593333	1724.870117	1.156195
-154.976596	5614.593333	1723.853516	-19.771545
-154.976596	5614.593333	1722.837891	187.465973
-154.976596	5614.593333	1721.822266	15.928352
-154.976596	5614.593333	1720.805664	1.971996
-154.976596	5614.593333	1719.789063	-21.413536
-154.976596	5614.593333	1718.772461	-44.820854
-154.976596	5614.593333	1717.754883	-2.449303
-154.976596	5614.593333	1716.738281	-122.249336
-154.976596	5614.593333	1715.720703	18.728811
-154.976596	5614.593333	1714.703125	140.834244
-154.976596	5614.593333	1713.685547	-206.808853
-154.976596	5614.593333	1712.667969	-82.419006
-154.976596	5614.593333	1711.649414	-73.136147
-154.976596	5614.593333	1710.630859	76.933876
-154.976596	5614.593333	1709.612305	-99.252678
-154.976596	5614.593333	1708.593750	-87.713188
-154.976596	5614.593333	1707.575195	-45.712097
-154.976596	5614.593333	1706.555664	-104.604248
-154.976596	5614.593333	1705.536133	-65.022690
-154.976596	5614.593333	1704.516602	84.697830
-154.976596	5614.593333	1703.497070	-98.494217
-154.976596	5614.593333	1702.477539	-89.483376
-154.976596	5614.593333	1701.457031	-68.794502
-154.976596	5614.593333	1700.437500	-174.630112
-154.976596	5614.593333	1699.416992	31.035976
-154.976596	5614.593333	1698.395508	-28.010895
-154.976596	5614.593333	1697.375000	-51.937943
-154.976596	5614.593333	1696.354492	-132.060104
-154.976596	5614.593333	1695.333008	-41.342762
-154.976596	5614.593333	1694.311523	-161.269272
-154.976596	5614.593333	1693.290039	-49.578636
-154.976596	5614.593333	1692.267578	-66.601524
-154.976596	5614.593333	1691.246094	68.363281
-154.976596	5614.593333	1690.223633	-114.723808
-154.976596	5614.593333	1689.201172	-56.996395
-154.976596	5614.593333	1688.178711	3.022368
-154.976596	5614.593333	1687.155273	-86.558846
-154.976596	5614.593333	1686.132813	10.773927
-154.976596	5614.593333	1685.109375	-27.433159
-154.976596	5614.593333	1684.085938	-100.679794
-154.976596	5614.593333	1683.062500	101.594856
-154.976596	5614.593333	1682.039063	313.105957
-154.976596	5614.593333	1681.014648	134.734558
-154.976596	5614.593333	1679.990234	-34.255295
-154.976596	5614.593333	1678.965820	6.774424
-154.976596	5614.593333	1677.941406	-33.874210
-154.976596	5614.593333	1676.916992	228.653610
-154.976596	5614.593333	1675.891602	211.247650
-154.976596	5614.593333	1674.866211	95.914284
-154.976596	5614.593333	1673.840820	66.845238
-154.976596	5614.593333	1672.815430	54.080883
-154.976596	5614.593333	1671.790039	292.934052
-154.976596	5614.593333	1670.763672	84.410683
-154.976596	5614.593333	1669.737305	15.691032
-154.976596	5614.593333	1668.710938	82.036201
-154.976596	5614.593333	1667.684570	155.322510
-154.976596	5614.593333	1666.658203	35.365746
-154.976596	5614.593333	1665.630859	201.679565
-154.976596	5614.593333	1664.603516	86.373077
-154.976596	5614.593333	1663.576172	154.874359
-154.976596	5614.593333	1662.548828	-20.883623
-154.976596	5614.593333	1661.520508	-43.118660
-154.976596	5614.593333	1660.493164	48.569817
-154.976596	5614.593333	1659.464844	65.816124
-154.976596	5614.593333	1658.436523	85.365173
-154.976596	5614.593333	1657.408203	65.390198
-154.976596	5614.593333	1656.378906	24.494627
-154.976596	5614.593333	1655.350586	-16.393492
-154.976596	5614.593333	1654.321289	325.892273
-154.976596	5614.593333	1653.291992	240.813736
-154.976596	5614.593333	1652.261719	162.714508
-154.976596	5614.593333	1651.232422	235.499283
-154.976596	5614.593333	1650.202148	187.573715
-154.976596	5614.593333	1649.171875	77.012894
-154.976596	5614.593333	1648.141602	414.164886
-154.976596	5614.593333	1647.111328	231.688278
-154.976596	5614.593333	1646.080078	401.705963
-154.976596	5614.593333	1645.049805	409.378632
-154.976596	5614.593333	1644.018555	326.637207
-154.976596	5614.593333	1642.987305	269.409424
-154.976596	5614.593333	1641.955078	207.555435
-154.976596	5614.593333	1640.923828	453.811188
-154.976596	5614.593333	1639.891602	417.404419
-154.976596	5614.593333	1638.859375	276.804901
-154.976596	5614.593333	1637.827148	309.885101
-154.976596	5614.593333	1636.794922	516.544861
-154.976596	5614.593333	1635.761719	269.528107
-154.976596	5614.593333	1634.729492	216.962433
-154.976596	5614.593333	1633.696289	291.637115
-154.976596	5614.593333	1632.662109	551.299683
-154.976596	5614.593333	1631.628906	648.994568
-154.976596	5614.593333	1630.594727	580.181152
-154.976596	5614.593333	1629.561523	599.232971
-154.976596	5614.593333	1628.527344	639.067322
-154.976596	5614.593333	1627.493164	503.276978
-154.976596	5614.593333	1626.458008	476.107849
-154.976596	5614.593333	1625.423828	492.837952
-154.976596	5614.593333	1624.388672	264.771210
-154.976596	5614.593333	1623.353516	288.453552
-154.976596	5614.593333	1622.318359	459.860016
-154.976596	5614.593333	1621.282227	211.152588
-154.976596	5614.593333	1620.247070	456.346497
-154.976596	5614.593333	1619.210938	297.710571
-154.976596	5614.593333	1618.174805	438.991913
-154.976596	5614.593333	1617.137695	333.457977
-154.976596	5614.593333	1616.101563	421.649384
-154.976596	5614.593333	1615.064453	424.508820
-154.976596	5614.593333	1614.027344	508.037262
-154.976596	5614.593333	1612.990234	476.320099
-154.976596	5614.593333	1611.953125	458.441772
-154.976596	5614.593333	1610.916016	687.040405
-154.976596	5614.593333	1609.877930	524.042725
-154.976596	5614.593333	1608.839844	453.213257
-154.976596	5614.593333	1607.801758	686.292786
-154.976596	5614.593333	1606.763672	797.299255
-154.976596	5614.593333	1605.724609	866.841980
-154.976596	5614.593333	1604.685547	828.228638
-154.976596	5614.593333	1603.646484	877.048462
-154.976596	5614.593333	1602.607422	769.467896
-154.976596	5614.593333	1601.568359	963.157349
-154.976596	5614.593333	1600.528320	1037.228149
-154.976596	5614.593333	1599.489258	1069.911987
-154.976596	5614.593333	1598.449219	1097.989746
-154.976596	5614.593333	1597.408203	1362.712891
-154.976596	5614.593333	1596.368164	1138.056396
-154.976596	5614.593333	1595.327148	996.173096
-154.976596	5614.593333	1594.287109	950.804443
-154.976596	5614.593333	1593.246094	841.175720
-154.976596	5614.593333	1592.204102	954.246460
-154.976596	5614.593333	1591.163086	856.159302
-154.976596	5614.593333	1590.121094	549.321289
-154.976596	5614.593333	1589.079102	832.176514
-154.976596	5614.593333	1588.037109	768.607300
-154.976596	5614.593333	1586.995117	817.440186
-154.976596	5614.593333	1585.953125	733.292847
-154.976596	5614.593333	1584.910156	738.584412
-154.976596	5614.593333	1583.867188	569.715027
-154.976596	5614.593333	1582.824219	614.020996
-154.976596	5614.593333	1581.781250	676.652161
-154.976596	5614.593333	1580.737305	647.651794
-154.976596	5614.593333	1579.693359	675.930664
-154.976596	5614.593333	1578.649414	660.714783
-154.976596	5614.593333	1577.605469	711.905945
-154.976596	5614.593333	1576.561523	804.290710
-154.976596	5614.593333	1575.516602	713.597900
-154.976596	5614.593333	1574.472656	609.239258
-154.976596	5614.593333	1573.427734	626.162415
-154.976596	5614.593333	1572.381836	693.402954
-154.976596	5614.593333	1571.336914	504.568726
-154.976596	5614.593333	1570.291016	482.696320
-154.976596	5614.593333	1569.246094	732.833923
-154.976596	5614.593333	1568.200195	601.287720
-154.976596	5614.593333	1567.153320	497.225220
-154.976596	5614.593333	1566.107422	623.930786
-154.976596	5614.593333	1565.060547	529.084778
-154.976596	5614.593333	1564.013672	594.127869
-154.976596	5614.593333	1562.966797	631.775391
-154.976596	5614.593333	1561.919922	589.550110
-154.976596	5614.593333	1560.872070	556.488953
-154.976596	5614.593333	1559.825195	470.998901
-154.976596	5614.593333	1558.777344	609.100525
-154.976596	5614.593333	1557.729492	393.687531
-154.976596	5614.593333	1556.680664	356.229401
-154.976596	5614.593333	1555.632813	268.665222
-154.976596	5614.593333	1554.583984	156.087051
-154.976596	5614.593333	1553.535156	474.266357
-154.976596	5614.593333	1552.486328	400.479889
-154.976596	5614.593333	1551.436523	276.631897
-154.976596	5614.593333	1550.387695	344.169983
-154.976596	5614.593333	1549.337891	309.243042
-154.976596	5614.593333	1548.288086	442.821655
-154.976596	5614.593333	1547.238281	314.629822
-154.976596	5614.593333	1546.187500	227.475250
-154.976596	5614.593333	1545.136719	110.807884
-154.976596	5614.593333	1544.086914	362.730835
-154.976596	5614.593333	1543.035156	266.610077
-154.976596	5614.593333	1541.984375	263.792267
-154.976596	5614.593333	1540.933594	240.548080
-154.976596	5614.593333	1539.881836	226.432495
-154.976596	5614.593333	1538.830078	207.811264
-154.976596	5614.593333	1537.778320	434.611481
-154.976596	5614.593333	1536.725586	163.872559
-154.976596	5614.593333	1535.673828	188.528488
-154.976596	5614.593333	1534.621094	451.629486
-154.976596	5614.593333	1533.568359	485.365295
-154.976596	5614.593333	1532.515625	416.983368
-154.976596	5614.593333	1531.461914	625.520386
-154.976596	5614.593333	1530.409180	532.251648
-154.976596	5614.593333	1529.355469	466.273682
-154.976596	5614.593333	1528.301758	611.284851
-154.976596	5614.593333	1527.247070	593.005615
-154.976596	5614.593333	1526.193359	479.558594
-154.976596	5614.593333	1525.138672	379.789612
-154.976596	5614.593333	1524.083984	583.771912
-154.976596	5614.593333	1523.029297	465.972595
-154.976596	5614.593333	1521.974609	210.075546
-154.976596	5614.593333	1520.918945	316.694000
-154.976596	5614.593333	1519.863281	262.536713
-154.976596	5614.593333	1518.807617	287.680206
-154.976596	5614.593333	1517.751953	95.555412
-154.976596	5614.593333	1516.696289	14.439022
-154.976596	5614.593333	1515.639648	17.109442
-154.976596	5614.593333	1514.583008	110.307487
-154.976596	5614.593333	1513.526367	149.229736
-154.976596	5614.593333	1512.469727	38.933136
-154.976596	5614.593333	1511.412109	62.109318
-154.976596	5614.593333	1510.355469	31.073147
-154.976596	5614.593333	1509.297852	2.348305
-154.976596	5614.593333	1508.240234	210.926315
-154.976596	5614.593333	1507.181641	234.219696
-154.976596	5614.593333	1506.124023	106.225571
-154.976596	5614.593333	1505.065430	188.331223
-154.976596	5614.593333	1504.006836	-18.537436
-154.976596	5614.593333	1502.948242	142.655014
-154.976596	5614.593333	1501.888672	109.738297
-154.976596	5614.593333	1500.830078	29.501045
-154.976596	5614.593333	1499.770508	93.716736
-154.976596	5614.593333	1498.710938	101.566895
-154.976596	5614.593333	1497.650391	-34.864697
-154.976596	5614.593333	1496.590820	160.229782
-154.976596	5614.593333	1495.530273	10.410278
-154.976596	5614.593333	1494.469727	9.440151
-154.976596	5614.593333	1493.409180	215.814758
-154.976596	5614.593333	1492.348633	104.513802
-154.976596	5614.593333	1491.287109	130.694580
-154.976596	5614.593333	1490.225586	181.683731
-154.976596	5614.593333	1489.164063	140.391632
-154.976596	5614.593333	1488.102539	180.201309
-154.976596	5614.593333	1487.041016	357.327820
-154.976596	5614.593333	1485.978516	158.664001
-154.976596	5614.593333	1484.916016	160.359512
-154.976596	5614.593333	1483.853516	364.508270
-154.976596	5614.593333	1482.791016	190.846832
-154.976596	5614.593333	1481.727539	293.844391
-154.976596	5614.593333	1480.664063	270.981415
-154.976596	5614.593333	1479.600586	277.383087
-154.976596	5614.593333	1478.537109	315.314270
-154.976596	5614.593333	1477.473633	274.614960
-154.976596	5614.593333	1476.409180	249.741882
-154.976596	5614.593333	1475.344727	222.701645
-154.976596	5614.593333	1474.280273	301.240509
-154.976596	5614.593333	1473.215820	267.726776
-154.976596	5614.593333	1472.151367	510.076660
-154.976596	5614.593333	1471.085938	485.338867
-154.976596	5614.593333	1470.020508	510.296112
-154.976596	5614.593333	1468.955078	521.641968
-154.976596	5614.593333	1467.888672	566.901733
-154.976596	5614.593333	1466.823242	587.208740
-154.976596	5614.593333	1465.756836	695.489685
-154.976596	5614.593333	1464.690430	603.978149
-154.976596	5614.593333	1463.624023	492.613739
-154.976596	5614.593333	1462.556641	708.080383
-154.976596	5614.593333	1461.490234	807.098572
-154.976596	5614.593333	1460.422852	666.915894
-154.976596	5614.593333	1459.355469	846.043945
-154.976596	5614.593333	1458.287109	646.368103
-154.976596	5614.593333	1457.219727	721.078064
-154.976596	5614.593333	1456.151367	721.556702
-154.976596	5614.593333	1455.083008	533.063354
-154.976596	5614.593333	1454.014648	736.084595
-154.976596	5614.593333	1452.945313	763.384644
-154.976596	5614.593333	1451.876953	536.957642
-154.976596	5614.593333	1450.807617	520.028503
-154.976596	5614.593333	1449.738281	634.142639
-154.976596	5614.593333	1448.668945	381.354828
-154.976596	5614.593333	1447.598633	497.635681
-154.976596	5614.593333	1446.528320	270.569489
-154.976596	5614.593333	1445.458008	397.800781
-154.976596	5614.593333	1444.387695	478.418549
-154.976596	5614.593333	1443.317383	362.946259
-154.976596	5614.593333	1442.246094	189.626312
-154.976596	5614.593333	1441.174805	373.811218
-154.976596	5614.593333	1440.103516	103.993225
-154.976596	5614.593333	1439.032227	288.126434
-154.976596	5614.593333	1437.960938	182.068344
-154.976596	5614.593333	1436.888672	58.260792
-154.976596	5614.593333	1435.816406	-100.671524
-154.976596	5614.593333	1434.744141	160.065369
-154.976596	5614.593333	1433.670898	-163.438065
-154.976596	5614.593333	1432.598633	172.960571
-154.976596	5614.593333	1431.525391	170.172699
-154.976596	5614.593333	1430.452148	393.134277
-154.976596	5614.593333	1429.378906	43.158733
-154.976596	5614.593333	1428.304688	165.878799
-154.976596	5614.593333	1427.231445	10.520319
-154.976596	5614.593333	1426.157227	3.855571
-154.976596	5614.593333	1425.083008	164.634644
-154.976596	5614.593333	1424.007813	33.816620
-154.976596	5614.593333	1422.933594	-22.334042
-154.976596	5614.593333	1421.858398	-90.353241
-154.976596	5614.593333	1420.783203	-245.313370
-154.976596	5614.593333	1419.708008	147.072632
-154.976596	5614.593333	1418.631836	-67.774986
-154.976596	5614.593333	1417.555664	-77.147530
-154.976596	5614.593333	1416.479492	-0.413225
-154.976596	5614.593333	1415.403320	-69.676605
-154.976596	5614.593333	1414.327148	-67.221909
-154.976596	5614.593333	1413.250000	-15.606187
-154.976596	5614.593333	1412.173828	-112.731094
-154.976596	5614.593333	1411.096680	86.449539
-154.976596	5614.593333	1410.018555	170.912354
-154.976596	5614.593333	1408.941406	209.166504
-154.976596	5614.593333	1407.863281	93.835594
-154.976596	5614.593333	1406.785156	-3.384940
-154.976596	5614.593333	1405.707031	1.163989
-154.976596	5614.593333	1404.628906	-17.662239
-154.976596	5614.593333	1403.549805	49.687183
-154.976596	5614.593333	1402.470703	187.723862
-154.976596	5614.593333	1401.391602	9.265079
-154.976596	5614.593333	1400.312500	99.520691
-154.976596	5614.593333	1399.233398	89.279648
-154.976596	5614.593333	1398.153320	31.261944
-154.976596	5614.593333	1397.073242	150.391022
-154.976596	5614.593333	1395.993164	-53.161377
-154.976596	5614.593333	1394.913086	143.386856
-154.976596	5614.593333	1393.832031	179.269592
-154.976596	5614.593333	1392.750977	133.432495
-154.976596	5614.593333	1391.669922	-171.310135
-154.976596	5614.593333	1390.588867	49.308197
-154.976596	5614.593333	1389.506836	-72.299774
-154.976596	5614.593333	1388.425781	18.267612
-154.976596	5614.593333	1387.343750	-86.347549
-154.976596	5614.593333	1386.261719	230.780563
-154.976596	5614.593333	1385.178711	-160.418518
-154.976596	5614.593333	1384.096680	48.174229
-154.976596	5614.593333	1383.013672	95.594841
-154.976596	5614.593333	1381.930664	48.935913
-154.976596	5614.593333	1380.846680	-22.865017
-154.976596	5614.593333	1379.763672	-147.688370
-154.976596	5614.593333	1378.679688	89.161438
-154.976596	5614.593333	1377.595703	4.743612
-154.976596	5614.593333	1376.511719	100.936859
-154.976596	5614.593333	1375.427734	8.387478
-154.976596	5614.593333	1374.342773	-85.345619
-154.976596	5614.593333	1373.257813	40.206684
-154.976596	5614.593333	1372.172852	166.940674
-154.976596	5614.593333	1371.087891	208.448929
-154.976596	5614.593333	1370.001953	199.359879
-154.976596	5614.593333	1368.916992	246.498108
-154.976596	5614.593333	1367.831055	368.941071
-154.976596	5614.593333	1366.744141	626.903503
-154.976596	5614.593333	1365.658203	607.631592
-154.976596	5614.593333	1364.571289	915.852417
-154.976596	5614.593333	1363.484375	988.123596
-154.976596	5614.593333	1362.397461	944.614685
-154.976596	5614.593333	1361.310547	1342.165405
-154.976596	5614.593333	1360.222656	1398.347900
-154.976596	5614.593333	1359.135742	1521.779907
-154.976596	5614.593333	1358.047852	1480.520996
-154.976596	5614.593333	1356.958984	1412.206787
-154.976596	5614.593333	1355.871094	1498.682373
-154.976596	5614.593333	1354.782227	1508.414795
-154.976596	5614.593333	1353.693359	1246.423950
-154.976596	5614.593333	1352.604492	1356.025269
-154.976596	5614.593333	1351.515625	1192.613647
-154.976596	5614.593333	1350.425781	1029.249268
-154.976596	5614.593333	1349.335938	1057.547485
-154.976596	5614.593333	1348.246094	1031.970825
-154.976596	5614.593333	1347.156250	816.709595
-154.976596	5614.593333	1346.066406	656.353333
-154.976596	5614.593333	1344.975586	791.790161
-154.976596	5614.593333	1343.884766	689.923462
-154.976596	5614.593333	1342.793945	760.883789
-154.976596	5614.593333	1341.702148	615.633728
-154.976596	5614.593333	1340.611328	694.533508
-154.976596	5614.593333	1339.519531	811.362000
-154.976596	5614.593333	1338.427734	338.633636
-154.976596	5614.593333	1337.334961	276.674408
-154.976596	5614.593333	1336.243164	344.763153
-154.976596	5614.593333	1335.150391	196.505295
-154.976596	5614.593333	1334.057617	149.161163
-154.976596	5614.593333	1332.964844	58.759731
-154.976596	5614.593333	1331.871094	121.185768
-154.976596	5614.593333	1330.778320	149.470642
-154.976596	5614.593333	1329.684570	188.751373
-154.976596	5614.593333	1328.590820	190.792984
-154.976596	5614.593333	1327.496094	224.410065
-154.976596	5614.593333	1326.402344	38.708843
-154.976596	5614.593333	1325.307617	-6.900878
-154.976596	5614.593333	1324.212891	151.122116
-154.976596	5614.593333	1323.117188	187.313263
-154.976596	5614.593333	1322.022461	260.171051
-154.976596	5614.593333	1320.926758	62.150490
-154.976596	5614.593333	1319.831055	-9.699542
-154.976596	5614.593333	1318.735352	224.788589
-154.976596	5614.593333	1317.638672	158.401443
-154.976596	5614.593333	1316.542969	76.954552
-154.976596	5614.593333	1315.446289	138.727478
-154.976596	5614.593333	1314.349609	97.964218
-154.976596	5614.593333	1313.251953	136.154602
-154.976596	5614.593333	1312.155273	95.594322
-154.976596	5614.593333	1311.057617	-25.432865
-154.976596	5614.593333	1309.959961	-113.609886
-154.976596	5614.593333	1308.862305	156.257248
-154.976596	5614.593333	1307.763672	9.777671
-154.976596	5614.593333	1306.665039	201.192184
-154.976596	5614.593333	1305.566406	73.341232
-154.976596	5614.593333	1304.467773	57.932468
-154.976596	5614.593333	1303.369141	194.168655
-154.976596	5614.593333	1302.269531	23.529194
-154.976596	5614.593333	1301.169922	106.554520
-154.976596	5614.593333	1300.070313	108.174919
-154.976596	5614.593333	1298.970703	-35.729122
-154.976596	5614.593333	1297.870117	127.797516
-154.976596	5614.593333	1296.769531	51.325394
-154.976596	5614.593333	1295.668945	74.678352
-154.976596	5614.593333	1294.568359	-23.794382
-154.976596	5614.593333	1293.466797	-133.671753
-154.976596	5614.593333	1292.366211	-253.012802
-154.976596	5614.593333	1291.264648	-118.675209
-154.976596	5614.593333	1290.162109	-70.955177
-154.976596	5614.593333	1289.060547	-125.291794
-154.976596	5614.593333	1287.958008	-149.529907
-154.976596	5614.593333	1286.855469	-125.692963
-154.976596	5614.593333	1285.752930	-132.408310
-154.976596	5614.593333	1284.650391	-134.763275
-154.976596	5614.593333	1283.546875	-86.482048
-154.976596	5614.593333	1282.444336	-127.817551
-154.976596	5614.593333	1281.339844	-287.185730
-154.976596	5614.593333	1280.236328	-56.595268
-154.976596	5614.593333	1279.132813	-159.286957
-154.976596	5614.593333	1278.028320	-133.695831
-154.976596	5614.593333	1276.923828	115.230553
-154.976596	5614.593333	1275.819336	-75.467186
-154.976596	5614.593333	1274.713867	0.832614
-154.976596	5614.593333	1273.608398	16.302456
-154.976596	5614.593333	1272.503906	25.855944
-154.976596	5614.593333	1271.397461	30.890280
-154.976596	5614.593333	1270.291992	57.701786
-154.976596	5614.593333	1269.185547	62.362488
-154.976596	5614.593333	1268.080078	34.126644
-154.976596	5614.593333	1266.972656	85.630005
-154.976596	5614.593333	1265.866211	91.569992
-154.976596	5614.593333	1264.759766	154.534225
-154.976596	5614.593333	1263.652344	104.046921
-154.976596	5614.593333	1262.544922	-9.860283
-154.976596	5614.593333	1261.436523	44.911091
-154.976596	5614.593333	1260.329102	-32.337128
-154.976596	5614.593333	1259.220703	123.223297
-154.976596	5614.593333	1258.112305	-1.281340
-154.976596	5614.593333	1257.003906	-18.046778
-154.976596	5614.593333	1255.895508	-71.070496
-154.976596	5614.593333	1254.786133	69.721672
-154.976596	5614.593333	1253.676758	-21.048952
-154.976596	5614.593333	1252.567383	-78.742157
-154.976596	5614.593333	1251.458008	4.855507
-154.976596	5614.593333	1250.347656	-37.734463
-154.976596	5614.593333	1249.237305	21.782042
-154.976596	5614.593333	1248.126953	18.478817
-154.976596	5614.593333	1247.016602	84.798805
-154.976596	5614.593333	1245.905273	168.940323
-154.976596	5614.593333	1244.793945	33.578274
-154.976596	5614.593333	1243.682617	148.805984
-154.976596	5614.593333	1242.571289	354.782227
-154.976596	5614.593333	1241.459961	281.752655
-154.976596	5614.593333	1240.347656	315.821899
-154.976596	5614.593333	1239.235352	281.539825
-154.976596	5614.593333	1238.123047	163.279007
-154.976596	5614.593333	1237.009766	267.498657
-154.976596	5614.593333	1235.897461	303.423706
-154.976596	5614.593333	1234.784180	292.905548
-154.976596	5614.593333	1233.670898	407.151184
-154.976596	5614.593333	1232.556641	234.161758
-154.976596	5614.593333	1231.443359	200.110428
-154.976596	5614.593333	1230.329102	216.432632
-154.976596	5614.593333	1229.214844	151.036499
-154.976596	5614.593333	1228.099609	232.646866
-154.976596	5614.593333	1226.985352	338.903625
-154.976596	5614.593333	1225.870117	266.631897
-154.976596	5614.593333	1224.754883	281.376495
-154.976596	5614.593333	1223.639648	367.178009
-154.976596	5614.593333	1222.523438	368.981110
-154.976596	5614.593333	1221.408203	297.487061
-154.976596	5614.593333	1220.291992	241.587509
-154.976596	5614.593333	1219.174805	349.075012
-154.976596	5614.593333	1218.058594	315.769043
-154.976596	5614.593333	1216.941406	400.571960
-154.976596	5614.593333	1215.824219	482.093994
-154.976596	5614.593333	1214.707031	585.285889
-154.976596	5614.593333	1213.589844	554.685303
-154.976596	5614.593333	1212.471680	441.095306
-154.976596	5614.593333	1211.353516	585.656433
-154.976596	5614.593333	1210.235352	570.651367
-154.976596	5614.593333	1209.117188	657.389343
-154.976596	5614.593333	1207.998047	529.239807
-154.976596	5614.593333	1206.878906	431.168396
-154.976596	5614.593333	1205.759766	506.144501
-154.976596	5614.593333	1204.640625	418.470398
-154.976596	5614.593333	1203.520508	413.849548
-154.976596	5614.593333	1202.401367	383.934387
-154.976596	5614.593333	1201.281250	309.283600
-154.976596	5614.593333	1200.160156	231.075546
-154.976596	5614.593333	1199.040039	391.587555
-154.976596	5614.593333	1197.918945	289.898895
-154.976596	5614.593333	1196.797852	287.984985
-154.976596	5614.593333	1195.676758	352.380554
-154.976596	5614.593333	1194.555664	392.244415
-154.976596	5614.593333	1193.433594	444.187256
-154.976596	5614.593333	1192.311523	321.706970
-154.976596	5614.593333	1191.189453	381.707458
-154.976596	5614.593333	1190.066406	351.048431
-154.976596	5614.593333	1188.944336	411.561066
-154.976596	5614.593333	1187.821289	309.271790
-154.976596	5614.593333	1186.698242	395.617035
-154.976596	5614.593333	1185.574219	302.126373
-154.976596	5614.593333	1184.451172	326.650574
-154.976596	5614.593333	1183.327148	221.414276
-154.976596	5614.593333	1182.203125	408.178131
-154.976596	5614.593333	1181.078125	385.780304
-154.976596	5614.593333	1179.954102	263.875336
-154.976596	5614.593333	1178.829102	223.917328
-154.976596	5614.593333	1177.704102	230.923752
-154.976596	5614.593333	1176.579102	71.965546
-154.976596	5614.593333	1175.453125	162.250992
-154.976596	5614.593333	1174.327148	191.990982
-154.976596	5614.593333	1173.201172	184.641174
-154.976596	5614.593333	1172.075195	181.372131
-154.976596	5614.593333	1170.949219	122.066284
-154.976596	5614.593333	1169.822266	285.019775
-154.976596	5614.593333	1168.695313	208.092987
-154.976596	5614.593333	1167.568359	251.526718
-154.976596	5614.593333	1166.440430	258.461853
-154.976596	5614.593333	1165.313477	51.186871
-154.976596	5614.593333	1164.185547	-25.464390
-154.976596	5614.593333	1163.057617	128.572556
-154.976596	5614.593333	1161.928711	86.660210
-154.976596	5614.593333	1160.800781	172.543213
-154.976596	5614.593333	1159.671875	205.431290
-154.976596	5614.593333	1158.541992	31.093576
-154.976596	5614.593333	1157.413086	-8.876552
-154.976596	5614.593333	1156.283203	91.692459
-154.976596	5614.593333	1155.154297	196.053207
-154.976596	5614.593333	1154.023438	-14.456335
-154.976596	5614.593333	1152.893555	-81.074219
-154.976596	5614.593333	1151.763672	104.092262
-154.976596	5614.593333	1150.632813	-57.930443
-154.976596	5614.593333	1149.501953	43.208469
-154.976596	5614.593333	1148.370117	5.928971
-154.976596	5614.593333	1147.239258	94.481918
-154.976596	5614.593333	1146.107422	185.568909
-154.976596	5614.593333	1144.975586	237.314255
-154.976596	5614.593333	1143.843750	258.218597
-154.976596	5614.593333	1142.710938	211.099335
-154.976596	5614.593333	1141.578125	339.186249
-154.976596	5614.593333	1140.445313	418.898010
-154.976596	5614.593333	1139.312500	314.310486
-154.976596	5614.593333	1138.178711	347.943115
-154.976596	5614.593333	1137.045898	417.285370
-154.976596	5614.593333	1135.912109	334.746552
-154.976596	5614.593333	1134.777344	411.323395
-154.976596	5614.593333	1133.643555	214.252548
-154.976596	5614.593333	1132.508789	111.993996
-154.976596	5614.593333	1131.374023	295.428131
-154.976596	5614.593333	1130.239258	302.531250
-154.976596	5614.593333	1129.104492	251.417297
-154.976596	5614.593333	1127.968750	296.790192
-154.976596	5614.593333	1126.833008	194.857513
-154.976596	5614.593333	1125.697266	249.861191
-154.976596	5614.593333	1124.560547	283.757019
-154.976596	5614.593333	1123.424805	349.088654
-154.976596	5614.593333	1122.288086	204.393860
-154.976596	5614.593333	1121.151367	158.355011
-154.976596	5614.593333	1120.013672	255.036194
-154.976596	5614.593333	1118.876953	318.400208
-154.976596	5614.593333	1117.739258	226.831360
-154.976596	5614.593333	1116.601563	238.213257
-154.976596	5614.593333	1115.462891	174.734924
-154.976596	5614.593333	1114.324219	246.173599
-154.976596	5614.593333	1113.186523	191.498001
-154.976596	5614.593333	1112.046875	185.529465
-154.976596	5614.593333	1110.908203	214.172729
-154.976596	5614.593333	1109.769531	85.591385
-154.976596	5614.593333	1108.629883	83.112030
-154.976596	5614.593333	1107.490234	121.702477
-154.976596	5614.593333	1106.349609	130.666809
-154.976596	5614.593333	1105.209961	98.200806
-154.976596	5614.593333	1104.069336	104.734169
-154.976596	5614.593333	1102.928711	131.777771
-154.976596	5614.593333	1101.787109	48.289913
-154.976596	5614.593333	1100.646484	170.103302
-154.976596	5614.593333	1099.504883	113.291985
-154.976596	5614.593333	1098.363281	176.770248
-154.976596	5614.593333	1097.221680	-75.459656
-154.976596	5614.593333	1096.079102	149.827530
-154.976596	5614.593333	1094.936523	-49.646160
-154.976596	5614.593333	1093.793945	40.756752
-154.976596	5614.593333	1092.651367	-73.309631
-154.976596	5614.593333	1091.507813	100.838371
-154.976596	5614.593333	1090.364258	121.531769
-154.976596	5614.593333	1089.220703	32.772820
-154.976596	5614.593333	1088.077148	24.776661
-154.976596	5614.593333	1086.933594	-105.704941
-154.976596	5614.593333	1085.789063	80.159042
-154.976596	5614.593333	1084.644531	113.052795
-154.976596	5614.593333	1083.499023	-67.984703
-154.976596	5614.593333	1082.354492	-53.675518
-154.976596	5614.593333	1081.208984	74.274277
-154.976596	5614.593333	1080.063477	-89.068192
-154.976596	5614.593333	1078.917969	-60.664509
-154.976596	5614.593333	1077.771484	-52.540283
-154.976596	5614.593333	1076.625977	-174.388474
-154.976596	5614.593333	1075.479492	-44.960823
-154.976596	5614.593333	1074.332031	-20.300060
-154.976596	5614.593333	1073.185547	-70.219078
-154.976596	5614.593333	1072.038086	-85.559143
-154.976596	5614.593333	1070.890625	-68.711372
-154.976596	5614.593333	1069.743164	-99.585098
-154.976596	5614.593333	1068.594727	-14.457592
-154.976596	5614.593333	1067.447266	-137.517899
-154.976596	5614.593333	1066.298828	60.818192
-154.976596	5614.593333	1065.149414	47.396191
-154.976596	5614.593333	1064.000977	33.845573
-154.976596	5614.593333	1062.851563	253.203049
-154.976596	5614.593333	1061.702148	48.769646
-154.976596	5614.593333	1060.552734	95.137039
-154.976596	5614.593333	1059.402344	53.091217
-154.976596	5614.593333	1058.252930	-122.386940
-154.976596	5614.593333	1057.102539	5.855684
-154.976596	5614.593333	1055.951172	-108.714806
-154.976596	5614.593333	1054.800781	-10.321436
-154.976596	5614.593333	1053.649414	3.689709
-154.976596	5614.593333	1052.498047	24.575981
-154.976596	5614.593333	1051.346680	12.775272
-154.976596	5614.593333	1050.194336	-165.335342
-154.976596	5614.593333	1049.042969	-73.461983
-154.976596	5614.593333	1047.890625	-9.691243
-154.976596	5614.593333	1046.738281	-11.923329
-154.976596	5614.593333	1045.584961	9.121550
-154.976596	5614.593333	1044.431641	-65.403999
-154.976596	5614.593333	1043.278320	101.366165
-154.976596	5614.593333	1042.125000	-3.831222
-154.976596	5614.593333	1040.971680	70.683464
-154.976596	5614.593333	1039.817383	-28.065500
-154.976596	5614.593333	1038.663086	40.054150
-154.976596	5614.593333	1037.508789	30.999392
-154.976596	5614.593333	1036.353516	1.888155
-154.976596	5614.593333	1035.198242	6.103308
-154.976596	5614.593333	1034.042969	21.229761
-154.976596	5614.593333	1032.887695	-112.984001
-154.976596	5614.593333	1031.732422	30.647032
-154.976596	5614.593333	1030.576172	91.580498
-154.976596	5614.593333	1029.419922	84.467979
-154.976596	5614.593333	1028.263672	123.251839
-154.976596	5614.593333	1027.106445	97.678665
-154.976596	5614.593333	1025.949219	68.466576
-154.976596	5614.593333	1024.792969	-2.437679
-154.976596	5614.593333	1023.634766	122.501503
-154.976596	5614.593333	1022.477539	79.614189
-154.976596	5614.593333	1021.319336	16.739115
-154.976596	5614.593333	1020.161133	84.162437
-154.976596	5614.593333	1019.002930	-61.291149
-154.976596	5614.593333	1017.843750	-16.035927
-154.976596	5614.593333	1016.684570	-155.769516
-154.976596	5614.593333	1015.525391	-60.654053
-154.976596	5614.593333	1014.366211	-27.784248
-154.976596	5614.593333	1013.207031	-195.676224
-154.976596	5614.593333	1012.046875	119.242897
-154.976596	5614.593333	1010.886719	-161.573944
-154.976596	5614.593333	1009.726563	114.108109
-154.976596	5614.593333	1008.565430	37.614300
-154.976596	5614.593333	1007.404297	-102.267365
-154.976596	5614.593333	1006.243164	-28.293716
-154.976596	5614.593333	1005.082031	235.411240
-154.976596	5614.593333	1003.920898	171.149780
-154.976596	5614.593333	1002.758789	64.241104
-154.976596	5614.593333	1001.596680	141.251724
-154.976596	5614.593333	1000.433594	-50.772625
-154.976596	5614.593333	999.271484	-29.212420
-154.976596	5614.593333	998.108398	88.489555
-154.976596	5614.593333	996.945313	95.611862
-154.976596	5614.593333	995.782227	35.228264
-154.976596	5614.593333	994.618164	198.455139
-154.976596	5614.593333	993.454102	61.561363
-154.976596	5614.593333	992.290039	272.180298
-154.976596	5614.593333	991.125977	363.141113
-154.976596	5614.593333	989.960938	481.258728
-154.976596	5614.593333	988.796875	422.103058
-154.976596	5614.593333	987.630859	629.152039
-154.976596	5614.593333	986.465820	484.944458
-154.976596	5614.593333	985.300781	485.518860
-154.976596	5614.593333	984.134766	390.423981
-154.976596	5614.593333	982.968750	430.283020
-154.976596	5614.593333	981.801758	194.058228
-154.976596	5614.593333	980.635742	262.331146
-154.976596	5614.593333	979.468750	269.767395
-154.976596	5614.593333	978.301758	82.855057
-154.976596	5614.593333	977.133789	178.959549
-154.976596	5614.593333	975.966797	47.685169
-154.976596	5614.593333	974.798828	113.263657
-154.976596	5614.593333	973.630859	41.267231
-154.976596	5614.593333	972.461914	-54.333801
-154.976596	5614.593333	971.293945	60.131496
-154.976596	5614.593333	970.125000	-107.307999
-154.976596	5614.593333	968.956055	26.187635
-154.976596	5614.593333	967.786133	-117.331818
-154.976596	5614.593333	966.617188	-44.568703
-154.976596	5614.593333	965.447266	-45.951900
-154.976596	5614.593333	964.276367	67.453163
-154.976596	5614.593333	963.106445	-56.736320
-154.976596	5614.593333	961.935547	81.453415
-154.976596	5614.593333	960.764648	-33.398216
-154.976596	5614.593333	959.593750	-73.121674
-154.976596	5614.593333	958.422852	-11.562061
-154.976596	5614.593333	957.250977	-55.198189
-154.976596	5614.593333	956.079102	12.668632
-154.976596	5614.593333	954.907227	-97.004456
-154.976596	5614.593333	953.734375	74.893509
-154.976596	5614.593333	952.562500	-73.805359
-154.976596	5614.593333	951.389648	11.255466
-154.976596	5614.593333	950.215820	-32.984043
-154.976596	5614.593333	949.042969	-92.323898
-154.976596	5614.593333	947.869141	102.987755
-154.976596	5614.593333	946.695313	167.080048
-154.976596	5614.593333	945.521484	135.918915
-154.976596	5614.593333	944.346680	-114.020653
-154.976596	5614.593333	943.172852	-41.061310
-154.976596	5614.593333	941.998047	93.040215
-154.976596	5614.593333	940.822266	40.867939
-154.976596	5614.593333	939.647461	50.057407
-154.976596	5614.593333	938.471680	-42.101414
-154.976596	5614.593333	937.295898	-157.775543
-154.976596	5614.593333	936.119141	-139.263107
-154.976596	5614.593333	934.943359	-45.446449
-154.976596	5614.593333	933.766602	163.773285
-154.976596	5614.593333	932.589844	-13.301059
-154.976596	5614.593333	931.413086	49.771080
-154.976596	5614.593333	930.235352	-23.807125
-154.976596	5614.593333	929.057617	55.747234
-154.976596	5614.593333	927.879883	45.720928
-154.976596	5614.593333	926.702148	19.212738
-154.976596	5614.593333	925.523438	-4.941943
-154.976596	5614.593333	924.344727	201.423691
-154.976596	5614.593333	923.166016	7.819574
-154.976596	5614.593333	921.987305	115.277100
-154.976596	5614.593333	920.807617	83.938683
-154.976596	5614.593333	919.627930	84.715881
-154.976596	5614.593333	919.497070	47.963329
-154.976596	5614.593333	918.331055	-117.388145
-154.976596	5614.593333	917.165039	-101.772820
-154.976596	5614.593333	915.999023	-170.769638
-154.976596	5614.593333	914.833008	-110.586464
-154.976596	5614.593333	913.666016	-78.638153
-154.976596	5614.593333	912.499023	91.788269
-154.976596	5614.593333	911.332031	142.398056
-154.976596	5614.593333	910.165039	40.408157
-154.976596	5614.593333	908.997070	-141.349335
-154.976596	5614.593333	907.830078	-15.746149
-154.976596	5614.593333	906.661133	-77.860619
-154.976596	5614.593333	905.493164	-34.456863
-154.976596	5614.593333	904.325195	11.242995
-154.976596	5614.593333	903.156250	-34.522820
-154.976596	5614.593333	901.987305	53.282169
-154.976596	5614.593333	900.818359	28.553633
-154.976596	5614.593333	899.648438	8.491154
-154.976596	5614.593333	898.478516	-114.646553
-154.976596	5614.593333	897.308594	33.866272
-154.976596	5614.593333	896.138672	130.783707
-154.976596	5614.593333	894.968750	-13.458049
-154.976596	5614.593333	893.797852	144.216446
-154.976596	5614.593333	892.626953	84.202278
-154.976596	5614.593333	891.456055	87.343849
-154.976596	5614.593333	890.284180	134.892303
-154.976596	5614.593333	889.113281	187.069000
-154.976596	5614.593333	887.941406	52.170467
-154.976596	5614.593333	886.768555	80.912636
-154.976596	5614.593333	885.596680	86.245995
-154.976596	5614.593333	884.423828	313.506500
-154.976596	5614.593333	883.250977	145.876999
-154.976596	5614.593333	882.078125	92.724380
-154.976596	5614.593333	880.905273	20.886721
-154.976596	5614.593333	879.731445	168.491440
-154.976596	5614.593333	878.557617	201.642853
-154.976596	5614.593333	877.383789	316.426636
-154.976596	5614.593333	876.209961	384.475739
-154.976596	5614.593333	875.035156	368.497559
-154.976596	5614.593333	873.860352	448.115143
-154.976596	5614.593333	872.685547	320.160187
-154.976596	5614.593333	871.510742	395.039612
-154.976596	5614.593333	870.334961	169.207306
-154.976596	5614.593333	869.159180	220.733139
-154.976596	5614.593333	867.983398	137.088974
-154.976596	5614.593333	866.807617	183.890228
-154.976596	5614.593333	865.630859	51.332905
-154.976596	5614.593333	864.454102	39.874649
-154.976596	5614.593333	863.277344	84.262711
-154.976596	5614.593333	862.100586	-78.523232
-154.976596	5614.593333	860.922852	-127.253067
-154.976596	5614.593333	859.745117	-201.576996
-154.976596	5614.593333	858.567383	-85.172562
-154.976596	5614.593333	857.389648	-75.808624
-154.976596	5614.593333	856.210938	-159.470978
-154.976596	5614.593333	855.032227	114.843605
-154.976596	5614.593333	853.853516	177.539581
-154.976596	5614.593333	852.674805	28.747520
-154.976596	5614.593333	851.495117	98.356560
-154.976596	5614.593333	850.315430	225.977890
-154.976596	5614.593333	849.135742	200.266479
-154.976596	5614.593333	847.956055	121.145851
-154.976596	5614.593333	846.775391	109.346878
-154.976596	5614.593333	845.595703	276.219879
-154.976596	5614.593333	844.415039	241.147278
-154.976596	5614.593333	843.233398	233.901688
-154.976596	5614.593333	842.052734	36.462917
-154.976596	5614.593333	840.871094	-174.830170
-154.976596	5614.593333	839.689453	47.455570
-154.976596	5614.593333	838.506836	42.485435
-154.976596	5614.593333	837.325195	49.083153
-154.976596	5614.593333	836.142578	51.022015
-154.976596	5614.593333	834.959961	122.429558
-154.976596	5614.593333	833.777344	38.623341
-154.976596	5614.593333	832.593750	35.868702
-154.976596	5614.593333	831.410156	-152.098877
-154.976596	5614.593333	830.226563	16.414158
-154.976596	5614.593333	829.042969	129.302505
-154.976596	5614.593333	827.858398	91.746002
-154.976596	5614.593333	826.673828	-221.062790
-154.976596	5614.593333	825.489258	-163.756973
-154.976596	5614.593333	824.304688	-83.373970
-154.976596	5614.593333	823.120117	-33.094265
-154.976596	5614.593333	821.934570	-10.588706
-154.976596	5614.593333	820.749023	62.722092
-154.976596	5614.593333	819.562500	-148.166245
-154.976596	5614.593333	818.376953	-26.391920
-154.976596	5614.593333	817.190430	-47.857903
-154.976596	5614.593333	816.003906	-57.790421
-154.976596	5614.593333	814.817383	-58.503750
-154.976596	5614.593333	813.629883	-47.697166
-154.976596	5614.593333	812.442383	-223.803879
-154.976596	5614.593333	811.254883	-171.480942
-154.976596	5614.593333	810.067383	-151.485977
-154.976596	5614.593333	808.878906	-46.201439
-154.976596	5614.593333	807.690430	72.854080
-154.976596	5614.593333	806.501953	-176.941330
-154.976596	5614.593333	805.313477	-110.943428
-154.976596	5614.593333	804.124023	-21.951717
-154.976596	5614.593333	802.934570	-50.491093
-154.976596	5614.593333	801.745117	6.175926
-154.976596	5614.593333	800.555664	-6.272270
-154.976596	5614.593333	799.365234	25.005417
-154.976596	5614.593333	798.175781	58.557766
-154.976596	5614.593333	796.985352	13.841203
-154.976596	5614.593333	795.793945	47.347069
-154.976596	5614.593333	794.603516	248.735062
-154.976596	5614.593333	793.412109	162.564545
-154.976596	5614.593333	792.220703	177.578796
-154.976596	5614.593333	791.028320	91.427406
-154.976596	5614.593333	789.836914	39.771152
-154.976596	5614.593333	788.644531	91.519409
-154.976596	5614.593333	787.452148	111.069283
-154.976596	5614.593333	786.258789	-34.774380
-154.976596	5614.593333	785.066406	3.135097
-154.976596	5614.593333	783.873047	105.297829
-154.976596	5614.593333	782.679688	326.763306
-154.976596	5614.593333	781.485352	176.347580
-154.976596	5614.593333	780.291992	103.992310
-154.976596	5614.593333	779.097656	235.813736
-154.976596	5614.593333	777.903320	156.567459
-154.976596	5614.593333	776.708008	72.753067
-154.976596	5614.593333	775.512695	133.388855
-154.976596	5614.593333	774.318359	24.377441
-154.976596	5614.593333	773.122070	48.305553
-154.976596	5614.593333	771.926758	-10.266227
-154.976596	5614.593333	770.730469	29.668819
-154.976596	5614.593333	769.534180	83.315086
-154.976596	5614.593333	768.337891	72.816780
-154.976596	5614.593333	767.141602	279.782959
-154.976596	5614.593333	765.944336	177.673996
-154.976596	5614.593333	764.747070	240.348663
-154.976596	5614.593333	763.549805	447.114227
-154.976596	5614.593333	762.351563	415.903259
-154.976596	5614.593333	761.154297	846.629456
-154.976596	5614.593333	759.956055	1080.540527
-154.976596	5614.593333	758.757813	1421.776855
-154.976596	5614.593333	757.558594	1970.828369
-154.976596	5614.593333	756.359375	2231.742676
-154.976596	5614.593333	755.160156	2140.735840
-154.976596	5614.593333	753.960938	1896.732544
-154.976596	5614.593333	752.761719	1522.661865
-154.976596	5614.593333	751.561523	1137.319214
-154.976596	5614.593333	750.361328	1010.052856
-154.976596	5614.593333	749.160156	910.212952
-154.976596	5614.593333	747.959961	641.569641
-154.976596	5614.593333	746.758789	594.293518
-154.976596	5614.593333	745.557617	378.261353
-154.976596	5614.593333	744.356445	260.356171
-154.976596	5614.593333	743.154297	251.913269
-154.976596	5614.593333	741.952148	154.576126
-154.976596	5614.593333	740.750000	178.043152
-154.976596	5614.593333	739.547852	108.083534
-154.976596	5614.593333	738.344727	236.307922
-154.976596	5614.593333	737.142578	123.079926
-154.976596	5614.593333	735.939453	105.515213
-154.976596	5614.593333	734.735352	347.449860
-154.976596	5614.593333	733.532227	293.415466
-154.976596	5614.593333	732.328125	410.047241
-154.976596	5614.593333	731.124023	301.407135
-154.976596	5614.593333	729.918945	518.046265
-154.976596	5614.593333	728.714844	445.797516
-154.976596	5614.593333	727.509766	416.764771
-154.976596	5614.593333	726.303711	501.385651
-154.976596	5614.593333	725.098633	481.429626
-154.976596	5614.593333	723.892578	516.002563
-154.976596	5614.593333	722.686523	486.950104
-154.976596	5614.593333	721.480469	585.084961
-154.976596	5614.593333	720.274414	556.016663
-154.976596	5614.593333	719.067383	361.230713
-154.976596	5614.593333	717.860352	323.127625
-154.976596	5614.593333	716.653320	280.497070
-154.976596	5614.593333	715.445313	376.268433
-154.976596	5614.593333	714.238281	124.952492
-154.976596	5614.593333	713.030273	-105.855293
-154.976596	5614.593333	711.821289	14.857914
-154.976596	5614.593333	710.613281	121.915878
-154.976596	5614.593333	709.404297	22.683582
-154.976596	5614.593333	708.195313	100.226547
-154.976596	5614.593333	706.986328	166.404770
-154.976596	5614.593333	705.776367	166.865417
-154.976596	5614.593333	704.566406	108.445480
-154.976596	5614.593333	703.356445	113.436607
-154.976596	5614.593333	702.146484	265.548920
-154.976596	5614.593333	700.935547	152.817215
-154.976596	5614.593333	699.724609	193.981873
-154.976596	5614.593333	698.513672	187.621628
-154.976596	5614.593333	697.302734	50.087204
-154.976596	5614.593333	696.090820	199.767441
-154.976596	5614.593333	694.878906	109.752777
-154.976596	5614.593333	693.666992	78.536522
-154.976596	5614.593333	692.455078	273.299957
-154.976596	5614.593333	691.242188	4.835749
-154.976596	5614.593333	690.029297	12.048284
-154.976596	5614.593333	688.816406	154.751678
-154.976596	5614.593333	687.602539	198.046661
-154.976596	5614.593333	686.389648	83.310318
-154.976596	5614.593333	685.175781	99.514969
-154.976596	5614.593333	683.960938	246.577744
-154.976596	5614.593333	682.747070	240.177475
-154.976596	5614.593333	681.532227	296.927582
-154.976596	5614.593333	680.317383	67.273560
-154.976596	5614.593333	679.102539	58.652519
-154.976596	5614.593333	677.886719	22.983074
-154.976596	5614.593333	676.670898	-96.053001
-154.976596	5614.593333	675.455078	-138.436508
-154.976596	5614.593333	674.239258	105.273582
-154.976596	5614.593333	673.022461	-33.979195
-154.976596	5614.593333	671.805664	-35.825085
-154.976596	5614.593333	670.588867	-35.420193
-154.976596	5614.593333	669.372070	-80.029518
-154.976596	5614.593333	668.154297	143.151291
-154.976596	5614.593333	666.936523	53.525692
-154.976596	5614.593333	665.718750	4.423904
-154.976596	5614.593333	664.500977	155.484253
-154.976596	5614.593333	663.282227	68.158073
-154.976596	5614.593333	662.063477	122.482605
-154.976596	5614.593333	660.844727	102.621559
-154.976596	5614.593333	659.625000	244.543365
-154.976596	5614.593333	658.405273	33.719349
-154.976596	5614.593333	657.185547	74.529533
-154.976596	5614.593333	655.965820	162.478455
-154.976596	5614.593333	654.745117	122.424683
-154.976596	5614.593333	653.525391	250.729156
-154.976596	5614.593333	652.303711	215.162125
-154.976596	5614.593333	651.083008	13.590359
-154.976596	5614.593333	649.861328	-73.499130
-154.976596	5614.593333	648.640625	-48.417290
-154.976596	5614.593333	647.417969	-30.074997
-154.976596	5614.593333	646.196289	-22.944382
-154.976596	5614.593333	644.973633	-22.539864
-154.976596	5614.593333	643.750977	-181.224609
-154.976596	5614.593333	642.528320	-77.730904
-154.976596	5614.593333	641.305664	-61.629391
-154.976596	5614.593333	640.082031	-188.849060
-154.976596	5614.593333	638.858398	120.558914
-154.976596	5614.593333	637.634766	-11.115769
-154.976596	5614.593333	636.410156	-189.728851
-154.976596	5614.593333	635.185547	-66.213821
-154.976596	5614.593333	633.960938	-29.987537
-154.976596	5614.593333	632.736328	-29.555704
-154.976596	5614.593333	631.510742	-2.290639
-154.976596	5614.593333	630.285156	-115.870003
-154.976596	5614.593333	629.059570	-41.654491
-154.976596	5614.593333	627.833984	-61.317287
-154.976596	5614.593333	626.607422	-31.819065
-154.976596	5614.593333	625.380859	-102.841415
-154.976596	5614.593333	624.154297	-111.300690
-154.976596	5614.593333	622.927734	-37.143028
-154.976596	5614.593333	621.700195	-152.749985
-154.976596	5614.593333	620.472656	-85.301201
-154.976596	5614.593333	619.245117	-35.726219
-154.976596	5614.593333	618.016602	80.755043
-154.976596	5614.593333	616.788086	34.380886
-154.976596	5614.593333	615.559570	21.480078
-154.976596	5614.593333	614.331055	193.626495
-154.976596	5614.593333	613.101563	149.503098
-154.976596	5614.593333	611.872070	132.146484
-154.976596	5614.593333	610.642578	5.634441
-154.976596	5614.593333	609.413086	-20.581205
-154.976596	5614.593333	608.182617	20.028698
-154.976596	5614.593333	606.952148	4.965583
-154.976596	5614.593333	605.721680	145.738388
-154.976596	5614.593333	604.491211	221.917587
-154.976596	5614.593333	603.259766	224.643204
-154.976596	5614.593333	602.028320	338.604614
-154.976596	5614.593333	600.796875	198.973892
-154.976596	5614.593333	599.564453	386.288483
-154.976596	5614.593333	598.332031	140.008301
-154.976596	5614.593333	597.099609	198.353226
-154.976596	5614.593333	595.867188	110.013817
-154.976596	5614.593333	594.633789	179.466110
-154.976596	5614.593333	593.400391	211.133789
-154.976596	5614.593333	592.166992	196.160583
-154.976596	5614.593333	590.933594	79.066154
-154.976596	5614.593333	589.699219	124.080467
-154.976596	5614.593333	588.464844	126.917229
-154.976596	5614.593333	587.230469	32.127846
-154.976596	5614.593333	585.995117	3.941328
-154.976596	5614.593333	584.760742	62.279991
-154.976596	5614.593333	583.525391	-87.844589
-154.976596	5614.593333	582.289063	-11.757930
-154.976596	5614.593333	581.053711	17.760571
-154.976596	5614.593333	579.817383	-21.424437
-154.976596	5614.593333	578.581055	174.275192
-154.976596	5614.593333	577.343750	263.572418
-154.976596	5614.593333	576.107422	286.404022
-154.976596	5614.593333	574.870117	331.377472
-154.976596	5614.593333	573.631836	478.172546
-154.976596	5614.593333	572.394531	312.848114
-154.976596	5614.593333	571.156250	346.754791
-154.976596	5614.593333	569.917969	179.337585
-154.976596	5614.593333	568.679688	149.138580
-154.976596	5614.593333	567.440430	54.832237
-154.976596	5614.593333	566.202148	-34.997837
-154.976596	5614.593333	564.961914	5.634832
-154.976596	5614.593333	563.722656	170.021347
-154.976596	5614.593333	562.482422	115.609612
-154.976596	5614.593333	561.243164	98.788345
-154.976596	5614.593333	560.001953	137.196945
-154.976596	5614.593333	558.761719	263.926697
-154.976596	5614.593333	557.520508	-61.945065
-154.976596	5614.593333	556.279297	-47.766422
-154.976596	5614.593333	555.038086	180.464661
-154.976596	5614.593333	553.795898	-61.307278
-154.976596	5614.593333	552.554688	69.803841
-154.976596	5614.593333	551.311523	114.865883
-154.976596	5614.593333	550.069336	164.331650
-154.976596	5614.593333	548.826172	22.015949
-154.976596	5614.593333	547.583984	117.787674
-154.976596	5614.593333	546.339844	200.310028
-154.976596	5614.593333	545.096680	49.306629
-154.976596	5614.593333	543.852539	-17.928608
-154.976596	5614.593333	542.608398	253.977219
-154.976596	5614.593333	541.364258	17.242413
-154.976596	5614.593333	540.119141	-148.947205
-154.976596	5614.593333	538.875000	59.038784
-154.976596	5614.593333	537.628906	-104.861816
-154.976596	5614.593333	536.383789	171.239395
-154.976596	5614.593333	535.137695	-104.741478
-154.976596	5614.593333	533.892578	45.947418
-154.976596	5614.593333	532.645508	110.853882
-154.976596	5614.593333	531.399414	48.282658
-154.976596	5614.593333	530.152344	163.725586
-154.976596	5614.593333	528.905273	200.049988
-154.976596	5614.593333	527.658203	139.736328
-154.976596	5614.593333	526.410156	145.335220
-154.976596	5614.593333	525.163086	302.425964
-154.976596	5614.593333	523.914063	222.415421
-154.976596	5614.593333	522.666016	230.229614
-154.976596	5614.593333	521.416992	284.125153
-154.976596	5614.593333	520.167969	147.181168
-154.976596	5614.593333	518.918945	192.328186
-154.976596	5614.593333	517.669922	130.034897
-154.976596	5614.593333	516.419922	177.383179
-154.976596	5614.593333	515.169922	88.847595
-154.976596	5614.593333	513.919922	166.886978
-154.976596	5614.593333	512.668945	-42.067635
-154.976596	5614.593333	511.417969	71.033905
-154.976596	5614.593333	510.166992	-19.541471
-154.976596	5614.593333	508.916016	73.829597
-154.976596	5614.593333	507.664063	-86.723129
-154.976596	5614.593333	506.412109	-52.437675
-154.976596	5614.593333	505.160156	145.930374
-154.976596	5614.593333	503.907227	-73.556610
-154.976596	5614.593333	502.655273	-34.886337
-154.976596	5614.593333	501.402344	-197.370865
-154.976596	5614.593333	500.148438	-34.072456
-154.976596	5614.593333	498.895508	30.822845
-154.976596	5614.593333	497.641602	-39.769958
-154.976596	5614.593333	496.387695	-86.291725
-154.976596	5614.593333	495.132813	-6.109806
-154.976596	5614.593333	493.878906	-61.333241
-154.976596	5614.593333	492.624023	-238.777985
-154.976596	5614.593333	491.368164	-182.596695
-154.976596	5614.593333	490.113281	-56.600704
-154.976596	5614.593333	488.857422	-192.454559
-154.976596	5614.593333	487.601563	-125.388374
-154.976596	5614.593333	486.344727	-119.405296
-154.976596	5614.593333	485.088867	-52.369484
-154.976596	5614.593333	483.832031	-72.549049
-154.976596	5614.593333	482.575195	-1.181514
-154.976596	5614.593333	481.317383	113.737724
-154.976596	5614.593333	480.059570	-139.538193
-154.976596	5614.593333	478.801758	-161.839417
-154.976596	5614.593333	477.543945	-92.673340
-154.976596	5614.593333	476.285156	87.491890
-154.976596	5614.593333	475.027344	30.341700
-154.976596	5614.593333	473.767578	34.146202
-154.976596	5614.593333	472.508789	118.447929
-154.976596	5614.593333	471.249023	54.805290
-154.976596	5614.593333	469.989258	95.572777
-154.976596	5614.593333	468.729492	155.890274
-154.976596	5614.593333	467.469727	-27.276173
-154.976596	5614.593333	466.208984	-29.987667
-154.976596	5614.593333	464.948242	110.701988
-154.976596	5614.593333	463.686523	64.508980
-154.976596	5614.593333	462.425781	235.513977
-154.976596	5614.593333	461.164063	67.705833
-154.976596	5614.593333	459.901367	138.761322
-154.976596	5614.593333	458.639648	44.827442
-154.976596	5614.593333	457.376953	144.050156
-154.976596	5614.593333	456.114258	165.118637
-154.976596	5614.593333	454.851563	138.448822
-154.976596	5614.593333	453.587891	85.754646
-154.976596	5614.593333	452.324219	30.902956
-154.976596	5614.593333	451.060547	114.788101
-154.976596	5614.593333	449.796875	42.586617
-154.976596	5614.593333	448.532227	-5.767009
-154.976596	5614.593333	447.267578	19.532419
-154.976596	5614.593333	446.002930	254.879120
-154.976596	5614.593333	444.737305	57.048218
-154.976596	5614.593333	443.471680	108.233528
-154.976596	5614.593333	442.206055	150.714890
-154.976596	5614.593333	440.940430	214.792587
-154.976596	5614.593333	439.673828	153.338242
-154.976596	5614.593333	438.407227	137.304337
-154.976596	5614.593333	437.140625	110.434395
-154.976596	5614.593333	435.873047	57.600807
-154.976596	5614.593333	434.605469	149.579239
-154.976596	5614.593333	433.337891	92.369934
-154.976596	5614.593333	432.070313	43.791451
-154.976596	5614.593333	430.801758	-43.686470
-154.976596	5614.593333	429.533203	32.965656
-154.976596	5614.593333	428.264648	-4.893710
-154.976596	5614.593333	426.996094	-79.478432
-154.976596	5614.593333	425.726563	31.530529
-154.976596	5614.593333	424.457031	120.866669
-154.976596	5614.593333	423.186523	80.672073
-154.976596	5614.593333	421.916992	215.149368
-154.976596	5614.593333	420.646484	228.754562
-154.976596	5614.593333	419.375977	294.039490
-154.976596	5614.593333	418.104492	260.084320
-154.976596	5614.593333	416.833008	318.746460
-154.976596	5614.593333	415.561523	204.957108
-154.976596	5614.593333	414.290039	48.070183
-154.976596	5614.593333	413.017578	162.530670
-154.976596	5614.593333	411.746094	42.183060
-154.976596	5614.593333	410.472656	83.255745
-154.976596	5614.593333	409.200195	171.583267
-154.976596	5614.593333	407.926758	14.496061
-154.976596	5614.593333	406.653320	-39.346775
-154.976596	5614.593333	405.379883	102.466858
-154.976596	5614.593333	404.105469	138.761917
-154.976596	5614.593333	402.831055	28.760939
-154.976596	5614.593333	401.556641	-31.853672
-154.976596	5614.593333	400.282227	156.731277
-154.976596	5614.593333	399.006836	18.567680
-154.976596	5614.593333	397.731445	-80.978363
-154.976596	5614.593333	396.456055	141.535019
-154.976596	5614.593333	395.179688	82.573311
-154.976596	5614.593333	393.903320	23.521158
-154.976596	5614.593333	392.626953	-194.438599
-154.976596	5614.593333	391.350586	81.069199
-154.976596	5614.593333	390.073242	-25.515089
-154.976596	5614.593333	388.795898	180.941269
-154.976596	5614.593333	387.518555	89.122734
-154.976596	5614.593333	386.240234	22.925159
-154.976596	5614.593333	384.961914	3.763525
-154.976596	5614.593333	383.683594	-15.539300
-154.976596	5614.593333	382.405273	72.130478
-154.976596	5614.593333	381.125977	93.201096
-154.976596	5614.593333	379.846680	103.392281
-154.976596	5614.593333	378.567383	119.833176
-154.976596	5614.593333	377.287109	67.593910
-154.976596	5614.593333	376.006836	-19.042231
-154.976596	5614.593333	374.726563	-41.635876
-154.976596	5614.593333	373.446289	44.686829
-154.976596	5614.593333	372.165039	66.614197
-154.976596	5614.593333	370.883789	15.634689
-154.976596	5614.593333	369.602539	-121.036354
-154.976596	5614.593333	368.320313	-76.196777
-154.976596	5614.593333	367.039063	17.558544
-154.976596	5614.593333	365.755859	-117.546227
-154.976596	5614.593333	364.473633	24.845982
-154.976596	5614.593333	363.190430	-193.943237
-154.976596	5614.593333	361.907227	-81.965141
-154.976596	5614.593333	360.624023	-30.048191
-154.976596	5614.593333	359.340820	-117.115685
-154.976596	5614.593333	358.056641	-125.471733
-154.976596	5614.593333	356.772461	13.091397
-154.976596	5614.593333	355.487305	-106.732063
-154.976596	5614.593333	354.202148	-130.837753
-154.976596	5614.593333	352.916992	-91.270737
-154.976596	5614.593333	351.631836	22.575201
-154.976596	5614.593333	350.346680	-51.436069
-154.976596	5614.593333	349.060547	65.992393
-154.976596	5614.593333	347.774414	-23.540546
-154.976596	5614.593333	346.487305	88.918503
-154.976596	5614.593333	345.200195	51.972492
-154.976596	5614.593333	343.913086	95.579292
-154.976596	5614.593333	342.625977	34.547215
-154.976596	5614.593333	341.338867	122.107285
-154.976596	5614.593333	340.050781	-22.594841
-154.976596	5614.593333	338.762695	19.526707
-154.976596	5614.593333	337.473633	152.655746
-154.976596	5614.593333	336.184570	-18.634319
-154.976596	5614.593333	334.895508	111.520508
-154.976596	5614.593333	333.606445	160.464539
-154.976596	5614.593333	332.317383	-88.429779
-154.976596	5614.593333	331.027344	140.188934
-154.976596	5614.593333	329.736328	-92.507439
-154.976596	5614.593333	328.446289	-151.470932
-154.976596	5614.593333	327.155273	39.556988
-154.976596	5614.593333	325.864258	-16.117754
-154.976596	5614.593333	324.573242	-131.655991
-154.976596	5614.593333	323.281250	-5.859981
-154.976596	5614.593333	321.989258	59.996616
-154.976596	5614.593333	320.697266	106.224068
-154.976596	5614.593333	319.405273	-55.821651
-154.976596	5614.593333	318.112305	-80.611168
-154.976596	5614.593333	316.819336	-21.197687
-154.976596	5614.593333	315.526367	-140.308853
-154.976596	5614.593333	314.232422	-73.601761
-154.976596	5614.593333	312.938477	7.303593
-154.976596	5614.593333	311.644531	108.735580
-154.976596	5614.593333	310.349609	27.477472
-154.976596	5614.593333	309.054688	-79.768776
-154.976596	5614.593333	307.759766	-3.570008
-154.976596	5614.593333	306.464844	44.439350
-154.976596	5614.593333	305.168945	-11.878241
-154.976596	5614.593333	303.873047	-28.691938
-154.976596	5614.593333	302.577148	114.430504
-154.976596	5614.593333	301.281250	56.024616
-154.976596	5614.593333	299.984375	170.128510
