#X		#Y		#Wave		#Intensity
237.870745	6126.295000	1999.946289	37.268101
237.870745	6126.295000	1998.981445	-25.613096
237.870745	6126.295000	1998.017578	72.217094
237.870745	6126.295000	1997.052734	-18.340504
237.870745	6126.295000	1996.088867	-4.815421
237.870745	6126.295000	1995.124023	-30.943893
237.870745	6126.295000	1994.159180	2.367594
237.870745	6126.295000	1993.193359	60.417137
237.870745	6126.295000	1992.228516	98.629807
237.870745	6126.295000	1991.262695	62.556808
237.870745	6126.295000	1990.296875	38.863155
237.870745	6126.295000	1989.331055	32.490936
237.870745	6126.295000	1988.365234	63.223518
237.870745	6126.295000	1987.398438	-5.004200
237.870745	6126.295000	1986.432617	-28.696594
237.870745	6126.295000	1985.465820	-0.462330
237.870745	6126.295000	1984.499023	-26.630585
237.870745	6126.295000	1983.532227	13.941789
237.870745	6126.295000	1982.565430	94.034645
237.870745	6126.295000	1981.597656	8.551996
237.870745	6126.295000	1980.629883	-118.896904
237.870745	6126.295000	1979.662109	-31.424101
237.870745	6126.295000	1978.694336	36.259235
237.870745	6126.295000	1977.726563	69.351089
237.870745	6126.295000	1976.758789	20.969841
237.870745	6126.295000	1975.790039	71.325806
237.870745	6126.295000	1974.821289	0.752774
237.870745	6126.295000	1973.852539	21.488949
237.870745	6126.295000	1972.883789	-29.314623
237.870745	6126.295000	1971.915039	13.617108
237.870745	6126.295000	1970.945313	44.204597
237.870745	6126.295000	1969.975586	77.247871
237.870745	6126.295000	1969.005859	33.872028
237.870745	6126.295000	1968.036133	74.302765
237.870745	6126.295000	1967.066406	65.443718
237.870745	6126.295000	1966.096680	66.445114
237.870745	6126.295000	1965.125977	25.577694
237.870745	6126.295000	1964.155273	-5.420382
237.870745	6126.295000	1963.184570	-19.168459
237.870745	6126.295000	1962.213867	85.249992
237.870745	6126.295000	1961.242188	24.736540
237.870745	6126.295000	1960.271484	106.971481
237.870745	6126.295000	1959.299805	41.566029
237.870745	6126.295000	1958.328125	-36.108685
237.870745	6126.295000	1957.356445	33.810349
237.870745	6126.295000	1956.384766	76.661713
237.870745	6126.295000	1955.412109	33.458038
237.870745	6126.295000	1954.439453	51.725174
237.870745	6126.295000	1953.467773	6.098306
237.870745	6126.295000	1952.495117	19.462845
237.870745	6126.295000	1951.521484	-11.390256
237.870745	6126.295000	1950.548828	56.020573
237.870745	6126.295000	1949.575195	27.641794
237.870745	6126.295000	1948.601563	31.198380
237.870745	6126.295000	1947.627930	-58.519508
237.870745	6126.295000	1946.654297	-3.393598
237.870745	6126.295000	1945.680664	49.265675
237.870745	6126.295000	1944.706055	-33.023705
237.870745	6126.295000	1943.732422	9.824890
237.870745	6126.295000	1942.757813	148.310715
237.870745	6126.295000	1941.783203	-36.911930
237.870745	6126.295000	1940.807617	47.611717
237.870745	6126.295000	1939.833008	129.661789
237.870745	6126.295000	1938.857422	-43.177711
237.870745	6126.295000	1937.881836	-29.731056
237.870745	6126.295000	1936.906250	-18.730873
237.870745	6126.295000	1935.930664	87.795036
237.870745	6126.295000	1934.955078	57.155785
237.870745	6126.295000	1933.978516	46.122299
237.870745	6126.295000	1933.001953	-53.023079
237.870745	6126.295000	1932.025391	21.645197
237.870745	6126.295000	1931.048828	10.649341
237.870745	6126.295000	1930.072266	-27.245758
237.870745	6126.295000	1929.094727	44.953995
237.870745	6126.295000	1928.118164	-44.274776
237.870745	6126.295000	1927.140625	-20.985371
237.870745	6126.295000	1926.163086	112.315376
237.870745	6126.295000	1925.184570	-79.511475
237.870745	6126.295000	1924.207031	17.109976
237.870745	6126.295000	1923.228516	-8.464108
237.870745	6126.295000	1922.250000	2.622921
237.870745	6126.295000	1921.271484	-98.638023
237.870745	6126.295000	1920.292969	61.438068
237.870745	6126.295000	1919.314453	-44.663025
237.870745	6126.295000	1918.334961	51.890965
237.870745	6126.295000	1917.355469	4.420976
237.870745	6126.295000	1916.375977	113.146179
237.870745	6126.295000	1915.396484	31.542078
237.870745	6126.295000	1914.416992	-23.192181
237.870745	6126.295000	1913.436523	-48.633488
237.870745	6126.295000	1912.457031	-0.907357
237.870745	6126.295000	1911.476563	-33.642097
237.870745	6126.295000	1910.496094	-32.233398
237.870745	6126.295000	1909.515625	-6.448210
237.870745	6126.295000	1908.534180	51.008430
237.870745	6126.295000	1907.552734	45.113358
237.870745	6126.295000	1906.572266	10.000587
237.870745	6126.295000	1905.590820	1.693990
237.870745	6126.295000	1904.608398	-60.166630
237.870745	6126.295000	1903.626953	14.320397
237.870745	6126.295000	1902.644531	100.954361
237.870745	6126.295000	1901.663086	29.396906
237.870745	6126.295000	1900.680664	64.918053
237.870745	6126.295000	1899.698242	-35.783039
237.870745	6126.295000	1898.714844	60.548111
237.870745	6126.295000	1897.732422	49.863125
237.870745	6126.295000	1896.749023	17.308041
237.870745	6126.295000	1895.765625	47.966507
237.870745	6126.295000	1894.782227	-55.038799
237.870745	6126.295000	1893.798828	12.078121
237.870745	6126.295000	1892.814453	47.594715
237.870745	6126.295000	1891.831055	36.956669
237.870745	6126.295000	1890.846680	-17.382547
237.870745	6126.295000	1889.862305	47.269314
237.870745	6126.295000	1888.877930	14.804941
237.870745	6126.295000	1887.892578	18.761564
237.870745	6126.295000	1886.908203	49.413177
237.870745	6126.295000	1885.922852	-53.375813
237.870745	6126.295000	1884.937500	-20.288429
237.870745	6126.295000	1883.952148	112.221565
237.870745	6126.295000	1882.965820	-36.578594
237.870745	6126.295000	1881.980469	66.801834
237.870745	6126.295000	1880.994141	63.500244
237.870745	6126.295000	1880.007813	-7.649814
237.870745	6126.295000	1879.021484	-1.237598
237.870745	6126.295000	1878.035156	-45.695629
237.870745	6126.295000	1877.047852	26.120298
237.870745	6126.295000	1876.061523	30.110056
237.870745	6126.295000	1875.074219	-31.267633
237.870745	6126.295000	1874.086914	86.505089
237.870745	6126.295000	1873.098633	136.471603
237.870745	6126.295000	1872.111328	58.177990
237.870745	6126.295000	1871.123047	-51.534668
237.870745	6126.295000	1870.135742	-40.264095
237.870745	6126.295000	1869.147461	31.462139
237.870745	6126.295000	1868.158203	-29.820713
237.870745	6126.295000	1867.169922	-4.050956
237.870745	6126.295000	1866.180664	70.049759
237.870745	6126.295000	1865.192383	-99.944679
237.870745	6126.295000	1864.203125	46.630798
237.870745	6126.295000	1863.213867	31.305996
237.870745	6126.295000	1862.223633	42.554245
237.870745	6126.295000	1861.234375	56.214317
237.870745	6126.295000	1860.244141	-21.872669
237.870745	6126.295000	1859.253906	44.898754
237.870745	6126.295000	1858.263672	-4.195677
237.870745	6126.295000	1857.273438	36.005756
237.870745	6126.295000	1856.282227	-49.255283
237.870745	6126.295000	1855.291992	-4.236714
237.870745	6126.295000	1854.300781	33.530033
237.870745	6126.295000	1853.309570	-3.461629
237.870745	6126.295000	1852.317383	36.699879
237.870745	6126.295000	1851.326172	2.130674
237.870745	6126.295000	1850.333984	44.684334
237.870745	6126.295000	1849.342773	-11.558911
237.870745	6126.295000	1848.350586	98.426392
237.870745	6126.295000	1847.357422	37.374477
237.870745	6126.295000	1846.365234	-6.799937
237.870745	6126.295000	1845.372070	-12.440302
237.870745	6126.295000	1844.379883	13.211365
237.870745	6126.295000	1843.386719	137.520111
237.870745	6126.295000	1842.393555	98.165146
237.870745	6126.295000	1841.399414	-95.139198
237.870745	6126.295000	1840.406250	-11.774581
237.870745	6126.295000	1839.412109	105.222427
237.870745	6126.295000	1838.417969	29.829636
237.870745	6126.295000	1837.423828	69.846977
237.870745	6126.295000	1836.429688	16.114416
237.870745	6126.295000	1835.434570	-35.198170
237.870745	6126.295000	1834.440430	-40.846661
237.870745	6126.295000	1833.445313	1.544207
237.870745	6126.295000	1832.450195	29.506475
237.870745	6126.295000	1831.454102	28.641169
237.870745	6126.295000	1830.458984	-27.442335
237.870745	6126.295000	1829.462891	31.702017
237.870745	6126.295000	1828.466797	-48.366127
237.870745	6126.295000	1827.470703	65.937103
237.870745	6126.295000	1826.474609	127.418243
237.870745	6126.295000	1825.478516	-10.195997
237.870745	6126.295000	1824.481445	-6.282887
237.870745	6126.295000	1823.484375	100.717239
237.870745	6126.295000	1822.487305	37.482025
237.870745	6126.295000	1821.490234	41.370983
237.870745	6126.295000	1820.493164	6.915760
237.870745	6126.295000	1819.495117	37.152657
237.870745	6126.295000	1818.498047	-47.598156
237.870745	6126.295000	1817.500000	87.999214
237.870745	6126.295000	1816.500977	48.753002
237.870745	6126.295000	1815.502930	81.334015
237.870745	6126.295000	1814.504883	63.635471
237.870745	6126.295000	1813.505859	-35.423519
237.870745	6126.295000	1812.506836	102.410622
237.870745	6126.295000	1811.507813	75.133904
237.870745	6126.295000	1810.508789	38.295559
237.870745	6126.295000	1809.508789	-10.490740
237.870745	6126.295000	1808.508789	65.053757
237.870745	6126.295000	1807.508789	42.563007
237.870745	6126.295000	1806.508789	36.803783
237.870745	6126.295000	1805.508789	109.890282
237.870745	6126.295000	1804.508789	123.220367
237.870745	6126.295000	1803.507813	12.338608
237.870745	6126.295000	1802.506836	68.654160
237.870745	6126.295000	1801.505859	84.353973
237.870745	6126.295000	1800.504883	116.751221
237.870745	6126.295000	1799.502930	-3.616639
237.870745	6126.295000	1798.501953	0.138429
237.870745	6126.295000	1797.500000	39.671478
237.870745	6126.295000	1796.498047	7.624136
237.870745	6126.295000	1795.496094	82.901138
237.870745	6126.295000	1794.493164	62.766483
237.870745	6126.295000	1793.491211	66.473022
237.870745	6126.295000	1792.488281	27.268044
237.870745	6126.295000	1791.485352	100.074707
237.870745	6126.295000	1790.482422	68.012848
237.870745	6126.295000	1789.478516	119.331055
237.870745	6126.295000	1788.475586	13.431674
237.870745	6126.295000	1787.471680	0.433761
237.870745	6126.295000	1786.467773	-74.466782
237.870745	6126.295000	1785.463867	83.928024
237.870745	6126.295000	1784.459961	168.479218
237.870745	6126.295000	1783.455078	-27.783133
237.870745	6126.295000	1782.450195	23.436768
237.870745	6126.295000	1781.445313	65.116188
237.870745	6126.295000	1780.440430	97.260475
237.870745	6126.295000	1779.435547	-60.825222
237.870745	6126.295000	1778.429688	25.991196
237.870745	6126.295000	1777.424805	20.075842
237.870745	6126.295000	1776.418945	-54.757271
237.870745	6126.295000	1775.413086	146.027451
237.870745	6126.295000	1774.406250	85.436104
237.870745	6126.295000	1773.400391	17.736727
237.870745	6126.295000	1772.393555	11.791373
237.870745	6126.295000	1771.386719	69.940117
237.870745	6126.295000	1770.379883	-30.970129
237.870745	6126.295000	1769.373047	-29.804842
237.870745	6126.295000	1768.365234	18.805573
237.870745	6126.295000	1767.358398	-10.892498
237.870745	6126.295000	1766.350586	47.168507
237.870745	6126.295000	1765.342773	3.233497
237.870745	6126.295000	1764.334961	9.096173
237.870745	6126.295000	1763.326172	-46.682487
237.870745	6126.295000	1762.318359	96.631531
237.870745	6126.295000	1761.309570	-4.177962
237.870745	6126.295000	1760.300781	134.320023
237.870745	6126.295000	1759.291016	33.526756
237.870745	6126.295000	1758.282227	15.651178
237.870745	6126.295000	1757.272461	130.366699
237.870745	6126.295000	1756.262695	20.141209
237.870745	6126.295000	1755.252930	77.994240
237.870745	6126.295000	1754.243164	79.025436
237.870745	6126.295000	1753.233398	-61.905819
237.870745	6126.295000	1752.222656	29.024099
237.870745	6126.295000	1751.211914	8.756500
237.870745	6126.295000	1750.201172	19.229153
237.870745	6126.295000	1749.190430	105.342232
237.870745	6126.295000	1748.179688	-47.314392
237.870745	6126.295000	1747.167969	-10.863657
237.870745	6126.295000	1746.156250	82.272263
237.870745	6126.295000	1745.144531	-27.792837
237.870745	6126.295000	1744.132813	-66.967117
237.870745	6126.295000	1743.121094	21.382750
237.870745	6126.295000	1742.108398	-5.995830
237.870745	6126.295000	1741.095703	9.118558
237.870745	6126.295000	1740.083008	-4.100708
237.870745	6126.295000	1739.070313	-3.163595
237.870745	6126.295000	1738.057617	-9.311274
237.870745	6126.295000	1737.043945	24.633810
237.870745	6126.295000	1736.030273	-19.263142
237.870745	6126.295000	1735.016602	42.951530
237.870745	6126.295000	1734.002930	-69.308800
237.870745	6126.295000	1732.989258	32.946159
237.870745	6126.295000	1731.974609	76.242813
237.870745	6126.295000	1730.959961	-5.351659
237.870745	6126.295000	1729.945313	26.145472
237.870745	6126.295000	1728.930664	29.362921
237.870745	6126.295000	1727.916016	46.700890
237.870745	6126.295000	1726.900391	-11.309847
237.870745	6126.295000	1725.885742	10.724401
237.870745	6126.295000	1724.870117	-23.736189
237.870745	6126.295000	1723.853516	-29.956465
237.870745	6126.295000	1722.837891	29.688007
237.870745	6126.295000	1721.822266	63.432098
237.870745	6126.295000	1720.805664	-13.364327
237.870745	6126.295000	1719.789063	39.170918
237.870745	6126.295000	1718.772461	35.265926
237.870745	6126.295000	1717.754883	80.708771
237.870745	6126.295000	1716.738281	109.681808
237.870745	6126.295000	1715.720703	-44.605110
237.870745	6126.295000	1714.703125	-41.468235
237.870745	6126.295000	1713.685547	-54.776390
237.870745	6126.295000	1712.667969	30.527136
237.870745	6126.295000	1711.649414	3.113686
237.870745	6126.295000	1710.630859	-31.335411
237.870745	6126.295000	1709.612305	-21.191906
237.870745	6126.295000	1708.593750	-13.403725
237.870745	6126.295000	1707.575195	74.129066
237.870745	6126.295000	1706.555664	-2.542333
237.870745	6126.295000	1705.536133	47.427505
237.870745	6126.295000	1704.516602	-76.105141
237.870745	6126.295000	1703.497070	-35.525211
237.870745	6126.295000	1702.477539	40.185692
237.870745	6126.295000	1701.457031	29.172510
237.870745	6126.295000	1700.437500	29.872395
237.870745	6126.295000	1699.416992	-30.326698
237.870745	6126.295000	1698.395508	96.820419
237.870745	6126.295000	1697.375000	81.104675
237.870745	6126.295000	1696.354492	91.138794
237.870745	6126.295000	1695.333008	164.350662
237.870745	6126.295000	1694.311523	71.404099
237.870745	6126.295000	1693.290039	29.954954
237.870745	6126.295000	1692.267578	-6.805219
237.870745	6126.295000	1691.246094	31.276861
237.870745	6126.295000	1690.223633	-14.829120
237.870745	6126.295000	1689.201172	-70.271080
237.870745	6126.295000	1688.178711	-8.839714
237.870745	6126.295000	1687.155273	85.276642
237.870745	6126.295000	1686.132813	-16.887100
237.870745	6126.295000	1685.109375	-51.279015
237.870745	6126.295000	1684.085938	31.104853
237.870745	6126.295000	1683.062500	38.738468
237.870745	6126.295000	1682.039063	69.710052
237.870745	6126.295000	1681.014648	28.312702
237.870745	6126.295000	1679.990234	28.931723
237.870745	6126.295000	1678.965820	27.214909
237.870745	6126.295000	1677.941406	55.820068
237.870745	6126.295000	1676.916992	128.722641
237.870745	6126.295000	1675.891602	-19.919563
237.870745	6126.295000	1674.866211	-68.262466
237.870745	6126.295000	1673.840820	-62.980053
237.870745	6126.295000	1672.815430	56.486118
237.870745	6126.295000	1671.790039	-64.077728
237.870745	6126.295000	1670.763672	-82.101410
237.870745	6126.295000	1669.737305	55.924416
237.870745	6126.295000	1668.710938	26.237885
237.870745	6126.295000	1667.684570	15.186014
237.870745	6126.295000	1666.658203	27.413673
237.870745	6126.295000	1665.630859	-37.164730
237.870745	6126.295000	1664.603516	47.194054
237.870745	6126.295000	1663.576172	17.528936
237.870745	6126.295000	1662.548828	39.043133
237.870745	6126.295000	1661.520508	4.736505
237.870745	6126.295000	1660.493164	16.942623
237.870745	6126.295000	1659.464844	101.202370
237.870745	6126.295000	1658.436523	6.474573
237.870745	6126.295000	1657.408203	-92.864944
237.870745	6126.295000	1656.378906	-55.100014
237.870745	6126.295000	1655.350586	26.782871
237.870745	6126.295000	1654.321289	-7.482051
237.870745	6126.295000	1653.291992	23.277182
237.870745	6126.295000	1652.261719	-4.011352
237.870745	6126.295000	1651.232422	-10.400308
237.870745	6126.295000	1650.202148	129.402908
237.870745	6126.295000	1649.171875	-37.093327
237.870745	6126.295000	1648.141602	-8.679681
237.870745	6126.295000	1647.111328	70.744278
237.870745	6126.295000	1646.080078	50.432796
237.870745	6126.295000	1645.049805	-55.644321
237.870745	6126.295000	1644.018555	-20.295551
237.870745	6126.295000	1642.987305	52.117367
237.870745	6126.295000	1641.955078	15.607482
237.870745	6126.295000	1640.923828	48.606983
237.870745	6126.295000	1639.891602	39.905548
237.870745	6126.295000	1638.859375	96.043533
237.870745	6126.295000	1637.827148	13.254667
237.870745	6126.295000	1636.794922	48.546127
237.870745	6126.295000	1635.761719	42.168274
237.870745	6126.295000	1634.729492	49.678028
237.870745	6126.295000	1633.696289	68.751312
237.870745	6126.295000	1632.662109	34.621628
237.870745	6126.295000	1631.628906	56.005791
237.870745	6126.295000	1630.594727	70.446198
237.870745	6126.295000	1629.561523	34.030506
237.870745	6126.295000	1628.527344	78.516693
237.870745	6126.295000	1627.493164	-73.414276
237.870745	6126.295000	1626.458008	-5.820140
237.870745	6126.295000	1625.423828	59.440952
237.870745	6126.295000	1624.388672	-0.022427
237.870745	6126.295000	1623.353516	25.965790
237.870745	6126.295000	1622.318359	107.346855
237.870745	6126.295000	1621.282227	29.451221
237.870745	6126.295000	1620.247070	13.891173
237.870745	6126.295000	1619.210938	129.838547
237.870745	6126.295000	1618.174805	31.232317
237.870745	6126.295000	1617.137695	103.319237
237.870745	6126.295000	1616.101563	78.543816
237.870745	6126.295000	1615.064453	-47.650108
237.870745	6126.295000	1614.027344	70.514084
237.870745	6126.295000	1612.990234	-39.492832
237.870745	6126.295000	1611.953125	62.502819
237.870745	6126.295000	1610.916016	5.525522
237.870745	6126.295000	1609.877930	-42.215561
237.870745	6126.295000	1608.839844	36.704609
237.870745	6126.295000	1607.801758	-8.715117
237.870745	6126.295000	1606.763672	90.889351
237.870745	6126.295000	1605.724609	61.591209
237.870745	6126.295000	1604.685547	-43.616177
237.870745	6126.295000	1603.646484	0.739933
237.870745	6126.295000	1602.607422	-19.312805
237.870745	6126.295000	1601.568359	64.118752
237.870745	6126.295000	1600.528320	25.676651
237.870745	6126.295000	1599.489258	33.224720
237.870745	6126.295000	1598.449219	91.329948
237.870745	6126.295000	1597.408203	46.023422
237.870745	6126.295000	1596.368164	-10.745609
237.870745	6126.295000	1595.327148	-23.851780
237.870745	6126.295000	1594.287109	54.902664
237.870745	6126.295000	1593.246094	112.967575
237.870745	6126.295000	1592.204102	51.655045
237.870745	6126.295000	1591.163086	77.578323
237.870745	6126.295000	1590.121094	36.956093
237.870745	6126.295000	1589.079102	33.058498
237.870745	6126.295000	1588.037109	192.010132
237.870745	6126.295000	1586.995117	117.007080
237.870745	6126.295000	1585.953125	42.038425
237.870745	6126.295000	1584.910156	74.837112
237.870745	6126.295000	1583.867188	137.421066
237.870745	6126.295000	1582.824219	16.680227
237.870745	6126.295000	1581.781250	65.516281
237.870745	6126.295000	1580.737305	73.109924
237.870745	6126.295000	1579.693359	53.226379
237.870745	6126.295000	1578.649414	28.776834
237.870745	6126.295000	1577.605469	89.038208
237.870745	6126.295000	1576.561523	9.675090
237.870745	6126.295000	1575.516602	95.096985
237.870745	6126.295000	1574.472656	15.775107
237.870745	6126.295000	1573.427734	73.725906
237.870745	6126.295000	1572.381836	209.411346
237.870745	6126.295000	1571.336914	95.834381
237.870745	6126.295000	1570.291016	-1.691661
237.870745	6126.295000	1569.246094	69.953552
237.870745	6126.295000	1568.200195	54.744286
237.870745	6126.295000	1567.153320	80.668640
237.870745	6126.295000	1566.107422	111.158180
237.870745	6126.295000	1565.060547	-11.366748
237.870745	6126.295000	1564.013672	99.054039
237.870745	6126.295000	1562.966797	115.842705
237.870745	6126.295000	1561.919922	48.184353
237.870745	6126.295000	1560.872070	39.887226
237.870745	6126.295000	1559.825195	106.888672
237.870745	6126.295000	1558.777344	21.041960
237.870745	6126.295000	1557.729492	90.313339
237.870745	6126.295000	1556.680664	18.196142
237.870745	6126.295000	1555.632813	21.343719
237.870745	6126.295000	1554.583984	147.573257
237.870745	6126.295000	1553.535156	36.768219
237.870745	6126.295000	1552.486328	119.670326
237.870745	6126.295000	1551.436523	159.266357
237.870745	6126.295000	1550.387695	69.041122
237.870745	6126.295000	1549.337891	67.659538
237.870745	6126.295000	1548.288086	82.220833
237.870745	6126.295000	1547.238281	39.881302
237.870745	6126.295000	1546.187500	4.391397
237.870745	6126.295000	1545.136719	59.929684
237.870745	6126.295000	1544.086914	-2.832395
237.870745	6126.295000	1543.035156	84.538429
237.870745	6126.295000	1541.984375	-23.667177
237.870745	6126.295000	1540.933594	81.875229
237.870745	6126.295000	1539.881836	-3.544542
237.870745	6126.295000	1538.830078	8.793527
237.870745	6126.295000	1537.778320	9.773731
237.870745	6126.295000	1536.725586	74.364609
237.870745	6126.295000	1535.673828	68.532227
237.870745	6126.295000	1534.621094	144.453888
237.870745	6126.295000	1533.568359	13.759953
237.870745	6126.295000	1532.515625	10.233895
237.870745	6126.295000	1531.461914	-90.866653
237.870745	6126.295000	1530.409180	5.475558
237.870745	6126.295000	1529.355469	-7.099697
237.870745	6126.295000	1528.301758	-3.786548
237.870745	6126.295000	1527.247070	-11.805856
237.870745	6126.295000	1526.193359	7.391562
237.870745	6126.295000	1525.138672	87.787804
237.870745	6126.295000	1524.083984	11.790772
237.870745	6126.295000	1523.029297	71.777420
237.870745	6126.295000	1521.974609	47.930611
237.870745	6126.295000	1520.918945	21.835197
237.870745	6126.295000	1519.863281	-4.242325
237.870745	6126.295000	1518.807617	67.048882
237.870745	6126.295000	1517.751953	59.095776
237.870745	6126.295000	1516.696289	-55.211742
237.870745	6126.295000	1515.639648	-65.385719
237.870745	6126.295000	1514.583008	-127.578644
237.870745	6126.295000	1513.526367	-29.155994
237.870745	6126.295000	1512.469727	1.396388
237.870745	6126.295000	1511.412109	-63.011646
237.870745	6126.295000	1510.355469	26.320711
237.870745	6126.295000	1509.297852	74.945343
237.870745	6126.295000	1508.240234	98.703865
237.870745	6126.295000	1507.181641	29.838905
237.870745	6126.295000	1506.124023	-14.146295
237.870745	6126.295000	1505.065430	-3.911219
237.870745	6126.295000	1504.006836	31.161829
237.870745	6126.295000	1502.948242	-1.489171
237.870745	6126.295000	1501.888672	-36.376919
237.870745	6126.295000	1500.830078	25.780552
237.870745	6126.295000	1499.770508	6.707616
237.870745	6126.295000	1498.710938	-57.460003
237.870745	6126.295000	1497.650391	29.491581
237.870745	6126.295000	1496.590820	-12.094446
237.870745	6126.295000	1495.530273	41.016598
237.870745	6126.295000	1494.469727	-113.224655
237.870745	6126.295000	1493.409180	68.334366
237.870745	6126.295000	1492.348633	2.022262
237.870745	6126.295000	1491.287109	66.379128
237.870745	6126.295000	1490.225586	18.123384
237.870745	6126.295000	1489.164063	-34.608757
237.870745	6126.295000	1488.102539	4.978097
237.870745	6126.295000	1487.041016	24.301645
237.870745	6126.295000	1485.978516	9.873215
237.870745	6126.295000	1484.916016	-29.280708
237.870745	6126.295000	1483.853516	-9.947991
237.870745	6126.295000	1482.791016	-42.327629
237.870745	6126.295000	1481.727539	-67.940994
237.870745	6126.295000	1480.664063	-30.602444
237.870745	6126.295000	1479.600586	-9.006345
237.870745	6126.295000	1478.537109	-54.800186
237.870745	6126.295000	1477.473633	52.166645
237.870745	6126.295000	1476.409180	-18.305416
237.870745	6126.295000	1475.344727	-41.595222
237.870745	6126.295000	1474.280273	-15.483078
237.870745	6126.295000	1473.215820	-9.543963
237.870745	6126.295000	1472.151367	12.014324
237.870745	6126.295000	1471.085938	-13.423025
237.870745	6126.295000	1470.020508	111.326622
237.870745	6126.295000	1468.955078	23.095987
237.870745	6126.295000	1467.888672	-53.881325
237.870745	6126.295000	1466.823242	-45.686134
237.870745	6126.295000	1465.756836	-10.674447
237.870745	6126.295000	1464.690430	64.736473
237.870745	6126.295000	1463.624023	57.213585
237.870745	6126.295000	1462.556641	87.860390
237.870745	6126.295000	1461.490234	-0.251175
237.870745	6126.295000	1460.422852	43.717533
237.870745	6126.295000	1459.355469	62.959808
237.870745	6126.295000	1458.287109	140.293777
237.870745	6126.295000	1457.219727	43.761055
237.870745	6126.295000	1456.151367	0.631482
237.870745	6126.295000	1455.083008	-2.458072
237.870745	6126.295000	1454.014648	146.230392
237.870745	6126.295000	1452.945313	29.780886
237.870745	6126.295000	1451.876953	33.347767
237.870745	6126.295000	1450.807617	6.289060
237.870745	6126.295000	1449.738281	83.558014
237.870745	6126.295000	1448.668945	31.434362
237.870745	6126.295000	1447.598633	90.435997
237.870745	6126.295000	1446.528320	47.743927
237.870745	6126.295000	1445.458008	-21.096241
237.870745	6126.295000	1444.387695	35.926678
237.870745	6126.295000	1443.317383	-7.160507
237.870745	6126.295000	1442.246094	122.640091
237.870745	6126.295000	1441.174805	110.832947
237.870745	6126.295000	1440.103516	-39.800503
237.870745	6126.295000	1439.032227	-3.134814
237.870745	6126.295000	1437.960938	57.993046
237.870745	6126.295000	1436.888672	6.963080
237.870745	6126.295000	1435.816406	-38.278877
237.870745	6126.295000	1434.744141	-20.036581
237.870745	6126.295000	1433.670898	27.426666
237.870745	6126.295000	1432.598633	50.503525
237.870745	6126.295000	1431.525391	-42.244652
237.870745	6126.295000	1430.452148	-54.174305
237.870745	6126.295000	1429.378906	63.969402
237.870745	6126.295000	1428.304688	-3.873197
237.870745	6126.295000	1427.231445	41.888992
237.870745	6126.295000	1426.157227	-38.946545
237.870745	6126.295000	1425.083008	-30.615664
237.870745	6126.295000	1424.007813	78.848846
237.870745	6126.295000	1422.933594	-47.586967
237.870745	6126.295000	1421.858398	-40.066254
237.870745	6126.295000	1420.783203	-78.143738
237.870745	6126.295000	1419.708008	-50.604870
237.870745	6126.295000	1418.631836	-62.563965
237.870745	6126.295000	1417.555664	37.625652
237.870745	6126.295000	1416.479492	-10.438167
237.870745	6126.295000	1415.403320	57.324104
237.870745	6126.295000	1414.327148	11.686828
237.870745	6126.295000	1413.250000	23.592356
237.870745	6126.295000	1412.173828	2.800831
237.870745	6126.295000	1411.096680	163.738770
237.870745	6126.295000	1410.018555	38.529430
237.870745	6126.295000	1408.941406	-44.608829
237.870745	6126.295000	1407.863281	49.230270
237.870745	6126.295000	1406.785156	60.624271
237.870745	6126.295000	1405.707031	83.120476
237.870745	6126.295000	1404.628906	79.266922
237.870745	6126.295000	1403.549805	112.572159
237.870745	6126.295000	1402.470703	116.506783
237.870745	6126.295000	1401.391602	-5.009845
237.870745	6126.295000	1400.312500	95.769539
237.870745	6126.295000	1399.233398	37.668118
237.870745	6126.295000	1398.153320	24.213018
237.870745	6126.295000	1397.073242	97.939743
237.870745	6126.295000	1395.993164	26.085787
237.870745	6126.295000	1394.913086	-15.671181
237.870745	6126.295000	1393.832031	25.176699
237.870745	6126.295000	1392.750977	52.273312
237.870745	6126.295000	1391.669922	121.695503
237.870745	6126.295000	1390.588867	100.770363
237.870745	6126.295000	1389.506836	-16.355808
237.870745	6126.295000	1388.425781	47.451706
237.870745	6126.295000	1387.343750	-24.498083
237.870745	6126.295000	1386.261719	22.926003
237.870745	6126.295000	1385.178711	129.353424
237.870745	6126.295000	1384.096680	53.447926
237.870745	6126.295000	1383.013672	53.030025
237.870745	6126.295000	1381.930664	58.470875
237.870745	6126.295000	1380.846680	78.349892
237.870745	6126.295000	1379.763672	30.487064
237.870745	6126.295000	1378.679688	-0.676230
237.870745	6126.295000	1377.595703	10.377633
237.870745	6126.295000	1376.511719	38.404209
237.870745	6126.295000	1375.427734	84.214722
237.870745	6126.295000	1374.342773	110.197205
237.870745	6126.295000	1373.257813	-28.295042
237.870745	6126.295000	1372.172852	59.877338
237.870745	6126.295000	1371.087891	31.358810
237.870745	6126.295000	1370.001953	6.308175
237.870745	6126.295000	1368.916992	36.289989
237.870745	6126.295000	1367.831055	41.691486
237.870745	6126.295000	1366.744141	-29.352621
237.870745	6126.295000	1365.658203	36.163376
237.870745	6126.295000	1364.571289	121.443382
237.870745	6126.295000	1363.484375	109.961273
237.870745	6126.295000	1362.397461	106.707001
237.870745	6126.295000	1361.310547	55.983963
237.870745	6126.295000	1360.222656	47.872372
237.870745	6126.295000	1359.135742	67.469940
237.870745	6126.295000	1358.047852	166.913712
237.870745	6126.295000	1356.958984	30.832767
237.870745	6126.295000	1355.871094	72.600716
237.870745	6126.295000	1354.782227	119.694679
237.870745	6126.295000	1353.693359	22.877357
237.870745	6126.295000	1352.604492	56.839851
237.870745	6126.295000	1351.515625	22.877029
237.870745	6126.295000	1350.425781	-2.654518
237.870745	6126.295000	1349.335938	-30.964760
237.870745	6126.295000	1348.246094	77.137901
237.870745	6126.295000	1347.156250	54.248383
237.870745	6126.295000	1346.066406	46.503838
237.870745	6126.295000	1344.975586	-12.255987
237.870745	6126.295000	1343.884766	64.001129
237.870745	6126.295000	1342.793945	70.478256
237.870745	6126.295000	1341.702148	10.189951
237.870745	6126.295000	1340.611328	74.534920
237.870745	6126.295000	1339.519531	56.619976
237.870745	6126.295000	1338.427734	27.567659
237.870745	6126.295000	1337.334961	-1.816207
237.870745	6126.295000	1336.243164	58.480846
237.870745	6126.295000	1335.150391	-27.218056
237.870745	6126.295000	1334.057617	-4.192471
237.870745	6126.295000	1332.964844	22.894711
237.870745	6126.295000	1331.871094	-32.212448
237.870745	6126.295000	1330.778320	-66.116966
237.870745	6126.295000	1329.684570	87.650040
237.870745	6126.295000	1328.590820	71.622742
237.870745	6126.295000	1327.496094	12.405789
237.870745	6126.295000	1326.402344	17.964043
237.870745	6126.295000	1325.307617	28.323765
237.870745	6126.295000	1324.212891	-18.673512
237.870745	6126.295000	1323.117188	-45.414085
237.870745	6126.295000	1322.022461	-58.348148
237.870745	6126.295000	1320.926758	45.126495
237.870745	6126.295000	1319.831055	-30.008965
237.870745	6126.295000	1318.735352	39.019592
237.870745	6126.295000	1317.638672	17.381533
237.870745	6126.295000	1316.542969	85.501419
237.870745	6126.295000	1315.446289	36.451923
237.870745	6126.295000	1314.349609	-24.430798
237.870745	6126.295000	1313.251953	28.038004
237.870745	6126.295000	1312.155273	56.800720
237.870745	6126.295000	1311.057617	9.903159
237.870745	6126.295000	1309.959961	32.103119
237.870745	6126.295000	1308.862305	20.794113
237.870745	6126.295000	1307.763672	43.632084
237.870745	6126.295000	1306.665039	51.680733
237.870745	6126.295000	1305.566406	109.193695
237.870745	6126.295000	1304.467773	22.146505
237.870745	6126.295000	1303.369141	9.225658
237.870745	6126.295000	1302.269531	30.311705
237.870745	6126.295000	1301.169922	-15.962799
237.870745	6126.295000	1300.070313	11.866712
237.870745	6126.295000	1298.970703	42.100983
237.870745	6126.295000	1297.870117	34.249229
237.870745	6126.295000	1296.769531	63.182537
237.870745	6126.295000	1295.668945	67.331047
237.870745	6126.295000	1294.568359	-60.047211
237.870745	6126.295000	1293.466797	2.120936
237.870745	6126.295000	1292.366211	28.918772
237.870745	6126.295000	1291.264648	20.804697
237.870745	6126.295000	1290.162109	124.149529
237.870745	6126.295000	1289.060547	5.137142
237.870745	6126.295000	1287.958008	60.737652
237.870745	6126.295000	1286.855469	-24.797224
237.870745	6126.295000	1285.752930	-26.999500
237.870745	6126.295000	1284.650391	2.035581
237.870745	6126.295000	1283.546875	-20.377834
237.870745	6126.295000	1282.444336	-9.301225
237.870745	6126.295000	1281.339844	36.867077
237.870745	6126.295000	1280.236328	-42.750038
237.870745	6126.295000	1279.132813	-38.895794
237.870745	6126.295000	1278.028320	20.847950
237.870745	6126.295000	1276.923828	-48.625721
237.870745	6126.295000	1275.819336	-10.276299
237.870745	6126.295000	1274.713867	25.185938
237.870745	6126.295000	1273.608398	-10.087375
237.870745	6126.295000	1272.503906	71.604225
237.870745	6126.295000	1271.397461	25.899254
237.870745	6126.295000	1270.291992	120.818336
237.870745	6126.295000	1269.185547	69.904076
237.870745	6126.295000	1268.080078	-5.233337
237.870745	6126.295000	1266.972656	27.065840
237.870745	6126.295000	1265.866211	11.102525
237.870745	6126.295000	1264.759766	17.904234
237.870745	6126.295000	1263.652344	-6.357229
237.870745	6126.295000	1262.544922	-42.467228
237.870745	6126.295000	1261.436523	51.802437
237.870745	6126.295000	1260.329102	9.235069
237.870745	6126.295000	1259.220703	-16.243683
237.870745	6126.295000	1258.112305	-10.195542
237.870745	6126.295000	1257.003906	8.209801
237.870745	6126.295000	1255.895508	-39.570145
237.870745	6126.295000	1254.786133	-1.942687
237.870745	6126.295000	1253.676758	-17.862116
237.870745	6126.295000	1252.567383	-24.309158
237.870745	6126.295000	1251.458008	-56.052128
237.870745	6126.295000	1250.347656	-41.730030
237.870745	6126.295000	1249.237305	-45.065212
237.870745	6126.295000	1248.126953	-10.929995
237.870745	6126.295000	1247.016602	84.107986
237.870745	6126.295000	1245.905273	-13.801211
237.870745	6126.295000	1244.793945	-38.331341
237.870745	6126.295000	1243.682617	41.218517
237.870745	6126.295000	1242.571289	-35.685577
237.870745	6126.295000	1241.459961	22.881660
237.870745	6126.295000	1240.347656	4.311018
237.870745	6126.295000	1239.235352	35.063019
237.870745	6126.295000	1238.123047	-12.569127
237.870745	6126.295000	1237.009766	10.740419
237.870745	6126.295000	1235.897461	69.262581
237.870745	6126.295000	1234.784180	54.435661
237.870745	6126.295000	1233.670898	-76.192162
237.870745	6126.295000	1232.556641	-21.051395
237.870745	6126.295000	1231.443359	12.588609
237.870745	6126.295000	1230.329102	12.941290
237.870745	6126.295000	1229.214844	25.947418
237.870745	6126.295000	1228.099609	27.067833
237.870745	6126.295000	1226.985352	-36.474365
237.870745	6126.295000	1225.870117	-8.624681
237.870745	6126.295000	1224.754883	21.953167
237.870745	6126.295000	1223.639648	29.631008
237.870745	6126.295000	1222.523438	-3.758978
237.870745	6126.295000	1221.408203	6.854712
237.870745	6126.295000	1220.291992	44.727486
237.870745	6126.295000	1219.174805	27.233616
237.870745	6126.295000	1218.058594	23.334267
237.870745	6126.295000	1216.941406	-65.993240
237.870745	6126.295000	1215.824219	-14.026125
237.870745	6126.295000	1214.707031	6.549340
237.870745	6126.295000	1213.589844	-9.411854
237.870745	6126.295000	1212.471680	1.508154
237.870745	6126.295000	1211.353516	19.439129
237.870745	6126.295000	1210.235352	4.734840
237.870745	6126.295000	1209.117188	-1.151572
237.870745	6126.295000	1207.998047	-32.618900
237.870745	6126.295000	1206.878906	-9.758812
237.870745	6126.295000	1205.759766	-18.891602
237.870745	6126.295000	1204.640625	55.124344
237.870745	6126.295000	1203.520508	4.767428
237.870745	6126.295000	1202.401367	45.325275
237.870745	6126.295000	1201.281250	-15.867888
237.870745	6126.295000	1200.160156	52.071743
237.870745	6126.295000	1199.040039	45.945961
237.870745	6126.295000	1197.918945	27.998171
237.870745	6126.295000	1196.797852	15.177494
237.870745	6126.295000	1195.676758	15.419497
237.870745	6126.295000	1194.555664	-22.570724
237.870745	6126.295000	1193.433594	-24.194168
237.870745	6126.295000	1192.311523	-8.720699
237.870745	6126.295000	1191.189453	46.391937
237.870745	6126.295000	1190.066406	29.747629
237.870745	6126.295000	1188.944336	64.783440
237.870745	6126.295000	1187.821289	-17.051668
237.870745	6126.295000	1186.698242	-33.256073
237.870745	6126.295000	1185.574219	-62.575012
237.870745	6126.295000	1184.451172	-15.261350
237.870745	6126.295000	1183.327148	-63.879807
237.870745	6126.295000	1182.203125	13.272424
237.870745	6126.295000	1181.078125	-24.377539
237.870745	6126.295000	1179.954102	-12.974883
237.870745	6126.295000	1178.829102	-1.748397
237.870745	6126.295000	1177.704102	-24.305330
237.870745	6126.295000	1176.579102	-31.151760
237.870745	6126.295000	1175.453125	-14.183080
237.870745	6126.295000	1174.327148	-61.142517
237.870745	6126.295000	1173.201172	-8.001242
237.870745	6126.295000	1172.075195	22.025444
237.870745	6126.295000	1170.949219	8.950261
237.870745	6126.295000	1169.822266	-14.957877
237.870745	6126.295000	1168.695313	46.707706
237.870745	6126.295000	1167.568359	-21.019756
237.870745	6126.295000	1166.440430	12.305159
237.870745	6126.295000	1165.313477	-30.844059
237.870745	6126.295000	1164.185547	-38.619553
237.870745	6126.295000	1163.057617	-29.503311
237.870745	6126.295000	1161.928711	-11.881211
237.870745	6126.295000	1160.800781	35.609402
237.870745	6126.295000	1159.671875	29.095682
237.870745	6126.295000	1158.541992	72.820572
237.870745	6126.295000	1157.413086	40.258308
237.870745	6126.295000	1156.283203	26.597315
237.870745	6126.295000	1155.154297	-24.294134
237.870745	6126.295000	1154.023438	64.825935
237.870745	6126.295000	1152.893555	75.921677
237.870745	6126.295000	1151.763672	18.133322
237.870745	6126.295000	1150.632813	-10.299261
237.870745	6126.295000	1149.501953	-76.639549
237.870745	6126.295000	1148.370117	-5.107158
237.870745	6126.295000	1147.239258	-4.089910
237.870745	6126.295000	1146.107422	-14.371305
237.870745	6126.295000	1144.975586	24.655054
237.870745	6126.295000	1143.843750	15.571965
237.870745	6126.295000	1142.710938	20.602442
237.870745	6126.295000	1141.578125	29.517920
237.870745	6126.295000	1140.445313	25.867992
237.870745	6126.295000	1139.312500	-2.787000
237.870745	6126.295000	1138.178711	38.364330
237.870745	6126.295000	1137.045898	-30.688637
237.870745	6126.295000	1135.912109	124.520111
237.870745	6126.295000	1134.777344	-29.038446
237.870745	6126.295000	1133.643555	33.036446
237.870745	6126.295000	1132.508789	3.184190
237.870745	6126.295000	1131.374023	-66.086472
237.870745	6126.295000	1130.239258	34.504288
237.870745	6126.295000	1129.104492	-5.114554
237.870745	6126.295000	1127.968750	-27.393559
237.870745	6126.295000	1126.833008	-37.498787
237.870745	6126.295000	1125.697266	83.258759
237.870745	6126.295000	1124.560547	43.961712
237.870745	6126.295000	1123.424805	-31.336828
237.870745	6126.295000	1122.288086	13.845999
237.870745	6126.295000	1121.151367	-32.078232
237.870745	6126.295000	1120.013672	15.634983
237.870745	6126.295000	1118.876953	88.624184
237.870745	6126.295000	1117.739258	28.508465
237.870745	6126.295000	1116.601563	11.194763
237.870745	6126.295000	1115.462891	-14.216212
237.870745	6126.295000	1114.324219	74.009369
237.870745	6126.295000	1113.186523	68.828979
237.870745	6126.295000	1112.046875	29.163078
237.870745	6126.295000	1110.908203	-29.477089
237.870745	6126.295000	1109.769531	-63.355316
237.870745	6126.295000	1108.629883	-13.547648
237.870745	6126.295000	1107.490234	16.093807
237.870745	6126.295000	1106.349609	13.529140
237.870745	6126.295000	1105.209961	15.351212
237.870745	6126.295000	1104.069336	30.716253
237.870745	6126.295000	1102.928711	40.984554
237.870745	6126.295000	1101.787109	51.419678
237.870745	6126.295000	1100.646484	-3.254178
237.870745	6126.295000	1099.504883	45.376549
237.870745	6126.295000	1098.363281	48.856716
237.870745	6126.295000	1097.221680	87.190018
237.870745	6126.295000	1096.079102	42.093636
237.870745	6126.295000	1094.936523	14.603869
237.870745	6126.295000	1093.793945	38.315971
237.870745	6126.295000	1092.651367	134.316406
237.870745	6126.295000	1091.507813	19.952951
237.870745	6126.295000	1090.364258	-39.353798
237.870745	6126.295000	1089.220703	-12.227102
237.870745	6126.295000	1088.077148	-51.905949
237.870745	6126.295000	1086.933594	-7.056073
237.870745	6126.295000	1085.789063	48.020176
237.870745	6126.295000	1084.644531	7.227505
237.870745	6126.295000	1083.499023	11.127096
237.870745	6126.295000	1082.354492	-13.064703
237.870745	6126.295000	1081.208984	-121.969452
237.870745	6126.295000	1080.063477	9.783613
237.870745	6126.295000	1078.917969	85.187195
237.870745	6126.295000	1077.771484	100.863029
237.870745	6126.295000	1076.625977	-43.559219
237.870745	6126.295000	1075.479492	-18.178392
237.870745	6126.295000	1074.332031	-51.067211
237.870745	6126.295000	1073.185547	38.978195
237.870745	6126.295000	1072.038086	-17.465714
237.870745	6126.295000	1070.890625	34.780159
237.870745	6126.295000	1069.743164	16.654074
237.870745	6126.295000	1068.594727	-2.249078
237.870745	6126.295000	1067.447266	-91.610458
237.870745	6126.295000	1066.298828	31.724052
237.870745	6126.295000	1065.149414	74.898766
237.870745	6126.295000	1064.000977	6.777195
237.870745	6126.295000	1062.851563	43.100864
237.870745	6126.295000	1061.702148	55.101582
237.870745	6126.295000	1060.552734	21.925617
237.870745	6126.295000	1059.402344	26.558498
237.870745	6126.295000	1058.252930	17.471619
237.870745	6126.295000	1057.102539	27.358429
237.870745	6126.295000	1055.951172	-69.038612
237.870745	6126.295000	1054.800781	61.796555
237.870745	6126.295000	1053.649414	17.799820
237.870745	6126.295000	1052.498047	52.473488
237.870745	6126.295000	1051.346680	-7.764944
237.870745	6126.295000	1050.194336	27.377930
237.870745	6126.295000	1049.042969	2.974053
237.870745	6126.295000	1047.890625	-23.626846
237.870745	6126.295000	1046.738281	16.547981
237.870745	6126.295000	1045.584961	49.520218
237.870745	6126.295000	1044.431641	-2.170017
237.870745	6126.295000	1043.278320	-50.596920
237.870745	6126.295000	1042.125000	63.148216
237.870745	6126.295000	1040.971680	-1.475367
237.870745	6126.295000	1039.817383	60.115303
237.870745	6126.295000	1038.663086	111.112190
237.870745	6126.295000	1037.508789	26.515804
237.870745	6126.295000	1036.353516	-2.842109
237.870745	6126.295000	1035.198242	-1.314754
237.870745	6126.295000	1034.042969	86.284164
237.870745	6126.295000	1032.887695	7.771546
237.870745	6126.295000	1031.732422	77.725777
237.870745	6126.295000	1030.576172	-27.056293
237.870745	6126.295000	1029.419922	80.961029
237.870745	6126.295000	1028.263672	13.718919
237.870745	6126.295000	1027.106445	-63.735527
237.870745	6126.295000	1025.949219	60.482990
237.870745	6126.295000	1024.792969	62.121811
237.870745	6126.295000	1023.634766	-24.271515
237.870745	6126.295000	1022.477539	56.382679
237.870745	6126.295000	1021.319336	32.237679
237.870745	6126.295000	1020.161133	-48.742134
237.870745	6126.295000	1019.002930	59.315315
237.870745	6126.295000	1017.843750	80.028435
237.870745	6126.295000	1016.684570	90.597435
237.870745	6126.295000	1015.525391	51.215431
237.870745	6126.295000	1014.366211	-66.618790
237.870745	6126.295000	1013.207031	6.142382
237.870745	6126.295000	1012.046875	26.449633
237.870745	6126.295000	1010.886719	135.168198
237.870745	6126.295000	1009.726563	27.636213
237.870745	6126.295000	1008.565430	-34.648506
237.870745	6126.295000	1007.404297	-93.680595
237.870745	6126.295000	1006.243164	5.714012
237.870745	6126.295000	1005.082031	11.495034
237.870745	6126.295000	1003.920898	-61.631966
237.870745	6126.295000	1002.758789	46.050804
237.870745	6126.295000	1001.596680	31.056259
237.870745	6126.295000	1000.433594	-39.578709
237.870745	6126.295000	999.271484	-20.706942
237.870745	6126.295000	998.108398	5.578837
237.870745	6126.295000	996.945313	-25.895967
237.870745	6126.295000	995.782227	-31.522230
237.870745	6126.295000	994.618164	17.301641
237.870745	6126.295000	993.454102	11.277753
237.870745	6126.295000	992.290039	14.819426
237.870745	6126.295000	991.125977	-61.827991
237.870745	6126.295000	989.960938	-17.206203
237.870745	6126.295000	988.796875	46.810169
237.870745	6126.295000	987.630859	37.549877
237.870745	6126.295000	986.465820	-0.506770
237.870745	6126.295000	985.300781	-80.122437
237.870745	6126.295000	984.134766	42.239067
237.870745	6126.295000	982.968750	-34.234596
237.870745	6126.295000	981.801758	-12.408607
237.870745	6126.295000	980.635742	24.379490
237.870745	6126.295000	979.468750	38.383717
237.870745	6126.295000	978.301758	23.319078
237.870745	6126.295000	977.133789	-18.377848
237.870745	6126.295000	975.966797	42.947075
237.870745	6126.295000	974.798828	115.718536
237.870745	6126.295000	973.630859	-22.838703
237.870745	6126.295000	972.461914	-47.451145
237.870745	6126.295000	971.293945	21.157394
237.870745	6126.295000	970.125000	40.336670
237.870745	6126.295000	968.956055	44.846344
237.870745	6126.295000	967.786133	88.168175
237.870745	6126.295000	966.617188	-73.956596
237.870745	6126.295000	965.447266	25.238562
237.870745	6126.295000	964.276367	-38.818153
237.870745	6126.295000	963.106445	-24.847174
237.870745	6126.295000	961.935547	114.223694
237.870745	6126.295000	960.764648	-20.262177
237.870745	6126.295000	959.593750	-9.037225
237.870745	6126.295000	958.422852	45.736164
237.870745	6126.295000	957.250977	8.944546
237.870745	6126.295000	956.079102	49.237442
237.870745	6126.295000	954.907227	70.684402
237.870745	6126.295000	953.734375	117.961296
237.870745	6126.295000	952.562500	23.170895
237.870745	6126.295000	951.389648	-5.170499
237.870745	6126.295000	950.215820	70.268883
237.870745	6126.295000	949.042969	46.436516
237.870745	6126.295000	947.869141	-69.545799
237.870745	6126.295000	946.695313	44.028313
237.870745	6126.295000	945.521484	-38.825302
237.870745	6126.295000	944.346680	17.925184
237.870745	6126.295000	943.172852	32.123962
237.870745	6126.295000	941.998047	-29.608141
237.870745	6126.295000	940.822266	-50.926430
237.870745	6126.295000	939.647461	3.329192
237.870745	6126.295000	938.471680	52.980244
237.870745	6126.295000	937.295898	-27.570124
237.870745	6126.295000	936.119141	109.594933
237.870745	6126.295000	934.943359	-15.789058
237.870745	6126.295000	933.766602	-18.149595
237.870745	6126.295000	932.589844	128.344193
237.870745	6126.295000	931.413086	47.946430
237.870745	6126.295000	930.235352	76.224586
237.870745	6126.295000	929.057617	54.889179
237.870745	6126.295000	927.879883	57.201637
237.870745	6126.295000	926.702148	90.232468
237.870745	6126.295000	925.523438	9.856301
237.870745	6126.295000	924.344727	-51.595520
237.870745	6126.295000	923.166016	-25.644035
237.870745	6126.295000	921.987305	38.080830
237.870745	6126.295000	920.807617	71.094315
237.870745	6126.295000	919.627930	71.574203
237.870745	6126.295000	919.497070	33.340149
237.870745	6126.295000	918.331055	78.136642
237.870745	6126.295000	917.165039	21.465090
237.870745	6126.295000	915.999023	2.559092
237.870745	6126.295000	914.833008	92.145897
237.870745	6126.295000	913.666016	49.656525
237.870745	6126.295000	912.499023	44.903515
237.870745	6126.295000	911.332031	-16.413229
237.870745	6126.295000	910.165039	61.325878
237.870745	6126.295000	908.997070	117.830902
237.870745	6126.295000	907.830078	49.472332
237.870745	6126.295000	906.661133	7.047958
237.870745	6126.295000	905.493164	-7.104855
237.870745	6126.295000	904.325195	2.289147
237.870745	6126.295000	903.156250	18.740820
237.870745	6126.295000	901.987305	72.835159
237.870745	6126.295000	900.818359	70.445404
237.870745	6126.295000	899.648438	39.831917
237.870745	6126.295000	898.478516	70.373642
237.870745	6126.295000	897.308594	25.665737
237.870745	6126.295000	896.138672	-54.284035
237.870745	6126.295000	894.968750	-11.990372
237.870745	6126.295000	893.797852	-26.107218
237.870745	6126.295000	892.626953	51.402321
237.870745	6126.295000	891.456055	4.395618
237.870745	6126.295000	890.284180	39.598122
237.870745	6126.295000	889.113281	2.003594
237.870745	6126.295000	887.941406	72.401863
237.870745	6126.295000	886.768555	86.446915
237.870745	6126.295000	885.596680	1.937949
237.870745	6126.295000	884.423828	76.984116
237.870745	6126.295000	883.250977	79.291000
237.870745	6126.295000	882.078125	37.042892
237.870745	6126.295000	880.905273	15.911602
237.870745	6126.295000	879.731445	58.075947
237.870745	6126.295000	878.557617	-16.952566
237.870745	6126.295000	877.383789	50.972980
237.870745	6126.295000	876.209961	64.991447
237.870745	6126.295000	875.035156	-5.310395
237.870745	6126.295000	873.860352	41.494492
237.870745	6126.295000	872.685547	-24.093462
237.870745	6126.295000	871.510742	48.441071
237.870745	6126.295000	870.334961	43.720505
237.870745	6126.295000	869.159180	27.302248
237.870745	6126.295000	867.983398	62.351524
237.870745	6126.295000	866.807617	-5.517700
237.870745	6126.295000	865.630859	-38.286537
237.870745	6126.295000	864.454102	48.181530
237.870745	6126.295000	863.277344	-36.007847
237.870745	6126.295000	862.100586	48.084740
237.870745	6126.295000	860.922852	-47.754250
237.870745	6126.295000	859.745117	-66.473007
237.870745	6126.295000	858.567383	19.904722
237.870745	6126.295000	857.389648	17.520493
237.870745	6126.295000	856.210938	1.129513
237.870745	6126.295000	855.032227	5.748435
237.870745	6126.295000	853.853516	50.031990
237.870745	6126.295000	852.674805	-17.686134
237.870745	6126.295000	851.495117	0.923241
237.870745	6126.295000	850.315430	12.527164
237.870745	6126.295000	849.135742	47.439304
237.870745	6126.295000	847.956055	-55.196350
237.870745	6126.295000	846.775391	-57.577724
237.870745	6126.295000	845.595703	56.543411
237.870745	6126.295000	844.415039	9.873313
237.870745	6126.295000	843.233398	-25.134224
237.870745	6126.295000	842.052734	28.358400
237.870745	6126.295000	840.871094	21.294731
237.870745	6126.295000	839.689453	23.542028
237.870745	6126.295000	838.506836	23.458998
237.870745	6126.295000	837.325195	90.848343
237.870745	6126.295000	836.142578	100.051048
237.870745	6126.295000	834.959961	83.663887
237.870745	6126.295000	833.777344	71.931435
237.870745	6126.295000	832.593750	118.321510
237.870745	6126.295000	831.410156	-0.338152
237.870745	6126.295000	830.226563	-72.474846
237.870745	6126.295000	829.042969	115.633545
237.870745	6126.295000	827.858398	17.945072
237.870745	6126.295000	826.673828	-28.612913
237.870745	6126.295000	825.489258	31.654366
237.870745	6126.295000	824.304688	-17.215050
237.870745	6126.295000	823.120117	112.648178
237.870745	6126.295000	821.934570	-63.851624
237.870745	6126.295000	820.749023	14.920920
237.870745	6126.295000	819.562500	-45.515121
237.870745	6126.295000	818.376953	14.661839
237.870745	6126.295000	817.190430	-17.932863
237.870745	6126.295000	816.003906	-13.428008
237.870745	6126.295000	814.817383	-59.916409
237.870745	6126.295000	813.629883	-57.728615
237.870745	6126.295000	812.442383	97.355240
237.870745	6126.295000	811.254883	-34.836998
237.870745	6126.295000	810.067383	80.803268
237.870745	6126.295000	808.878906	62.108562
237.870745	6126.295000	807.690430	6.381535
237.870745	6126.295000	806.501953	-42.383221
237.870745	6126.295000	805.313477	59.265182
237.870745	6126.295000	804.124023	-19.571209
237.870745	6126.295000	802.934570	14.950309
237.870745	6126.295000	801.745117	67.952744
237.870745	6126.295000	800.555664	7.646276
237.870745	6126.295000	799.365234	-8.721805
237.870745	6126.295000	798.175781	92.769821
237.870745	6126.295000	796.985352	2.447816
237.870745	6126.295000	795.793945	99.267456
237.870745	6126.295000	794.603516	25.139591
237.870745	6126.295000	793.412109	75.725571
237.870745	6126.295000	792.220703	89.349586
237.870745	6126.295000	791.028320	68.342896
237.870745	6126.295000	789.836914	70.416176
237.870745	6126.295000	788.644531	-61.327343
237.870745	6126.295000	787.452148	21.495382
237.870745	6126.295000	786.258789	18.952173
237.870745	6126.295000	785.066406	-15.874192
237.870745	6126.295000	783.873047	27.686388
237.870745	6126.295000	782.679688	-48.620972
237.870745	6126.295000	781.485352	-11.993349
237.870745	6126.295000	780.291992	-53.713165
237.870745	6126.295000	779.097656	61.202637
237.870745	6126.295000	777.903320	56.320728
237.870745	6126.295000	776.708008	58.343193
237.870745	6126.295000	775.512695	-8.695031
237.870745	6126.295000	774.318359	11.741495
237.870745	6126.295000	773.122070	39.068115
237.870745	6126.295000	771.926758	-7.234784
237.870745	6126.295000	770.730469	13.175185
237.870745	6126.295000	769.534180	45.069313
237.870745	6126.295000	768.337891	7.975915
237.870745	6126.295000	767.141602	-3.823041
237.870745	6126.295000	765.944336	-8.727789
237.870745	6126.295000	764.747070	-48.098370
237.870745	6126.295000	763.549805	-23.139376
237.870745	6126.295000	762.351563	125.819992
237.870745	6126.295000	761.154297	153.018921
237.870745	6126.295000	759.956055	-44.770065
237.870745	6126.295000	758.757813	65.069084
237.870745	6126.295000	757.558594	37.177132
237.870745	6126.295000	756.359375	-15.943867
237.870745	6126.295000	755.160156	125.918243
237.870745	6126.295000	753.960938	56.738331
237.870745	6126.295000	752.761719	12.803010
237.870745	6126.295000	751.561523	19.311380
237.870745	6126.295000	750.361328	34.979633
237.870745	6126.295000	749.160156	0.227320
237.870745	6126.295000	747.959961	38.792019
237.870745	6126.295000	746.758789	72.755013
237.870745	6126.295000	745.557617	76.930405
237.870745	6126.295000	744.356445	35.310894
237.870745	6126.295000	743.154297	25.749357
237.870745	6126.295000	741.952148	41.360218
237.870745	6126.295000	740.750000	98.143250
237.870745	6126.295000	739.547852	19.935133
237.870745	6126.295000	738.344727	69.828743
237.870745	6126.295000	737.142578	46.527061
237.870745	6126.295000	735.939453	100.956779
237.870745	6126.295000	734.735352	79.934792
237.870745	6126.295000	733.532227	74.912659
237.870745	6126.295000	732.328125	-5.505230
237.870745	6126.295000	731.124023	64.860779
237.870745	6126.295000	729.918945	82.667984
237.870745	6126.295000	728.714844	-52.511906
237.870745	6126.295000	727.509766	102.267273
237.870745	6126.295000	726.303711	44.727711
237.870745	6126.295000	725.098633	110.423317
237.870745	6126.295000	723.892578	30.084167
237.870745	6126.295000	722.686523	-125.492859
237.870745	6126.295000	721.480469	13.155166
237.870745	6126.295000	720.274414	37.747265
237.870745	6126.295000	719.067383	78.280815
237.870745	6126.295000	717.860352	-8.826208
237.870745	6126.295000	716.653320	54.475800
237.870745	6126.295000	715.445313	94.967651
237.870745	6126.295000	714.238281	64.836380
237.870745	6126.295000	713.030273	41.544445
237.870745	6126.295000	711.821289	77.448082
237.870745	6126.295000	710.613281	86.019989
237.870745	6126.295000	709.404297	69.552940
237.870745	6126.295000	708.195313	-8.338516
237.870745	6126.295000	706.986328	52.550259
237.870745	6126.295000	705.776367	-52.602482
237.870745	6126.295000	704.566406	-109.968056
237.870745	6126.295000	703.356445	-1.370878
237.870745	6126.295000	702.146484	57.177391
237.870745	6126.295000	700.935547	-18.363995
237.870745	6126.295000	699.724609	51.514812
237.870745	6126.295000	698.513672	-44.442242
237.870745	6126.295000	697.302734	-49.530743
237.870745	6126.295000	696.090820	-59.161072
237.870745	6126.295000	694.878906	-0.695444
237.870745	6126.295000	693.666992	21.432369
237.870745	6126.295000	692.455078	54.892349
237.870745	6126.295000	691.242188	18.013865
237.870745	6126.295000	690.029297	-39.263527
237.870745	6126.295000	688.816406	46.330013
237.870745	6126.295000	687.602539	152.287430
237.870745	6126.295000	686.389648	-59.113529
237.870745	6126.295000	685.175781	33.219631
237.870745	6126.295000	683.960938	12.233270
237.870745	6126.295000	682.747070	77.326012
237.870745	6126.295000	681.532227	-4.810305
237.870745	6126.295000	680.317383	44.404297
237.870745	6126.295000	679.102539	30.213783
237.870745	6126.295000	677.886719	-8.868165
237.870745	6126.295000	676.670898	26.732813
237.870745	6126.295000	675.455078	-28.172171
237.870745	6126.295000	674.239258	-58.177029
237.870745	6126.295000	673.022461	13.585424
237.870745	6126.295000	671.805664	69.490105
237.870745	6126.295000	670.588867	-39.633564
237.870745	6126.295000	669.372070	7.215719
237.870745	6126.295000	668.154297	-40.849979
237.870745	6126.295000	666.936523	46.635807
237.870745	6126.295000	665.718750	-35.297047
237.870745	6126.295000	664.500977	16.020489
237.870745	6126.295000	663.282227	46.998081
237.870745	6126.295000	662.063477	19.279699
237.870745	6126.295000	660.844727	41.214554
237.870745	6126.295000	659.625000	-97.038422
237.870745	6126.295000	658.405273	28.664507
237.870745	6126.295000	657.185547	-1.286435
237.870745	6126.295000	655.965820	-40.244186
237.870745	6126.295000	654.745117	35.773922
237.870745	6126.295000	653.525391	57.671482
237.870745	6126.295000	652.303711	5.204659
237.870745	6126.295000	651.083008	-15.702839
237.870745	6126.295000	649.861328	-20.836502
237.870745	6126.295000	648.640625	55.093987
237.870745	6126.295000	647.417969	27.434147
237.870745	6126.295000	646.196289	6.538113
237.870745	6126.295000	644.973633	30.656769
237.870745	6126.295000	643.750977	32.267113
237.870745	6126.295000	642.528320	-17.858301
237.870745	6126.295000	641.305664	-99.446915
237.870745	6126.295000	640.082031	12.362121
237.870745	6126.295000	638.858398	7.232076
237.870745	6126.295000	637.634766	-2.390415
237.870745	6126.295000	636.410156	-16.502172
237.870745	6126.295000	635.185547	36.787621
237.870745	6126.295000	633.960938	-26.737740
237.870745	6126.295000	632.736328	1.832493
237.870745	6126.295000	631.510742	25.901163
237.870745	6126.295000	630.285156	-71.247604
237.870745	6126.295000	629.059570	20.152149
237.870745	6126.295000	627.833984	46.448917
237.870745	6126.295000	626.607422	-25.963726
237.870745	6126.295000	625.380859	54.159027
237.870745	6126.295000	624.154297	33.349255
237.870745	6126.295000	622.927734	55.143440
237.870745	6126.295000	621.700195	-10.479641
237.870745	6126.295000	620.472656	-40.220249
237.870745	6126.295000	619.245117	-20.659094
237.870745	6126.295000	618.016602	39.212879
237.870745	6126.295000	616.788086	49.795261
237.870745	6126.295000	615.559570	29.031261
237.870745	6126.295000	614.331055	-25.298018
237.870745	6126.295000	613.101563	-16.939367
237.870745	6126.295000	611.872070	87.629105
237.870745	6126.295000	610.642578	60.173603
237.870745	6126.295000	609.413086	39.442028
237.870745	6126.295000	608.182617	61.206882
237.870745	6126.295000	606.952148	-66.817574
237.870745	6126.295000	605.721680	51.075546
237.870745	6126.295000	604.491211	-3.143948
237.870745	6126.295000	603.259766	-3.717454
237.870745	6126.295000	602.028320	69.423279
237.870745	6126.295000	600.796875	111.271500
237.870745	6126.295000	599.564453	28.073616
237.870745	6126.295000	598.332031	11.881990
237.870745	6126.295000	597.099609	40.336117
237.870745	6126.295000	595.867188	1.843309
237.870745	6126.295000	594.633789	-21.013603
237.870745	6126.295000	593.400391	85.502792
237.870745	6126.295000	592.166992	-17.629141
237.870745	6126.295000	590.933594	37.573582
237.870745	6126.295000	589.699219	-40.978073
237.870745	6126.295000	588.464844	-21.440508
237.870745	6126.295000	587.230469	13.689043
237.870745	6126.295000	585.995117	8.712907
237.870745	6126.295000	584.760742	-20.753368
237.870745	6126.295000	583.525391	-16.804419
237.870745	6126.295000	582.289063	33.894798
237.870745	6126.295000	581.053711	4.456146
237.870745	6126.295000	579.817383	39.563076
237.870745	6126.295000	578.581055	7.920722
237.870745	6126.295000	577.343750	85.281136
237.870745	6126.295000	576.107422	-41.966034
237.870745	6126.295000	574.870117	179.891510
237.870745	6126.295000	573.631836	152.712234
237.870745	6126.295000	572.394531	58.881615
237.870745	6126.295000	571.156250	20.641260
237.870745	6126.295000	569.917969	-13.134556
237.870745	6126.295000	568.679688	10.851586
237.870745	6126.295000	567.440430	83.681107
237.870745	6126.295000	566.202148	100.987465
237.870745	6126.295000	564.961914	16.198910
237.870745	6126.295000	563.722656	115.624832
237.870745	6126.295000	562.482422	35.317692
237.870745	6126.295000	561.243164	39.334480
237.870745	6126.295000	560.001953	18.962620
237.870745	6126.295000	558.761719	107.241188
237.870745	6126.295000	557.520508	24.811028
237.870745	6126.295000	556.279297	31.066372
237.870745	6126.295000	555.038086	99.362961
237.870745	6126.295000	553.795898	39.156990
237.870745	6126.295000	552.554688	5.558849
237.870745	6126.295000	551.311523	71.620934
237.870745	6126.295000	550.069336	11.477653
237.870745	6126.295000	548.826172	59.816296
237.870745	6126.295000	547.583984	90.437881
237.870745	6126.295000	546.339844	-0.624695
237.870745	6126.295000	545.096680	-9.803973
237.870745	6126.295000	543.852539	-16.761763
237.870745	6126.295000	542.608398	-8.234291
237.870745	6126.295000	541.364258	31.241814
237.870745	6126.295000	540.119141	30.928198
237.870745	6126.295000	538.875000	35.039597
237.870745	6126.295000	537.628906	28.110714
237.870745	6126.295000	536.383789	-0.894401
237.870745	6126.295000	535.137695	36.360786
237.870745	6126.295000	533.892578	25.039206
237.870745	6126.295000	532.645508	60.078190
237.870745	6126.295000	531.399414	33.322086
237.870745	6126.295000	530.152344	-26.508509
237.870745	6126.295000	528.905273	-13.519791
237.870745	6126.295000	527.658203	-22.582893
237.870745	6126.295000	526.410156	19.073118
237.870745	6126.295000	525.163086	23.244381
237.870745	6126.295000	523.914063	-49.712505
237.870745	6126.295000	522.666016	9.566700
237.870745	6126.295000	521.416992	-83.170265
237.870745	6126.295000	520.167969	6.935671
237.870745	6126.295000	518.918945	17.739914
237.870745	6126.295000	517.669922	-15.483434
237.870745	6126.295000	516.419922	-50.887753
237.870745	6126.295000	515.169922	45.757835
237.870745	6126.295000	513.919922	21.366323
237.870745	6126.295000	512.668945	34.382977
237.870745	6126.295000	511.417969	-42.762386
237.870745	6126.295000	510.166992	-25.329872
237.870745	6126.295000	508.916016	25.071781
237.870745	6126.295000	507.664063	0.736949
237.870745	6126.295000	506.412109	-43.357220
237.870745	6126.295000	505.160156	-63.263809
237.870745	6126.295000	503.907227	15.673364
237.870745	6126.295000	502.655273	-39.360622
237.870745	6126.295000	501.402344	2.226506
237.870745	6126.295000	500.148438	6.488101
237.870745	6126.295000	498.895508	56.833076
237.870745	6126.295000	497.641602	-66.155067
237.870745	6126.295000	496.387695	-53.095936
237.870745	6126.295000	495.132813	-40.038414
237.870745	6126.295000	493.878906	5.903659
237.870745	6126.295000	492.624023	12.373848
237.870745	6126.295000	491.368164	-9.644849
237.870745	6126.295000	490.113281	42.844059
237.870745	6126.295000	488.857422	-64.597900
237.870745	6126.295000	487.601563	71.109825
237.870745	6126.295000	486.344727	-36.286270
237.870745	6126.295000	485.088867	-34.176449
237.870745	6126.295000	483.832031	16.085775
237.870745	6126.295000	482.575195	9.435172
237.870745	6126.295000	481.317383	-16.900328
237.870745	6126.295000	480.059570	66.140495
237.870745	6126.295000	478.801758	-67.345879
237.870745	6126.295000	477.543945	48.467476
237.870745	6126.295000	476.285156	-25.937126
237.870745	6126.295000	475.027344	17.701357
237.870745	6126.295000	473.767578	30.733601
237.870745	6126.295000	472.508789	41.575562
237.870745	6126.295000	471.249023	-61.152912
237.870745	6126.295000	469.989258	-17.542990
237.870745	6126.295000	468.729492	133.015442
237.870745	6126.295000	467.469727	52.157856
237.870745	6126.295000	466.208984	-24.301182
237.870745	6126.295000	464.948242	34.531265
237.870745	6126.295000	463.686523	51.895512
237.870745	6126.295000	462.425781	91.056953
237.870745	6126.295000	461.164063	-111.802101
237.870745	6126.295000	459.901367	-42.109928
237.870745	6126.295000	458.639648	44.983345
237.870745	6126.295000	457.376953	90.639488
237.870745	6126.295000	456.114258	103.598091
237.870745	6126.295000	454.851563	55.568100
237.870745	6126.295000	453.587891	42.393284
237.870745	6126.295000	452.324219	81.465576
237.870745	6126.295000	451.060547	79.164322
237.870745	6126.295000	449.796875	-1.474925
237.870745	6126.295000	448.532227	57.146965
237.870745	6126.295000	447.267578	-40.862991
237.870745	6126.295000	446.002930	119.934822
237.870745	6126.295000	444.737305	4.549653
237.870745	6126.295000	443.471680	80.485245
237.870745	6126.295000	442.206055	30.339415
237.870745	6126.295000	440.940430	-48.036629
237.870745	6126.295000	439.673828	-24.292364
237.870745	6126.295000	438.407227	36.353062
237.870745	6126.295000	437.140625	-41.996452
237.870745	6126.295000	435.873047	5.585498
237.870745	6126.295000	434.605469	35.775291
237.870745	6126.295000	433.337891	20.376022
237.870745	6126.295000	432.070313	33.175659
237.870745	6126.295000	430.801758	19.933090
237.870745	6126.295000	429.533203	43.549309
237.870745	6126.295000	428.264648	-13.070303
237.870745	6126.295000	426.996094	-30.661472
237.870745	6126.295000	425.726563	-9.250026
237.870745	6126.295000	424.457031	1.307485
237.870745	6126.295000	423.186523	14.014506
237.870745	6126.295000	421.916992	-16.609690
237.870745	6126.295000	420.646484	63.189240
237.870745	6126.295000	419.375977	23.882643
237.870745	6126.295000	418.104492	47.341358
237.870745	6126.295000	416.833008	-30.920280
237.870745	6126.295000	415.561523	-11.815514
237.870745	6126.295000	414.290039	41.870346
237.870745	6126.295000	413.017578	177.686295
237.870745	6126.295000	411.746094	28.060953
237.870745	6126.295000	410.472656	1.683827
237.870745	6126.295000	409.200195	48.772797
237.870745	6126.295000	407.926758	-1.396558
237.870745	6126.295000	406.653320	71.557381
237.870745	6126.295000	405.379883	-30.459553
237.870745	6126.295000	404.105469	89.931389
237.870745	6126.295000	402.831055	33.247589
237.870745	6126.295000	401.556641	-4.008175
237.870745	6126.295000	400.282227	79.560417
237.870745	6126.295000	399.006836	-80.688225
237.870745	6126.295000	397.731445	-53.254711
237.870745	6126.295000	396.456055	118.614227
237.870745	6126.295000	395.179688	12.292089
237.870745	6126.295000	393.903320	91.350334
237.870745	6126.295000	392.626953	86.313477
237.870745	6126.295000	391.350586	-48.006134
237.870745	6126.295000	390.073242	106.331841
237.870745	6126.295000	388.795898	43.082527
237.870745	6126.295000	387.518555	25.049015
237.870745	6126.295000	386.240234	26.371309
237.870745	6126.295000	384.961914	47.036289
237.870745	6126.295000	383.683594	-70.032585
237.870745	6126.295000	382.405273	6.521982
237.870745	6126.295000	381.125977	31.401945
237.870745	6126.295000	379.846680	62.695358
237.870745	6126.295000	378.567383	-45.780991
237.870745	6126.295000	377.287109	26.296633
237.870745	6126.295000	376.006836	-13.419675
237.870745	6126.295000	374.726563	77.898613
237.870745	6126.295000	373.446289	51.019466
237.870745	6126.295000	372.165039	71.364487
237.870745	6126.295000	370.883789	16.531174
237.870745	6126.295000	369.602539	60.427437
237.870745	6126.295000	368.320313	-54.525425
237.870745	6126.295000	367.039063	-21.419205
237.870745	6126.295000	365.755859	-1.228964
237.870745	6126.295000	364.473633	42.512737
237.870745	6126.295000	363.190430	47.610634
237.870745	6126.295000	361.907227	18.377792
237.870745	6126.295000	360.624023	29.845963
237.870745	6126.295000	359.340820	13.423122
237.870745	6126.295000	358.056641	-45.869186
237.870745	6126.295000	356.772461	55.463158
237.870745	6126.295000	355.487305	-72.398178
237.870745	6126.295000	354.202148	-18.267338
237.870745	6126.295000	352.916992	31.526653
237.870745	6126.295000	351.631836	8.510518
237.870745	6126.295000	350.346680	26.120653
237.870745	6126.295000	349.060547	52.244740
237.870745	6126.295000	347.774414	7.754611
237.870745	6126.295000	346.487305	-4.679837
237.870745	6126.295000	345.200195	51.259113
237.870745	6126.295000	343.913086	15.245986
237.870745	6126.295000	342.625977	-25.058107
237.870745	6126.295000	341.338867	-33.335781
237.870745	6126.295000	340.050781	20.290352
237.870745	6126.295000	338.762695	7.668259
237.870745	6126.295000	337.473633	-39.139133
237.870745	6126.295000	336.184570	-132.913391
237.870745	6126.295000	334.895508	-2.629268
237.870745	6126.295000	333.606445	-8.969482
237.870745	6126.295000	332.317383	76.374229
237.870745	6126.295000	331.027344	-13.211970
237.870745	6126.295000	329.736328	-43.098301
237.870745	6126.295000	328.446289	82.596130
237.870745	6126.295000	327.155273	59.030434
237.870745	6126.295000	325.864258	37.573597
237.870745	6126.295000	324.573242	92.777939
237.870745	6126.295000	323.281250	49.962521
237.870745	6126.295000	321.989258	11.393454
237.870745	6126.295000	320.697266	57.958363
237.870745	6126.295000	319.405273	6.573963
237.870745	6126.295000	318.112305	-0.135718
237.870745	6126.295000	316.819336	-40.908737
237.870745	6126.295000	315.526367	-39.155670
237.870745	6126.295000	314.232422	17.852783
237.870745	6126.295000	312.938477	38.668537
237.870745	6126.295000	311.644531	63.699001
237.870745	6126.295000	310.349609	175.815140
237.870745	6126.295000	309.054688	98.774841
237.870745	6126.295000	307.759766	89.713440
237.870745	6126.295000	306.464844	8.430107
237.870745	6126.295000	305.168945	24.821289
237.870745	6126.295000	303.873047	147.316284
237.870745	6126.295000	302.577148	159.382614
237.870745	6126.295000	301.281250	133.232239
237.870745	6126.295000	299.984375	-15.960664
