#X		#Y		#Wave		#Intensity
107.725000	5617.041667	1999.946289	-37.954262
107.725000	5617.041667	1998.981445	125.258018
107.725000	5617.041667	1998.017578	94.331810
107.725000	5617.041667	1997.052734	18.870987
107.725000	5617.041667	1996.088867	52.518566
107.725000	5617.041667	1995.124023	-17.830280
107.725000	5617.041667	1994.159180	-28.652521
107.725000	5617.041667	1993.193359	54.682903
107.725000	5617.041667	1992.228516	78.627159
107.725000	5617.041667	1991.262695	3.601839
107.725000	5617.041667	1990.296875	22.704988
107.725000	5617.041667	1989.331055	86.394447
107.725000	5617.041667	1988.365234	-84.915382
107.725000	5617.041667	1987.398438	55.551018
107.725000	5617.041667	1986.432617	8.065026
107.725000	5617.041667	1985.465820	-61.609707
107.725000	5617.041667	1984.499023	-106.488678
107.725000	5617.041667	1983.532227	-109.285339
107.725000	5617.041667	1982.565430	65.893303
107.725000	5617.041667	1981.597656	124.924202
107.725000	5617.041667	1980.629883	70.343002
107.725000	5617.041667	1979.662109	124.498779
107.725000	5617.041667	1978.694336	32.982834
107.725000	5617.041667	1977.726563	64.988518
107.725000	5617.041667	1976.758789	22.968468
107.725000	5617.041667	1975.790039	18.022156
107.725000	5617.041667	1974.821289	99.480423
107.725000	5617.041667	1973.852539	-60.829536
107.725000	5617.041667	1972.883789	109.486855
107.725000	5617.041667	1971.915039	72.616203
107.725000	5617.041667	1970.945313	200.996094
107.725000	5617.041667	1969.975586	40.926468
107.725000	5617.041667	1969.005859	4.190155
107.725000	5617.041667	1968.036133	16.786283
107.725000	5617.041667	1967.066406	115.646133
107.725000	5617.041667	1966.096680	113.498833
107.725000	5617.041667	1965.125977	96.603539
107.725000	5617.041667	1964.155273	50.192680
107.725000	5617.041667	1963.184570	-23.254580
107.725000	5617.041667	1962.213867	85.511452
107.725000	5617.041667	1961.242188	19.521067
107.725000	5617.041667	1960.271484	-78.406334
107.725000	5617.041667	1959.299805	-53.261555
107.725000	5617.041667	1958.328125	75.209190
107.725000	5617.041667	1957.356445	-84.084190
107.725000	5617.041667	1956.384766	56.685673
107.725000	5617.041667	1955.412109	49.919907
107.725000	5617.041667	1954.439453	21.057297
107.725000	5617.041667	1953.467773	53.664494
107.725000	5617.041667	1952.495117	39.595322
107.725000	5617.041667	1951.521484	23.093782
107.725000	5617.041667	1950.548828	9.074114
107.725000	5617.041667	1949.575195	98.214516
107.725000	5617.041667	1948.601563	94.042084
107.725000	5617.041667	1947.627930	109.526375
107.725000	5617.041667	1946.654297	-2.602287
107.725000	5617.041667	1945.680664	-38.604313
107.725000	5617.041667	1944.706055	-116.286293
107.725000	5617.041667	1943.732422	-32.031040
107.725000	5617.041667	1942.757813	155.209564
107.725000	5617.041667	1941.783203	70.220871
107.725000	5617.041667	1940.807617	36.758381
107.725000	5617.041667	1939.833008	-26.092051
107.725000	5617.041667	1938.857422	18.920481
107.725000	5617.041667	1937.881836	63.926994
107.725000	5617.041667	1936.906250	202.016769
107.725000	5617.041667	1935.930664	33.906059
107.725000	5617.041667	1934.955078	-77.809494
107.725000	5617.041667	1933.978516	-10.744855
107.725000	5617.041667	1933.001953	75.885773
107.725000	5617.041667	1932.025391	10.750804
107.725000	5617.041667	1931.048828	-59.246460
107.725000	5617.041667	1930.072266	-28.903402
107.725000	5617.041667	1929.094727	104.169487
107.725000	5617.041667	1928.118164	-24.482126
107.725000	5617.041667	1927.140625	66.983803
107.725000	5617.041667	1926.163086	60.632355
107.725000	5617.041667	1925.184570	-82.590767
107.725000	5617.041667	1924.207031	55.280025
107.725000	5617.041667	1923.228516	48.945721
107.725000	5617.041667	1922.250000	84.145721
107.725000	5617.041667	1921.271484	63.159367
107.725000	5617.041667	1920.292969	73.928612
107.725000	5617.041667	1919.314453	-120.391701
107.725000	5617.041667	1918.334961	-94.943199
107.725000	5617.041667	1917.355469	86.695671
107.725000	5617.041667	1916.375977	-2.589266
107.725000	5617.041667	1915.396484	22.824629
107.725000	5617.041667	1914.416992	36.032665
107.725000	5617.041667	1913.436523	39.479191
107.725000	5617.041667	1912.457031	-35.102612
107.725000	5617.041667	1911.476563	95.123627
107.725000	5617.041667	1910.496094	40.055084
107.725000	5617.041667	1909.515625	36.181133
107.725000	5617.041667	1908.534180	5.503767
107.725000	5617.041667	1907.552734	-59.269760
107.725000	5617.041667	1906.572266	2.629834
107.725000	5617.041667	1905.590820	-1.246718
107.725000	5617.041667	1904.608398	-36.777691
107.725000	5617.041667	1903.626953	29.939137
107.725000	5617.041667	1902.644531	47.950100
107.725000	5617.041667	1901.663086	31.883516
107.725000	5617.041667	1900.680664	-62.034592
107.725000	5617.041667	1899.698242	38.670189
107.725000	5617.041667	1898.714844	56.643909
107.725000	5617.041667	1897.732422	-110.188667
107.725000	5617.041667	1896.749023	-53.309547
107.725000	5617.041667	1895.765625	8.403185
107.725000	5617.041667	1894.782227	145.419952
107.725000	5617.041667	1893.798828	5.393795
107.725000	5617.041667	1892.814453	-5.838810
107.725000	5617.041667	1891.831055	101.936073
107.725000	5617.041667	1890.846680	29.965384
107.725000	5617.041667	1889.862305	-20.135719
107.725000	5617.041667	1888.877930	-55.662415
107.725000	5617.041667	1887.892578	90.836998
107.725000	5617.041667	1886.908203	-24.789669
107.725000	5617.041667	1885.922852	116.778709
107.725000	5617.041667	1884.937500	-3.680555
107.725000	5617.041667	1883.952148	60.206829
107.725000	5617.041667	1882.965820	14.948190
107.725000	5617.041667	1881.980469	95.757195
107.725000	5617.041667	1880.994141	23.826466
107.725000	5617.041667	1880.007813	0.378217
107.725000	5617.041667	1879.021484	76.266251
107.725000	5617.041667	1878.035156	64.907356
107.725000	5617.041667	1877.047852	111.667229
107.725000	5617.041667	1876.061523	-13.527917
107.725000	5617.041667	1875.074219	105.837692
107.725000	5617.041667	1874.086914	183.997101
107.725000	5617.041667	1873.098633	-86.388626
107.725000	5617.041667	1872.111328	-61.480549
107.725000	5617.041667	1871.123047	-0.306932
107.725000	5617.041667	1870.135742	-57.688469
107.725000	5617.041667	1869.147461	-69.113899
107.725000	5617.041667	1868.158203	-34.609291
107.725000	5617.041667	1867.169922	38.549171
107.725000	5617.041667	1866.180664	109.248665
107.725000	5617.041667	1865.192383	32.501648
107.725000	5617.041667	1864.203125	-51.480042
107.725000	5617.041667	1863.213867	-14.662896
107.725000	5617.041667	1862.223633	-108.293152
107.725000	5617.041667	1861.234375	54.057781
107.725000	5617.041667	1860.244141	129.419525
107.725000	5617.041667	1859.253906	132.324188
107.725000	5617.041667	1858.263672	94.186691
107.725000	5617.041667	1857.273438	138.087006
107.725000	5617.041667	1856.282227	-1.390626
107.725000	5617.041667	1855.291992	165.493134
107.725000	5617.041667	1854.300781	88.733109
107.725000	5617.041667	1853.309570	-14.535483
107.725000	5617.041667	1852.317383	144.977646
107.725000	5617.041667	1851.326172	164.625717
107.725000	5617.041667	1850.333984	-15.757196
107.725000	5617.041667	1849.342773	3.883344
107.725000	5617.041667	1848.350586	23.499521
107.725000	5617.041667	1847.357422	-19.525978
107.725000	5617.041667	1846.365234	53.029858
107.725000	5617.041667	1845.372070	65.354477
107.725000	5617.041667	1844.379883	149.870163
107.725000	5617.041667	1843.386719	22.559750
107.725000	5617.041667	1842.393555	-20.504820
107.725000	5617.041667	1841.399414	234.729797
107.725000	5617.041667	1840.406250	174.771957
107.725000	5617.041667	1839.412109	172.533554
107.725000	5617.041667	1838.417969	105.363503
107.725000	5617.041667	1837.423828	47.817394
107.725000	5617.041667	1836.429688	16.713552
107.725000	5617.041667	1835.434570	124.973885
107.725000	5617.041667	1834.440430	110.651878
107.725000	5617.041667	1833.445313	96.316490
107.725000	5617.041667	1832.450195	127.600418
107.725000	5617.041667	1831.454102	125.238022
107.725000	5617.041667	1830.458984	168.474335
107.725000	5617.041667	1829.462891	74.863060
107.725000	5617.041667	1828.466797	43.664402
107.725000	5617.041667	1827.470703	50.849541
107.725000	5617.041667	1826.474609	43.621571
107.725000	5617.041667	1825.478516	9.996598
107.725000	5617.041667	1824.481445	48.305077
107.725000	5617.041667	1823.484375	-18.908508
107.725000	5617.041667	1822.487305	86.473999
107.725000	5617.041667	1821.490234	86.349556
107.725000	5617.041667	1820.493164	138.922760
107.725000	5617.041667	1819.495117	74.068436
107.725000	5617.041667	1818.498047	57.127724
107.725000	5617.041667	1817.500000	116.808281
107.725000	5617.041667	1816.500977	176.447479
107.725000	5617.041667	1815.502930	-5.734541
107.725000	5617.041667	1814.504883	113.708817
107.725000	5617.041667	1813.505859	-13.389702
107.725000	5617.041667	1812.506836	156.216751
107.725000	5617.041667	1811.507813	127.199066
107.725000	5617.041667	1810.508789	35.992840
107.725000	5617.041667	1809.508789	-86.283112
107.725000	5617.041667	1808.508789	159.642059
107.725000	5617.041667	1807.508789	23.012981
107.725000	5617.041667	1806.508789	-3.649295
107.725000	5617.041667	1805.508789	19.857889
107.725000	5617.041667	1804.508789	79.172752
107.725000	5617.041667	1803.507813	21.411613
107.725000	5617.041667	1802.506836	56.787785
107.725000	5617.041667	1801.505859	51.544964
107.725000	5617.041667	1800.504883	17.641689
107.725000	5617.041667	1799.502930	50.559456
107.725000	5617.041667	1798.501953	21.407661
107.725000	5617.041667	1797.500000	44.735176
107.725000	5617.041667	1796.498047	34.642635
107.725000	5617.041667	1795.496094	34.076870
107.725000	5617.041667	1794.493164	88.333755
107.725000	5617.041667	1793.491211	59.116615
107.725000	5617.041667	1792.488281	103.780807
107.725000	5617.041667	1791.485352	86.452446
107.725000	5617.041667	1790.482422	-14.277581
107.725000	5617.041667	1789.478516	99.406067
107.725000	5617.041667	1788.475586	-8.465982
107.725000	5617.041667	1787.471680	-44.878349
107.725000	5617.041667	1786.467773	99.647705
107.725000	5617.041667	1785.463867	65.576599
107.725000	5617.041667	1784.459961	71.960182
107.725000	5617.041667	1783.455078	-23.992739
107.725000	5617.041667	1782.450195	-10.491825
107.725000	5617.041667	1781.445313	52.937607
107.725000	5617.041667	1780.440430	113.948479
107.725000	5617.041667	1779.435547	82.192719
107.725000	5617.041667	1778.429688	-92.200012
107.725000	5617.041667	1777.424805	-50.257332
107.725000	5617.041667	1776.418945	22.543159
107.725000	5617.041667	1775.413086	-21.115034
107.725000	5617.041667	1774.406250	-38.645271
107.725000	5617.041667	1773.400391	34.065567
107.725000	5617.041667	1772.393555	104.356186
107.725000	5617.041667	1771.386719	-10.568851
107.725000	5617.041667	1770.379883	9.828155
107.725000	5617.041667	1769.373047	146.486267
107.725000	5617.041667	1768.365234	0.725949
107.725000	5617.041667	1767.358398	-88.057777
107.725000	5617.041667	1766.350586	57.980961
107.725000	5617.041667	1765.342773	125.695755
107.725000	5617.041667	1764.334961	77.197548
107.725000	5617.041667	1763.326172	16.848736
107.725000	5617.041667	1762.318359	-10.309525
107.725000	5617.041667	1761.309570	5.176922
107.725000	5617.041667	1760.300781	-31.475964
107.725000	5617.041667	1759.291016	-13.652903
107.725000	5617.041667	1758.282227	15.992544
107.725000	5617.041667	1757.272461	50.345592
107.725000	5617.041667	1756.262695	141.486511
107.725000	5617.041667	1755.252930	126.072174
107.725000	5617.041667	1754.243164	-26.598974
107.725000	5617.041667	1753.233398	-15.976996
107.725000	5617.041667	1752.222656	46.665131
107.725000	5617.041667	1751.211914	28.859888
107.725000	5617.041667	1750.201172	25.235826
107.725000	5617.041667	1749.190430	-72.964249
107.725000	5617.041667	1748.179688	-43.501926
107.725000	5617.041667	1747.167969	-51.877773
107.725000	5617.041667	1746.156250	-105.155434
107.725000	5617.041667	1745.144531	-9.599417
107.725000	5617.041667	1744.132813	-34.546989
107.725000	5617.041667	1743.121094	-99.641083
107.725000	5617.041667	1742.108398	-115.145004
107.725000	5617.041667	1741.095703	18.056858
107.725000	5617.041667	1740.083008	-61.208687
107.725000	5617.041667	1739.070313	90.785553
107.725000	5617.041667	1738.057617	44.541668
107.725000	5617.041667	1737.043945	-124.352127
107.725000	5617.041667	1736.030273	67.621216
107.725000	5617.041667	1735.016602	151.050690
107.725000	5617.041667	1734.002930	161.359314
107.725000	5617.041667	1732.989258	-35.754524
107.725000	5617.041667	1731.974609	-72.567406
107.725000	5617.041667	1730.959961	-5.712633
107.725000	5617.041667	1729.945313	-0.138286
107.725000	5617.041667	1728.930664	-22.837379
107.725000	5617.041667	1727.916016	48.648735
107.725000	5617.041667	1726.900391	0.029776
107.725000	5617.041667	1725.885742	50.280319
107.725000	5617.041667	1724.870117	-14.813170
107.725000	5617.041667	1723.853516	-68.129471
107.725000	5617.041667	1722.837891	38.531639
107.725000	5617.041667	1721.822266	60.472633
107.725000	5617.041667	1720.805664	42.417351
107.725000	5617.041667	1719.789063	14.955740
107.725000	5617.041667	1718.772461	8.651925
107.725000	5617.041667	1717.754883	65.792717
107.725000	5617.041667	1716.738281	-6.327347
107.725000	5617.041667	1715.720703	24.936476
107.725000	5617.041667	1714.703125	-33.074852
107.725000	5617.041667	1713.685547	-121.599937
107.725000	5617.041667	1712.667969	22.343327
107.725000	5617.041667	1711.649414	-23.923134
107.725000	5617.041667	1710.630859	19.007103
107.725000	5617.041667	1709.612305	-10.829170
107.725000	5617.041667	1708.593750	60.221046
107.725000	5617.041667	1707.575195	35.065155
107.725000	5617.041667	1706.555664	-39.340176
107.725000	5617.041667	1705.536133	94.959854
107.725000	5617.041667	1704.516602	-19.294847
107.725000	5617.041667	1703.497070	-56.164642
107.725000	5617.041667	1702.477539	80.385796
107.725000	5617.041667	1701.457031	170.016251
107.725000	5617.041667	1700.437500	128.428665
107.725000	5617.041667	1699.416992	49.375542
107.725000	5617.041667	1698.395508	-13.264536
107.725000	5617.041667	1697.375000	-5.647989
107.725000	5617.041667	1696.354492	81.544624
107.725000	5617.041667	1695.333008	-53.628487
107.725000	5617.041667	1694.311523	183.275314
107.725000	5617.041667	1693.290039	104.269867
107.725000	5617.041667	1692.267578	-30.846880
107.725000	5617.041667	1691.246094	-34.958347
107.725000	5617.041667	1690.223633	-32.061619
107.725000	5617.041667	1689.201172	85.370438
107.725000	5617.041667	1688.178711	81.224236
107.725000	5617.041667	1687.155273	6.973482
107.725000	5617.041667	1686.132813	157.026779
107.725000	5617.041667	1685.109375	-15.318549
107.725000	5617.041667	1684.085938	-33.469917
107.725000	5617.041667	1683.062500	118.827736
107.725000	5617.041667	1682.039063	37.622936
107.725000	5617.041667	1681.014648	-13.214126
107.725000	5617.041667	1679.990234	10.638136
107.725000	5617.041667	1678.965820	137.134491
107.725000	5617.041667	1677.941406	93.299553
107.725000	5617.041667	1676.916992	82.129585
107.725000	5617.041667	1675.891602	-89.929031
107.725000	5617.041667	1674.866211	62.123989
107.725000	5617.041667	1673.840820	11.336202
107.725000	5617.041667	1672.815430	9.504669
107.725000	5617.041667	1671.790039	42.621769
107.725000	5617.041667	1670.763672	126.970779
107.725000	5617.041667	1669.737305	-2.982664
107.725000	5617.041667	1668.710938	139.557037
107.725000	5617.041667	1667.684570	58.541237
107.725000	5617.041667	1666.658203	121.873451
107.725000	5617.041667	1665.630859	47.871639
107.725000	5617.041667	1664.603516	-26.100628
107.725000	5617.041667	1663.576172	53.494438
107.725000	5617.041667	1662.548828	70.260544
107.725000	5617.041667	1661.520508	35.858925
107.725000	5617.041667	1660.493164	-5.499604
107.725000	5617.041667	1659.464844	6.620521
107.725000	5617.041667	1658.436523	-97.466461
107.725000	5617.041667	1657.408203	-10.973728
107.725000	5617.041667	1656.378906	105.686714
107.725000	5617.041667	1655.350586	52.747150
107.725000	5617.041667	1654.321289	153.099228
107.725000	5617.041667	1653.291992	169.828644
107.725000	5617.041667	1652.261719	47.268074
107.725000	5617.041667	1651.232422	-7.931309
107.725000	5617.041667	1650.202148	38.992298
107.725000	5617.041667	1649.171875	213.503006
107.725000	5617.041667	1648.141602	227.898376
107.725000	5617.041667	1647.111328	126.335327
107.725000	5617.041667	1646.080078	47.999092
107.725000	5617.041667	1645.049805	115.750259
107.725000	5617.041667	1644.018555	25.866316
107.725000	5617.041667	1642.987305	144.582840
107.725000	5617.041667	1641.955078	-14.771878
107.725000	5617.041667	1640.923828	66.853653
107.725000	5617.041667	1639.891602	217.929337
107.725000	5617.041667	1638.859375	42.459770
107.725000	5617.041667	1637.827148	91.628235
107.725000	5617.041667	1636.794922	73.659050
107.725000	5617.041667	1635.761719	187.609085
107.725000	5617.041667	1634.729492	42.383717
107.725000	5617.041667	1633.696289	82.282547
107.725000	5617.041667	1632.662109	200.806747
107.725000	5617.041667	1631.628906	162.051132
107.725000	5617.041667	1630.594727	162.617584
107.725000	5617.041667	1629.561523	135.455826
107.725000	5617.041667	1628.527344	253.906082
107.725000	5617.041667	1627.493164	21.104668
107.725000	5617.041667	1626.458008	194.987442
107.725000	5617.041667	1625.423828	38.524082
107.725000	5617.041667	1624.388672	226.207214
107.725000	5617.041667	1623.353516	249.900177
107.725000	5617.041667	1622.318359	142.015274
107.725000	5617.041667	1621.282227	283.433197
107.725000	5617.041667	1620.247070	254.055237
107.725000	5617.041667	1619.210938	353.888214
107.725000	5617.041667	1618.174805	269.165527
107.725000	5617.041667	1617.137695	223.686935
107.725000	5617.041667	1616.101563	464.142120
107.725000	5617.041667	1615.064453	257.296844
107.725000	5617.041667	1614.027344	255.667175
107.725000	5617.041667	1612.990234	265.569733
107.725000	5617.041667	1611.953125	397.584717
107.725000	5617.041667	1610.916016	391.352997
107.725000	5617.041667	1609.877930	210.104965
107.725000	5617.041667	1608.839844	259.192139
107.725000	5617.041667	1607.801758	259.927155
107.725000	5617.041667	1606.763672	325.119293
107.725000	5617.041667	1605.724609	470.836456
107.725000	5617.041667	1604.685547	338.118988
107.725000	5617.041667	1603.646484	476.899261
107.725000	5617.041667	1602.607422	381.053894
107.725000	5617.041667	1601.568359	285.257843
107.725000	5617.041667	1600.528320	357.332001
107.725000	5617.041667	1599.489258	279.991089
107.725000	5617.041667	1598.449219	418.706787
107.725000	5617.041667	1597.408203	412.630188
107.725000	5617.041667	1596.368164	500.754761
107.725000	5617.041667	1595.327148	531.437988
107.725000	5617.041667	1594.287109	389.906616
107.725000	5617.041667	1593.246094	473.429901
107.725000	5617.041667	1592.204102	497.253143
107.725000	5617.041667	1591.163086	426.992676
107.725000	5617.041667	1590.121094	476.082825
107.725000	5617.041667	1589.079102	472.406036
107.725000	5617.041667	1588.037109	521.497192
107.725000	5617.041667	1586.995117	387.134674
107.725000	5617.041667	1585.953125	392.692291
107.725000	5617.041667	1584.910156	425.766937
107.725000	5617.041667	1583.867188	465.719055
107.725000	5617.041667	1582.824219	436.931610
107.725000	5617.041667	1581.781250	488.351074
107.725000	5617.041667	1580.737305	413.791229
107.725000	5617.041667	1579.693359	314.086578
107.725000	5617.041667	1578.649414	310.597107
107.725000	5617.041667	1577.605469	330.015900
107.725000	5617.041667	1576.561523	418.102356
107.725000	5617.041667	1575.516602	444.388123
107.725000	5617.041667	1574.472656	244.197067
107.725000	5617.041667	1573.427734	318.572876
107.725000	5617.041667	1572.381836	301.461060
107.725000	5617.041667	1571.336914	245.507141
107.725000	5617.041667	1570.291016	331.318359
107.725000	5617.041667	1569.246094	330.267212
107.725000	5617.041667	1568.200195	290.386353
107.725000	5617.041667	1567.153320	143.161270
107.725000	5617.041667	1566.107422	222.144089
107.725000	5617.041667	1565.060547	333.083801
107.725000	5617.041667	1564.013672	256.772186
107.725000	5617.041667	1562.966797	322.042328
107.725000	5617.041667	1561.919922	165.917831
107.725000	5617.041667	1560.872070	151.349548
107.725000	5617.041667	1559.825195	189.280945
107.725000	5617.041667	1558.777344	131.412903
107.725000	5617.041667	1557.729492	107.794846
107.725000	5617.041667	1556.680664	136.646255
107.725000	5617.041667	1555.632813	167.787888
107.725000	5617.041667	1554.583984	0.642931
107.725000	5617.041667	1553.535156	129.823730
107.725000	5617.041667	1552.486328	167.840668
107.725000	5617.041667	1551.436523	87.411827
107.725000	5617.041667	1550.387695	-13.460088
107.725000	5617.041667	1549.337891	133.916855
107.725000	5617.041667	1548.288086	62.709587
107.725000	5617.041667	1547.238281	153.152588
107.725000	5617.041667	1546.187500	211.720917
107.725000	5617.041667	1545.136719	240.709335
107.725000	5617.041667	1544.086914	155.972595
107.725000	5617.041667	1543.035156	96.304337
107.725000	5617.041667	1541.984375	88.980988
107.725000	5617.041667	1540.933594	149.883865
107.725000	5617.041667	1539.881836	-14.238443
107.725000	5617.041667	1538.830078	153.509293
107.725000	5617.041667	1537.778320	234.875748
107.725000	5617.041667	1536.725586	7.293608
107.725000	5617.041667	1535.673828	236.325043
107.725000	5617.041667	1534.621094	76.998001
107.725000	5617.041667	1533.568359	190.186127
107.725000	5617.041667	1532.515625	237.527710
107.725000	5617.041667	1531.461914	60.206081
107.725000	5617.041667	1530.409180	189.281174
107.725000	5617.041667	1529.355469	37.037544
107.725000	5617.041667	1528.301758	138.894592
107.725000	5617.041667	1527.247070	140.960526
107.725000	5617.041667	1526.193359	97.708214
107.725000	5617.041667	1525.138672	97.561020
107.725000	5617.041667	1524.083984	81.574516
107.725000	5617.041667	1523.029297	99.604248
107.725000	5617.041667	1521.974609	-0.146074
107.725000	5617.041667	1520.918945	-104.364014
107.725000	5617.041667	1519.863281	-18.305147
107.725000	5617.041667	1518.807617	38.312351
107.725000	5617.041667	1517.751953	70.032516
107.725000	5617.041667	1516.696289	167.393997
107.725000	5617.041667	1515.639648	-104.069466
107.725000	5617.041667	1514.583008	-106.200485
107.725000	5617.041667	1513.526367	-13.313434
107.725000	5617.041667	1512.469727	77.300262
107.725000	5617.041667	1511.412109	-49.139046
107.725000	5617.041667	1510.355469	91.224571
107.725000	5617.041667	1509.297852	7.821515
107.725000	5617.041667	1508.240234	-98.118721
107.725000	5617.041667	1507.181641	-34.563194
107.725000	5617.041667	1506.124023	-115.558014
107.725000	5617.041667	1505.065430	-106.169693
107.725000	5617.041667	1504.006836	20.640760
107.725000	5617.041667	1502.948242	-125.701797
107.725000	5617.041667	1501.888672	120.723877
107.725000	5617.041667	1500.830078	-14.247728
107.725000	5617.041667	1499.770508	40.356678
107.725000	5617.041667	1498.710938	20.534437
107.725000	5617.041667	1497.650391	3.000331
107.725000	5617.041667	1496.590820	-41.555389
107.725000	5617.041667	1495.530273	175.411072
107.725000	5617.041667	1494.469727	-47.149937
107.725000	5617.041667	1493.409180	95.426689
107.725000	5617.041667	1492.348633	177.147812
107.725000	5617.041667	1491.287109	-72.230606
107.725000	5617.041667	1490.225586	-1.715846
107.725000	5617.041667	1489.164063	86.808838
107.725000	5617.041667	1488.102539	42.515854
107.725000	5617.041667	1487.041016	18.522423
107.725000	5617.041667	1485.978516	53.067020
107.725000	5617.041667	1484.916016	67.394211
107.725000	5617.041667	1483.853516	-8.257211
107.725000	5617.041667	1482.791016	-41.105469
107.725000	5617.041667	1481.727539	27.258415
107.725000	5617.041667	1480.664063	-30.255583
107.725000	5617.041667	1479.600586	-85.453583
107.725000	5617.041667	1478.537109	-19.278925
107.725000	5617.041667	1477.473633	-27.233044
107.725000	5617.041667	1476.409180	135.475967
107.725000	5617.041667	1475.344727	26.485977
107.725000	5617.041667	1474.280273	18.591930
107.725000	5617.041667	1473.215820	13.048727
107.725000	5617.041667	1472.151367	128.604431
107.725000	5617.041667	1471.085938	-22.760952
107.725000	5617.041667	1470.020508	79.393059
107.725000	5617.041667	1468.955078	201.583084
107.725000	5617.041667	1467.888672	18.996218
107.725000	5617.041667	1466.823242	58.470207
107.725000	5617.041667	1465.756836	102.281151
107.725000	5617.041667	1464.690430	70.127197
107.725000	5617.041667	1463.624023	122.689011
107.725000	5617.041667	1462.556641	130.994171
107.725000	5617.041667	1461.490234	-62.338627
107.725000	5617.041667	1460.422852	117.854195
107.725000	5617.041667	1459.355469	179.807251
107.725000	5617.041667	1458.287109	165.606827
107.725000	5617.041667	1457.219727	57.574028
107.725000	5617.041667	1456.151367	103.523026
107.725000	5617.041667	1455.083008	130.400742
107.725000	5617.041667	1454.014648	80.567505
107.725000	5617.041667	1452.945313	135.718109
107.725000	5617.041667	1451.876953	150.373108
107.725000	5617.041667	1450.807617	143.900146
107.725000	5617.041667	1449.738281	116.819252
107.725000	5617.041667	1448.668945	144.800323
107.725000	5617.041667	1447.598633	289.432770
107.725000	5617.041667	1446.528320	244.263412
107.725000	5617.041667	1445.458008	174.874252
107.725000	5617.041667	1444.387695	144.420532
107.725000	5617.041667	1443.317383	272.803101
107.725000	5617.041667	1442.246094	174.401566
107.725000	5617.041667	1441.174805	291.651215
107.725000	5617.041667	1440.103516	240.625320
107.725000	5617.041667	1439.032227	115.731506
107.725000	5617.041667	1437.960938	170.353546
107.725000	5617.041667	1436.888672	111.711967
107.725000	5617.041667	1435.816406	228.472427
107.725000	5617.041667	1434.744141	105.443977
107.725000	5617.041667	1433.670898	344.995148
107.725000	5617.041667	1432.598633	210.008392
107.725000	5617.041667	1431.525391	94.202286
107.725000	5617.041667	1430.452148	53.246284
107.725000	5617.041667	1429.378906	209.417191
107.725000	5617.041667	1428.304688	188.325851
107.725000	5617.041667	1427.231445	-42.121643
107.725000	5617.041667	1426.157227	30.580175
107.725000	5617.041667	1425.083008	109.970245
107.725000	5617.041667	1424.007813	97.864098
107.725000	5617.041667	1422.933594	89.249168
107.725000	5617.041667	1421.858398	41.230228
107.725000	5617.041667	1420.783203	134.102951
107.725000	5617.041667	1419.708008	48.030350
107.725000	5617.041667	1418.631836	98.465279
107.725000	5617.041667	1417.555664	197.275604
107.725000	5617.041667	1416.479492	93.769836
107.725000	5617.041667	1415.403320	123.244293
107.725000	5617.041667	1414.327148	60.093433
107.725000	5617.041667	1413.250000	8.996778
107.725000	5617.041667	1412.173828	136.337753
107.725000	5617.041667	1411.096680	68.299706
107.725000	5617.041667	1410.018555	126.061829
107.725000	5617.041667	1408.941406	52.553310
107.725000	5617.041667	1407.863281	136.632446
107.725000	5617.041667	1406.785156	11.046709
107.725000	5617.041667	1405.707031	147.017715
107.725000	5617.041667	1404.628906	88.115669
107.725000	5617.041667	1403.549805	170.448517
107.725000	5617.041667	1402.470703	282.548309
107.725000	5617.041667	1401.391602	103.947701
107.725000	5617.041667	1400.312500	116.967354
107.725000	5617.041667	1399.233398	46.443130
107.725000	5617.041667	1398.153320	80.277016
107.725000	5617.041667	1397.073242	208.623993
107.725000	5617.041667	1395.993164	0.795001
107.725000	5617.041667	1394.913086	117.852432
107.725000	5617.041667	1393.832031	184.056763
107.725000	5617.041667	1392.750977	92.886597
107.725000	5617.041667	1391.669922	86.613815
107.725000	5617.041667	1390.588867	-0.723616
107.725000	5617.041667	1389.506836	37.943951
107.725000	5617.041667	1388.425781	-27.214491
107.725000	5617.041667	1387.343750	35.183151
107.725000	5617.041667	1386.261719	162.722275
107.725000	5617.041667	1385.178711	60.425747
107.725000	5617.041667	1384.096680	147.675751
107.725000	5617.041667	1383.013672	152.859406
107.725000	5617.041667	1381.930664	148.877991
107.725000	5617.041667	1380.846680	89.642082
107.725000	5617.041667	1379.763672	97.546417
107.725000	5617.041667	1378.679688	170.621368
107.725000	5617.041667	1377.595703	133.569809
107.725000	5617.041667	1376.511719	124.205612
107.725000	5617.041667	1375.427734	123.439270
107.725000	5617.041667	1374.342773	133.222549
107.725000	5617.041667	1373.257813	192.370544
107.725000	5617.041667	1372.172852	114.981773
107.725000	5617.041667	1371.087891	122.016541
107.725000	5617.041667	1370.001953	88.375900
107.725000	5617.041667	1368.916992	57.175816
107.725000	5617.041667	1367.831055	194.453903
107.725000	5617.041667	1366.744141	214.000595
107.725000	5617.041667	1365.658203	249.973724
107.725000	5617.041667	1364.571289	124.790428
107.725000	5617.041667	1363.484375	255.975082
107.725000	5617.041667	1362.397461	213.431351
107.725000	5617.041667	1361.310547	211.464752
107.725000	5617.041667	1360.222656	210.228943
107.725000	5617.041667	1359.135742	203.946457
107.725000	5617.041667	1358.047852	252.907196
107.725000	5617.041667	1356.958984	231.245834
107.725000	5617.041667	1355.871094	241.670135
107.725000	5617.041667	1354.782227	321.879303
107.725000	5617.041667	1353.693359	243.705124
107.725000	5617.041667	1352.604492	97.083511
107.725000	5617.041667	1351.515625	215.798965
107.725000	5617.041667	1350.425781	255.672791
107.725000	5617.041667	1349.335938	197.701263
107.725000	5617.041667	1348.246094	208.291962
107.725000	5617.041667	1347.156250	211.831909
107.725000	5617.041667	1346.066406	172.968399
107.725000	5617.041667	1344.975586	202.646866
107.725000	5617.041667	1343.884766	280.587616
107.725000	5617.041667	1342.793945	311.851501
107.725000	5617.041667	1341.702148	207.645691
107.725000	5617.041667	1340.611328	267.664276
107.725000	5617.041667	1339.519531	202.281723
107.725000	5617.041667	1338.427734	285.415527
107.725000	5617.041667	1337.334961	83.800751
107.725000	5617.041667	1336.243164	252.970688
107.725000	5617.041667	1335.150391	371.170044
107.725000	5617.041667	1334.057617	214.666351
107.725000	5617.041667	1332.964844	219.707474
107.725000	5617.041667	1331.871094	223.059830
107.725000	5617.041667	1330.778320	308.906403
107.725000	5617.041667	1329.684570	251.292877
107.725000	5617.041667	1328.590820	204.515488
107.725000	5617.041667	1327.496094	245.024780
107.725000	5617.041667	1326.402344	79.841522
107.725000	5617.041667	1325.307617	22.755150
107.725000	5617.041667	1324.212891	83.060867
107.725000	5617.041667	1323.117188	181.626740
107.725000	5617.041667	1322.022461	156.407532
107.725000	5617.041667	1320.926758	180.540909
107.725000	5617.041667	1319.831055	121.076897
107.725000	5617.041667	1318.735352	163.371780
107.725000	5617.041667	1317.638672	266.548553
107.725000	5617.041667	1316.542969	186.269821
107.725000	5617.041667	1315.446289	106.670990
107.725000	5617.041667	1314.349609	66.420158
107.725000	5617.041667	1313.251953	173.125748
107.725000	5617.041667	1312.155273	132.093811
107.725000	5617.041667	1311.057617	247.757202
107.725000	5617.041667	1309.959961	155.395813
107.725000	5617.041667	1308.862305	202.343414
107.725000	5617.041667	1307.763672	185.701645
107.725000	5617.041667	1306.665039	126.746933
107.725000	5617.041667	1305.566406	170.194916
107.725000	5617.041667	1304.467773	211.310043
107.725000	5617.041667	1303.369141	284.270813
107.725000	5617.041667	1302.269531	100.580330
107.725000	5617.041667	1301.169922	257.832306
107.725000	5617.041667	1300.070313	162.120285
107.725000	5617.041667	1298.970703	112.559341
107.725000	5617.041667	1297.870117	111.554398
107.725000	5617.041667	1296.769531	39.679150
107.725000	5617.041667	1295.668945	91.011520
107.725000	5617.041667	1294.568359	22.763731
107.725000	5617.041667	1293.466797	49.330006
107.725000	5617.041667	1292.366211	99.223541
107.725000	5617.041667	1291.264648	18.462503
107.725000	5617.041667	1290.162109	92.517921
107.725000	5617.041667	1289.060547	94.097748
107.725000	5617.041667	1287.958008	44.021484
107.725000	5617.041667	1286.855469	25.132742
107.725000	5617.041667	1285.752930	48.169609
107.725000	5617.041667	1284.650391	115.743217
107.725000	5617.041667	1283.546875	118.641434
107.725000	5617.041667	1282.444336	125.199547
107.725000	5617.041667	1281.339844	44.918797
107.725000	5617.041667	1280.236328	37.258484
107.725000	5617.041667	1279.132813	110.052872
107.725000	5617.041667	1278.028320	58.707550
107.725000	5617.041667	1276.923828	77.822403
107.725000	5617.041667	1275.819336	144.185303
107.725000	5617.041667	1274.713867	82.989487
107.725000	5617.041667	1273.608398	110.561836
107.725000	5617.041667	1272.503906	25.900164
107.725000	5617.041667	1271.397461	32.592808
107.725000	5617.041667	1270.291992	-1.863041
107.725000	5617.041667	1269.185547	93.190262
107.725000	5617.041667	1268.080078	-0.203678
107.725000	5617.041667	1266.972656	-101.903709
107.725000	5617.041667	1265.866211	-16.921021
107.725000	5617.041667	1264.759766	-46.730331
107.725000	5617.041667	1263.652344	32.751747
107.725000	5617.041667	1262.544922	-3.463350
107.725000	5617.041667	1261.436523	13.124282
107.725000	5617.041667	1260.329102	18.120186
107.725000	5617.041667	1259.220703	-8.895045
107.725000	5617.041667	1258.112305	22.157866
107.725000	5617.041667	1257.003906	-76.363853
107.725000	5617.041667	1255.895508	-120.264610
107.725000	5617.041667	1254.786133	-118.945824
107.725000	5617.041667	1253.676758	-106.505974
107.725000	5617.041667	1252.567383	-50.385197
107.725000	5617.041667	1251.458008	-86.223343
107.725000	5617.041667	1250.347656	-95.367622
107.725000	5617.041667	1249.237305	29.431133
107.725000	5617.041667	1248.126953	-31.580206
107.725000	5617.041667	1247.016602	12.695336
107.725000	5617.041667	1245.905273	-95.700294
107.725000	5617.041667	1244.793945	-38.032082
107.725000	5617.041667	1243.682617	23.781307
107.725000	5617.041667	1242.571289	-62.955627
107.725000	5617.041667	1241.459961	15.269616
107.725000	5617.041667	1240.347656	-82.193878
107.725000	5617.041667	1239.235352	16.410870
107.725000	5617.041667	1238.123047	74.438637
107.725000	5617.041667	1237.009766	-2.940190
107.725000	5617.041667	1235.897461	-1.437070
107.725000	5617.041667	1234.784180	43.270401
107.725000	5617.041667	1233.670898	-26.038834
107.725000	5617.041667	1232.556641	-23.848688
107.725000	5617.041667	1231.443359	50.367657
107.725000	5617.041667	1230.329102	46.125000
107.725000	5617.041667	1229.214844	99.275520
107.725000	5617.041667	1228.099609	62.245461
107.725000	5617.041667	1226.985352	130.778946
107.725000	5617.041667	1225.870117	198.628540
107.725000	5617.041667	1224.754883	120.234818
107.725000	5617.041667	1223.639648	18.081972
107.725000	5617.041667	1222.523438	93.594780
107.725000	5617.041667	1221.408203	134.421173
107.725000	5617.041667	1220.291992	123.515396
107.725000	5617.041667	1219.174805	107.055481
107.725000	5617.041667	1218.058594	42.539459
107.725000	5617.041667	1216.941406	123.823906
107.725000	5617.041667	1215.824219	55.693165
107.725000	5617.041667	1214.707031	22.408766
107.725000	5617.041667	1213.589844	28.087231
107.725000	5617.041667	1212.471680	43.624031
107.725000	5617.041667	1211.353516	16.528610
107.725000	5617.041667	1210.235352	97.082039
107.725000	5617.041667	1209.117188	11.919892
107.725000	5617.041667	1207.998047	6.646609
107.725000	5617.041667	1206.878906	7.608563
107.725000	5617.041667	1205.759766	-11.559164
107.725000	5617.041667	1204.640625	-80.452446
107.725000	5617.041667	1203.520508	3.212838
107.725000	5617.041667	1202.401367	-66.226791
107.725000	5617.041667	1201.281250	-32.712700
107.725000	5617.041667	1200.160156	17.820864
107.725000	5617.041667	1199.040039	-45.240246
107.725000	5617.041667	1197.918945	-32.625980
107.725000	5617.041667	1196.797852	-17.372736
107.725000	5617.041667	1195.676758	23.636024
107.725000	5617.041667	1194.555664	16.547110
107.725000	5617.041667	1193.433594	-37.924236
107.725000	5617.041667	1192.311523	-30.268978
107.725000	5617.041667	1191.189453	-62.993134
107.725000	5617.041667	1190.066406	0.927608
107.725000	5617.041667	1188.944336	-17.459171
107.725000	5617.041667	1187.821289	-19.774132
107.725000	5617.041667	1186.698242	-75.633690
107.725000	5617.041667	1185.574219	9.188589
107.725000	5617.041667	1184.451172	-40.160046
107.725000	5617.041667	1183.327148	-37.292976
107.725000	5617.041667	1182.203125	-2.275807
107.725000	5617.041667	1181.078125	2.885453
107.725000	5617.041667	1179.954102	-30.818630
107.725000	5617.041667	1178.829102	-23.477560
107.725000	5617.041667	1177.704102	-29.294119
107.725000	5617.041667	1176.579102	-63.791889
107.725000	5617.041667	1175.453125	-50.154636
107.725000	5617.041667	1174.327148	9.118983
107.725000	5617.041667	1173.201172	-20.427227
107.725000	5617.041667	1172.075195	45.592827
107.725000	5617.041667	1170.949219	-8.866399
107.725000	5617.041667	1169.822266	13.773499
107.725000	5617.041667	1168.695313	-10.637945
107.725000	5617.041667	1167.568359	-92.618935
107.725000	5617.041667	1166.440430	-24.398689
107.725000	5617.041667	1165.313477	-63.645618
107.725000	5617.041667	1164.185547	-95.016304
107.725000	5617.041667	1163.057617	62.142551
107.725000	5617.041667	1161.928711	-11.649784
107.725000	5617.041667	1160.800781	12.347062
107.725000	5617.041667	1159.671875	-11.671508
107.725000	5617.041667	1158.541992	59.054615
107.725000	5617.041667	1157.413086	1.074445
107.725000	5617.041667	1156.283203	-14.737460
107.725000	5617.041667	1155.154297	111.462883
107.725000	5617.041667	1154.023438	125.422836
107.725000	5617.041667	1152.893555	-5.252164
107.725000	5617.041667	1151.763672	8.110923
107.725000	5617.041667	1150.632813	29.501507
107.725000	5617.041667	1149.501953	48.656013
107.725000	5617.041667	1148.370117	90.494499
107.725000	5617.041667	1147.239258	-30.024651
107.725000	5617.041667	1146.107422	141.999329
107.725000	5617.041667	1144.975586	86.906418
107.725000	5617.041667	1143.843750	21.768791
107.725000	5617.041667	1142.710938	43.977158
107.725000	5617.041667	1141.578125	54.758266
107.725000	5617.041667	1140.445313	102.396683
107.725000	5617.041667	1139.312500	98.043198
107.725000	5617.041667	1138.178711	54.826275
107.725000	5617.041667	1137.045898	115.498947
107.725000	5617.041667	1135.912109	38.623905
107.725000	5617.041667	1134.777344	56.185402
107.725000	5617.041667	1133.643555	83.264656
107.725000	5617.041667	1132.508789	89.800278
107.725000	5617.041667	1131.374023	88.923416
107.725000	5617.041667	1130.239258	130.619354
107.725000	5617.041667	1129.104492	77.653122
107.725000	5617.041667	1127.968750	232.811829
107.725000	5617.041667	1126.833008	210.193451
107.725000	5617.041667	1125.697266	223.889725
107.725000	5617.041667	1124.560547	222.115921
107.725000	5617.041667	1123.424805	107.200043
107.725000	5617.041667	1122.288086	34.859341
107.725000	5617.041667	1121.151367	27.088350
107.725000	5617.041667	1120.013672	83.631607
107.725000	5617.041667	1118.876953	146.460297
107.725000	5617.041667	1117.739258	84.376015
107.725000	5617.041667	1116.601563	72.980324
107.725000	5617.041667	1115.462891	110.361450
107.725000	5617.041667	1114.324219	118.384140
107.725000	5617.041667	1113.186523	177.906357
107.725000	5617.041667	1112.046875	109.027344
107.725000	5617.041667	1110.908203	16.076458
107.725000	5617.041667	1109.769531	128.066238
107.725000	5617.041667	1108.629883	-15.537683
107.725000	5617.041667	1107.490234	120.984978
107.725000	5617.041667	1106.349609	158.519257
107.725000	5617.041667	1105.209961	92.392113
107.725000	5617.041667	1104.069336	156.376083
107.725000	5617.041667	1102.928711	146.356567
107.725000	5617.041667	1101.787109	-35.895229
107.725000	5617.041667	1100.646484	82.420921
107.725000	5617.041667	1099.504883	118.591621
107.725000	5617.041667	1098.363281	126.227409
107.725000	5617.041667	1097.221680	141.410782
107.725000	5617.041667	1096.079102	68.982719
107.725000	5617.041667	1094.936523	185.825790
107.725000	5617.041667	1093.793945	89.132362
107.725000	5617.041667	1092.651367	28.353563
107.725000	5617.041667	1091.507813	190.176041
107.725000	5617.041667	1090.364258	172.115738
107.725000	5617.041667	1089.220703	88.440201
107.725000	5617.041667	1088.077148	-18.229010
107.725000	5617.041667	1086.933594	16.627140
107.725000	5617.041667	1085.789063	-0.749587
107.725000	5617.041667	1084.644531	19.071846
107.725000	5617.041667	1083.499023	115.670090
107.725000	5617.041667	1082.354492	178.036240
107.725000	5617.041667	1081.208984	-38.945351
107.725000	5617.041667	1080.063477	113.675461
107.725000	5617.041667	1078.917969	36.837147
107.725000	5617.041667	1077.771484	0.588030
107.725000	5617.041667	1076.625977	134.456940
107.725000	5617.041667	1075.479492	126.689919
107.725000	5617.041667	1074.332031	186.258621
107.725000	5617.041667	1073.185547	209.557190
107.725000	5617.041667	1072.038086	41.135803
107.725000	5617.041667	1070.890625	74.065811
107.725000	5617.041667	1069.743164	233.958542
107.725000	5617.041667	1068.594727	211.054626
107.725000	5617.041667	1067.447266	166.462219
107.725000	5617.041667	1066.298828	137.317780
107.725000	5617.041667	1065.149414	132.762421
107.725000	5617.041667	1064.000977	50.589413
107.725000	5617.041667	1062.851563	205.173462
107.725000	5617.041667	1061.702148	180.302353
107.725000	5617.041667	1060.552734	28.242683
107.725000	5617.041667	1059.402344	142.477676
107.725000	5617.041667	1058.252930	92.079559
107.725000	5617.041667	1057.102539	84.721741
107.725000	5617.041667	1055.951172	6.816306
107.725000	5617.041667	1054.800781	37.773964
107.725000	5617.041667	1053.649414	57.187958
107.725000	5617.041667	1052.498047	41.239246
107.725000	5617.041667	1051.346680	87.036758
107.725000	5617.041667	1050.194336	-44.516972
107.725000	5617.041667	1049.042969	-30.493038
107.725000	5617.041667	1047.890625	72.754425
107.725000	5617.041667	1046.738281	13.895697
107.725000	5617.041667	1045.584961	22.537386
107.725000	5617.041667	1044.431641	60.250687
107.725000	5617.041667	1043.278320	17.503420
107.725000	5617.041667	1042.125000	34.651592
107.725000	5617.041667	1040.971680	6.785582
107.725000	5617.041667	1039.817383	-28.022243
107.725000	5617.041667	1038.663086	-24.467218
107.725000	5617.041667	1037.508789	11.893094
107.725000	5617.041667	1036.353516	-39.637039
107.725000	5617.041667	1035.198242	111.350113
107.725000	5617.041667	1034.042969	72.942993
107.725000	5617.041667	1032.887695	8.820371
107.725000	5617.041667	1031.732422	66.948120
107.725000	5617.041667	1030.576172	93.884857
107.725000	5617.041667	1029.419922	87.151176
107.725000	5617.041667	1028.263672	19.502018
107.725000	5617.041667	1027.106445	23.005241
107.725000	5617.041667	1025.949219	173.910477
107.725000	5617.041667	1024.792969	35.714016
107.725000	5617.041667	1023.634766	45.848198
107.725000	5617.041667	1022.477539	60.273392
107.725000	5617.041667	1021.319336	101.238441
107.725000	5617.041667	1020.161133	24.978394
107.725000	5617.041667	1019.002930	45.765793
107.725000	5617.041667	1017.843750	59.115677
107.725000	5617.041667	1016.684570	-25.613331
107.725000	5617.041667	1015.525391	95.898674
107.725000	5617.041667	1014.366211	-58.292080
107.725000	5617.041667	1013.207031	99.338905
107.725000	5617.041667	1012.046875	3.007793
107.725000	5617.041667	1010.886719	96.071312
107.725000	5617.041667	1009.726563	64.346443
107.725000	5617.041667	1008.565430	5.961422
107.725000	5617.041667	1007.404297	-0.202559
107.725000	5617.041667	1006.243164	136.356537
107.725000	5617.041667	1005.082031	-17.359245
107.725000	5617.041667	1003.920898	-15.853240
107.725000	5617.041667	1002.758789	30.916807
107.725000	5617.041667	1001.596680	17.081167
107.725000	5617.041667	1000.433594	8.127874
107.725000	5617.041667	999.271484	92.176826
107.725000	5617.041667	998.108398	4.447157
107.725000	5617.041667	996.945313	43.888031
107.725000	5617.041667	995.782227	-65.168915
107.725000	5617.041667	994.618164	41.829731
107.725000	5617.041667	993.454102	142.335617
107.725000	5617.041667	992.290039	98.391808
107.725000	5617.041667	991.125977	59.092140
107.725000	5617.041667	989.960938	-30.820049
107.725000	5617.041667	988.796875	155.681564
107.725000	5617.041667	987.630859	129.036209
107.725000	5617.041667	986.465820	136.686707
107.725000	5617.041667	985.300781	-15.303326
107.725000	5617.041667	984.134766	-40.715015
107.725000	5617.041667	982.968750	-12.717727
107.725000	5617.041667	981.801758	72.214027
107.725000	5617.041667	980.635742	81.527138
107.725000	5617.041667	979.468750	153.007813
107.725000	5617.041667	978.301758	62.215256
107.725000	5617.041667	977.133789	83.948837
107.725000	5617.041667	975.966797	71.721931
107.725000	5617.041667	974.798828	-11.444461
107.725000	5617.041667	973.630859	-35.442276
107.725000	5617.041667	972.461914	0.429694
107.725000	5617.041667	971.293945	40.160461
107.725000	5617.041667	970.125000	29.182602
107.725000	5617.041667	968.956055	27.973343
107.725000	5617.041667	967.786133	156.991180
107.725000	5617.041667	966.617188	146.344849
107.725000	5617.041667	965.447266	44.078644
107.725000	5617.041667	964.276367	54.026649
107.725000	5617.041667	963.106445	-10.484605
107.725000	5617.041667	961.935547	-15.045602
107.725000	5617.041667	960.764648	68.460106
107.725000	5617.041667	959.593750	105.407631
107.725000	5617.041667	958.422852	112.959686
107.725000	5617.041667	957.250977	-27.783215
107.725000	5617.041667	956.079102	-36.758781
107.725000	5617.041667	954.907227	-6.804799
107.725000	5617.041667	953.734375	6.147015
107.725000	5617.041667	952.562500	28.260239
107.725000	5617.041667	951.389648	22.127846
107.725000	5617.041667	950.215820	-43.104073
107.725000	5617.041667	949.042969	-25.306562
107.725000	5617.041667	947.869141	-19.806124
107.725000	5617.041667	946.695313	-41.010632
107.725000	5617.041667	945.521484	83.170845
107.725000	5617.041667	944.346680	78.766487
107.725000	5617.041667	943.172852	-70.659134
107.725000	5617.041667	941.998047	-31.263145
107.725000	5617.041667	940.822266	-71.826958
107.725000	5617.041667	939.647461	49.583912
107.725000	5617.041667	938.471680	-61.120815
107.725000	5617.041667	937.295898	-46.046471
107.725000	5617.041667	936.119141	-30.903193
107.725000	5617.041667	934.943359	-23.085814
107.725000	5617.041667	933.766602	47.760910
107.725000	5617.041667	932.589844	140.257492
107.725000	5617.041667	931.413086	22.216537
107.725000	5617.041667	930.235352	17.881008
107.725000	5617.041667	929.057617	49.828949
107.725000	5617.041667	927.879883	60.056076
107.725000	5617.041667	926.702148	140.407227
107.725000	5617.041667	925.523438	-62.239914
107.725000	5617.041667	924.344727	39.857288
107.725000	5617.041667	923.166016	1.691119
107.725000	5617.041667	921.987305	19.125940
107.725000	5617.041667	920.807617	48.641487
107.725000	5617.041667	919.627930	49.983810
107.725000	5617.041667	919.497070	97.618286
107.725000	5617.041667	918.331055	30.443815
107.725000	5617.041667	917.165039	42.999775
107.725000	5617.041667	915.999023	-91.762573
107.725000	5617.041667	914.833008	63.254040
107.725000	5617.041667	913.666016	51.644062
107.725000	5617.041667	912.499023	-27.541512
107.725000	5617.041667	911.332031	35.663971
107.725000	5617.041667	910.165039	19.229111
107.725000	5617.041667	908.997070	-18.909628
107.725000	5617.041667	907.830078	24.951754
107.725000	5617.041667	906.661133	71.204254
107.725000	5617.041667	905.493164	-174.234589
107.725000	5617.041667	904.325195	-55.669056
107.725000	5617.041667	903.156250	-38.353348
107.725000	5617.041667	901.987305	-66.819214
107.725000	5617.041667	900.818359	66.093353
107.725000	5617.041667	899.648438	-111.685570
107.725000	5617.041667	898.478516	-12.529016
107.725000	5617.041667	897.308594	-19.325819
107.725000	5617.041667	896.138672	-153.670135
107.725000	5617.041667	894.968750	-64.199326
107.725000	5617.041667	893.797852	-61.367367
107.725000	5617.041667	892.626953	3.992516
107.725000	5617.041667	891.456055	-10.028541
107.725000	5617.041667	890.284180	-43.278061
107.725000	5617.041667	889.113281	86.927269
107.725000	5617.041667	887.941406	101.728020
107.725000	5617.041667	886.768555	78.079803
107.725000	5617.041667	885.596680	11.199175
107.725000	5617.041667	884.423828	11.590429
107.725000	5617.041667	883.250977	38.391781
107.725000	5617.041667	882.078125	142.001251
107.725000	5617.041667	880.905273	-52.054985
107.725000	5617.041667	879.731445	29.929974
107.725000	5617.041667	878.557617	95.085060
107.725000	5617.041667	877.383789	33.080738
107.725000	5617.041667	876.209961	-43.289463
107.725000	5617.041667	875.035156	100.960381
107.725000	5617.041667	873.860352	-18.545197
107.725000	5617.041667	872.685547	44.148220
107.725000	5617.041667	871.510742	49.304104
107.725000	5617.041667	870.334961	-5.436349
107.725000	5617.041667	869.159180	-69.737175
107.725000	5617.041667	867.983398	117.438057
107.725000	5617.041667	866.807617	-6.721639
107.725000	5617.041667	865.630859	77.428574
107.725000	5617.041667	864.454102	82.564270
107.725000	5617.041667	863.277344	-12.801332
107.725000	5617.041667	862.100586	52.156040
107.725000	5617.041667	860.922852	-0.113129
107.725000	5617.041667	859.745117	-66.710121
107.725000	5617.041667	858.567383	79.504257
107.725000	5617.041667	857.389648	51.161633
107.725000	5617.041667	856.210938	147.103851
107.725000	5617.041667	855.032227	18.403692
107.725000	5617.041667	853.853516	6.810699
107.725000	5617.041667	852.674805	-26.273973
107.725000	5617.041667	851.495117	-42.629597
107.725000	5617.041667	850.315430	-130.602325
107.725000	5617.041667	849.135742	-80.097916
107.725000	5617.041667	847.956055	53.910046
107.725000	5617.041667	846.775391	-12.556458
107.725000	5617.041667	845.595703	80.828033
107.725000	5617.041667	844.415039	38.231266
107.725000	5617.041667	843.233398	-68.728828
107.725000	5617.041667	842.052734	-20.687485
107.725000	5617.041667	840.871094	-65.622231
107.725000	5617.041667	839.689453	34.823875
107.725000	5617.041667	838.506836	-98.257362
107.725000	5617.041667	837.325195	-66.926224
107.725000	5617.041667	836.142578	-14.173681
107.725000	5617.041667	834.959961	45.699245
107.725000	5617.041667	833.777344	-46.808662
107.725000	5617.041667	832.593750	-79.776512
107.725000	5617.041667	831.410156	8.626510
107.725000	5617.041667	830.226563	-38.615463
107.725000	5617.041667	829.042969	11.683599
107.725000	5617.041667	827.858398	-102.126717
107.725000	5617.041667	826.673828	12.359352
107.725000	5617.041667	825.489258	-13.452437
107.725000	5617.041667	824.304688	-3.605068
107.725000	5617.041667	823.120117	15.742022
107.725000	5617.041667	821.934570	32.705494
107.725000	5617.041667	820.749023	-35.844776
107.725000	5617.041667	819.562500	61.860455
107.725000	5617.041667	818.376953	-23.288652
107.725000	5617.041667	817.190430	62.503242
107.725000	5617.041667	816.003906	36.718311
107.725000	5617.041667	814.817383	44.160973
107.725000	5617.041667	813.629883	-31.427378
107.725000	5617.041667	812.442383	-26.346548
107.725000	5617.041667	811.254883	16.670763
107.725000	5617.041667	810.067383	24.107916
107.725000	5617.041667	808.878906	71.836182
107.725000	5617.041667	807.690430	129.022781
107.725000	5617.041667	806.501953	110.367149
107.725000	5617.041667	805.313477	105.931000
107.725000	5617.041667	804.124023	68.339745
107.725000	5617.041667	802.934570	113.636086
107.725000	5617.041667	801.745117	5.036544
107.725000	5617.041667	800.555664	-25.414265
107.725000	5617.041667	799.365234	5.671996
107.725000	5617.041667	798.175781	-43.696346
107.725000	5617.041667	796.985352	81.991798
107.725000	5617.041667	795.793945	34.991497
107.725000	5617.041667	794.603516	9.287397
107.725000	5617.041667	793.412109	42.690380
107.725000	5617.041667	792.220703	139.889633
107.725000	5617.041667	791.028320	50.376984
107.725000	5617.041667	789.836914	-29.651484
107.725000	5617.041667	788.644531	81.668556
107.725000	5617.041667	787.452148	46.530682
107.725000	5617.041667	786.258789	60.986038
107.725000	5617.041667	785.066406	94.315666
107.725000	5617.041667	783.873047	-54.087799
107.725000	5617.041667	782.679688	-115.131363
107.725000	5617.041667	781.485352	-133.689209
107.725000	5617.041667	780.291992	5.776824
107.725000	5617.041667	779.097656	24.924458
107.725000	5617.041667	777.903320	44.061050
107.725000	5617.041667	776.708008	119.756752
107.725000	5617.041667	775.512695	11.607253
107.725000	5617.041667	774.318359	-25.819586
107.725000	5617.041667	773.122070	19.212463
107.725000	5617.041667	771.926758	111.323196
107.725000	5617.041667	770.730469	52.699585
107.725000	5617.041667	769.534180	24.700026
107.725000	5617.041667	768.337891	147.339554
107.725000	5617.041667	767.141602	34.612465
107.725000	5617.041667	765.944336	4.271227
107.725000	5617.041667	764.747070	23.333660
107.725000	5617.041667	763.549805	49.439312
107.725000	5617.041667	762.351563	139.012024
107.725000	5617.041667	761.154297	87.501892
107.725000	5617.041667	759.956055	115.916115
107.725000	5617.041667	758.757813	31.528635
107.725000	5617.041667	757.558594	130.410736
107.725000	5617.041667	756.359375	85.975044
107.725000	5617.041667	755.160156	116.696533
107.725000	5617.041667	753.960938	39.404179
107.725000	5617.041667	752.761719	44.292702
107.725000	5617.041667	751.561523	-11.840811
107.725000	5617.041667	750.361328	9.470710
107.725000	5617.041667	749.160156	44.843193
107.725000	5617.041667	747.959961	21.562477
107.725000	5617.041667	746.758789	99.112976
107.725000	5617.041667	745.557617	73.475693
107.725000	5617.041667	744.356445	68.937599
107.725000	5617.041667	743.154297	97.202736
107.725000	5617.041667	741.952148	127.792633
107.725000	5617.041667	740.750000	67.011612
107.725000	5617.041667	739.547852	27.326334
107.725000	5617.041667	738.344727	43.844864
107.725000	5617.041667	737.142578	-49.672997
107.725000	5617.041667	735.939453	102.584450
107.725000	5617.041667	734.735352	23.120481
107.725000	5617.041667	733.532227	60.653175
107.725000	5617.041667	732.328125	184.704163
107.725000	5617.041667	731.124023	112.266449
107.725000	5617.041667	729.918945	7.120900
107.725000	5617.041667	728.714844	-37.215034
107.725000	5617.041667	727.509766	114.766548
107.725000	5617.041667	726.303711	117.142151
107.725000	5617.041667	725.098633	40.083553
107.725000	5617.041667	723.892578	37.786121
107.725000	5617.041667	722.686523	121.877174
107.725000	5617.041667	721.480469	121.881241
107.725000	5617.041667	720.274414	147.551102
107.725000	5617.041667	719.067383	-1.815105
107.725000	5617.041667	717.860352	21.519594
107.725000	5617.041667	716.653320	56.498173
107.725000	5617.041667	715.445313	21.490767
107.725000	5617.041667	714.238281	75.088707
107.725000	5617.041667	713.030273	44.735031
107.725000	5617.041667	711.821289	-29.896839
107.725000	5617.041667	710.613281	72.582573
107.725000	5617.041667	709.404297	35.230507
107.725000	5617.041667	708.195313	-18.420099
107.725000	5617.041667	706.986328	-72.058601
107.725000	5617.041667	705.776367	65.226334
107.725000	5617.041667	704.566406	2.261358
107.725000	5617.041667	703.356445	25.418888
107.725000	5617.041667	702.146484	-23.572697
107.725000	5617.041667	700.935547	-9.746196
107.725000	5617.041667	699.724609	-33.148453
107.725000	5617.041667	698.513672	-14.697824
107.725000	5617.041667	697.302734	-54.385406
107.725000	5617.041667	696.090820	10.524756
107.725000	5617.041667	694.878906	26.596216
107.725000	5617.041667	693.666992	68.205299
107.725000	5617.041667	692.455078	-1.710140
107.725000	5617.041667	691.242188	2.706430
107.725000	5617.041667	690.029297	-9.144245
107.725000	5617.041667	688.816406	-46.537201
107.725000	5617.041667	687.602539	-11.980190
107.725000	5617.041667	686.389648	-63.304550
107.725000	5617.041667	685.175781	-79.821808
107.725000	5617.041667	683.960938	26.583120
107.725000	5617.041667	682.747070	-6.204742
107.725000	5617.041667	681.532227	-18.125877
107.725000	5617.041667	680.317383	-90.321930
107.725000	5617.041667	679.102539	27.528990
107.725000	5617.041667	677.886719	41.053825
107.725000	5617.041667	676.670898	98.571899
107.725000	5617.041667	675.455078	98.152191
107.725000	5617.041667	674.239258	109.296036
107.725000	5617.041667	673.022461	39.395966
107.725000	5617.041667	671.805664	55.148056
107.725000	5617.041667	670.588867	94.018997
107.725000	5617.041667	669.372070	7.927865
107.725000	5617.041667	668.154297	-38.819775
107.725000	5617.041667	666.936523	122.567924
107.725000	5617.041667	665.718750	131.275665
107.725000	5617.041667	664.500977	61.370476
107.725000	5617.041667	663.282227	33.079281
107.725000	5617.041667	662.063477	23.269655
107.725000	5617.041667	660.844727	52.720798
107.725000	5617.041667	659.625000	137.575119
107.725000	5617.041667	658.405273	-1.609321
107.725000	5617.041667	657.185547	117.818985
107.725000	5617.041667	655.965820	80.224945
107.725000	5617.041667	654.745117	-28.907286
107.725000	5617.041667	653.525391	120.396561
107.725000	5617.041667	652.303711	131.218521
107.725000	5617.041667	651.083008	84.363853
107.725000	5617.041667	649.861328	108.990356
107.725000	5617.041667	648.640625	48.295563
107.725000	5617.041667	647.417969	231.914825
107.725000	5617.041667	646.196289	104.362312
107.725000	5617.041667	644.973633	103.555252
107.725000	5617.041667	643.750977	139.584595
107.725000	5617.041667	642.528320	168.673203
107.725000	5617.041667	641.305664	234.569519
107.725000	5617.041667	640.082031	127.783249
107.725000	5617.041667	638.858398	216.639771
107.725000	5617.041667	637.634766	190.398056
107.725000	5617.041667	636.410156	173.351685
107.725000	5617.041667	635.185547	142.495560
107.725000	5617.041667	633.960938	79.443611
107.725000	5617.041667	632.736328	122.150909
107.725000	5617.041667	631.510742	20.021578
107.725000	5617.041667	630.285156	90.263443
107.725000	5617.041667	629.059570	169.647720
107.725000	5617.041667	627.833984	39.956867
107.725000	5617.041667	626.607422	-41.470963
107.725000	5617.041667	625.380859	3.397333
107.725000	5617.041667	624.154297	146.936005
107.725000	5617.041667	622.927734	60.893829
107.725000	5617.041667	621.700195	-34.307816
107.725000	5617.041667	620.472656	127.446022
107.725000	5617.041667	619.245117	-11.342953
107.725000	5617.041667	618.016602	60.871620
107.725000	5617.041667	616.788086	22.993559
107.725000	5617.041667	615.559570	168.481613
107.725000	5617.041667	614.331055	6.814076
107.725000	5617.041667	613.101563	133.878555
107.725000	5617.041667	611.872070	166.955185
107.725000	5617.041667	610.642578	74.041534
107.725000	5617.041667	609.413086	-0.533259
107.725000	5617.041667	608.182617	-72.805450
107.725000	5617.041667	606.952148	1.411653
107.725000	5617.041667	605.721680	-13.660481
107.725000	5617.041667	604.491211	-12.730060
107.725000	5617.041667	603.259766	13.341441
107.725000	5617.041667	602.028320	-56.659134
107.725000	5617.041667	600.796875	-44.342319
107.725000	5617.041667	599.564453	61.668163
107.725000	5617.041667	598.332031	9.930948
107.725000	5617.041667	597.099609	-9.814395
107.725000	5617.041667	595.867188	-56.980633
107.725000	5617.041667	594.633789	-56.184200
107.725000	5617.041667	593.400391	40.494938
107.725000	5617.041667	592.166992	116.569809
107.725000	5617.041667	590.933594	83.041710
107.725000	5617.041667	589.699219	-75.993652
107.725000	5617.041667	588.464844	-11.401103
107.725000	5617.041667	587.230469	-10.718618
107.725000	5617.041667	585.995117	-46.540478
107.725000	5617.041667	584.760742	29.353676
107.725000	5617.041667	583.525391	0.343540
107.725000	5617.041667	582.289063	-33.229256
107.725000	5617.041667	581.053711	-114.651833
107.725000	5617.041667	579.817383	22.631222
107.725000	5617.041667	578.581055	55.074074
107.725000	5617.041667	577.343750	41.945679
107.725000	5617.041667	576.107422	-14.446503
107.725000	5617.041667	574.870117	-7.101574
107.725000	5617.041667	573.631836	-56.665421
107.725000	5617.041667	572.394531	-60.721123
107.725000	5617.041667	571.156250	85.332016
107.725000	5617.041667	569.917969	-112.083221
107.725000	5617.041667	568.679688	49.803581
107.725000	5617.041667	567.440430	9.296228
107.725000	5617.041667	566.202148	9.699717
107.725000	5617.041667	564.961914	3.270546
107.725000	5617.041667	563.722656	-34.973267
107.725000	5617.041667	562.482422	103.937729
107.725000	5617.041667	561.243164	138.323029
107.725000	5617.041667	560.001953	143.165359
107.725000	5617.041667	558.761719	34.505314
107.725000	5617.041667	557.520508	-10.583466
107.725000	5617.041667	556.279297	26.009459
107.725000	5617.041667	555.038086	67.109970
107.725000	5617.041667	553.795898	185.284241
107.725000	5617.041667	552.554688	44.921993
107.725000	5617.041667	551.311523	163.024063
107.725000	5617.041667	550.069336	140.550735
107.725000	5617.041667	548.826172	118.073570
107.725000	5617.041667	547.583984	68.410599
107.725000	5617.041667	546.339844	98.026169
107.725000	5617.041667	545.096680	57.421947
107.725000	5617.041667	543.852539	-69.206551
107.725000	5617.041667	542.608398	87.137733
107.725000	5617.041667	541.364258	62.367844
107.725000	5617.041667	540.119141	173.344818
107.725000	5617.041667	538.875000	223.191269
107.725000	5617.041667	537.628906	325.017853
107.725000	5617.041667	536.383789	87.640167
107.725000	5617.041667	535.137695	-81.830872
107.725000	5617.041667	533.892578	-29.753780
107.725000	5617.041667	532.645508	-70.352432
107.725000	5617.041667	531.399414	20.084562
107.725000	5617.041667	530.152344	-20.525738
107.725000	5617.041667	528.905273	90.165848
107.725000	5617.041667	527.658203	47.283096
107.725000	5617.041667	526.410156	38.266300
107.725000	5617.041667	525.163086	54.069523
107.725000	5617.041667	523.914063	2.170665
107.725000	5617.041667	522.666016	4.424071
107.725000	5617.041667	521.416992	49.516479
107.725000	5617.041667	520.167969	67.525879
107.725000	5617.041667	518.918945	-54.241852
107.725000	5617.041667	517.669922	11.096816
107.725000	5617.041667	516.419922	-13.730761
107.725000	5617.041667	515.169922	-101.631935
107.725000	5617.041667	513.919922	1.943798
107.725000	5617.041667	512.668945	15.395165
107.725000	5617.041667	511.417969	-18.442753
107.725000	5617.041667	510.166992	-32.014088
107.725000	5617.041667	508.916016	-32.083050
107.725000	5617.041667	507.664063	-16.408894
107.725000	5617.041667	506.412109	3.752148
107.725000	5617.041667	505.160156	-34.571907
107.725000	5617.041667	503.907227	8.057898
107.725000	5617.041667	502.655273	-131.417221
107.725000	5617.041667	501.402344	48.301373
107.725000	5617.041667	500.148438	61.661324
107.725000	5617.041667	498.895508	14.357030
107.725000	5617.041667	497.641602	25.464664
107.725000	5617.041667	496.387695	-93.677055
107.725000	5617.041667	495.132813	85.818756
107.725000	5617.041667	493.878906	13.843996
107.725000	5617.041667	492.624023	-4.246166
107.725000	5617.041667	491.368164	24.782261
107.725000	5617.041667	490.113281	-44.900532
107.725000	5617.041667	488.857422	125.403366
107.725000	5617.041667	487.601563	57.964020
107.725000	5617.041667	486.344727	156.432159
107.725000	5617.041667	485.088867	64.356361
107.725000	5617.041667	483.832031	-34.405853
107.725000	5617.041667	482.575195	-52.480942
107.725000	5617.041667	481.317383	-25.757536
107.725000	5617.041667	480.059570	36.779476
107.725000	5617.041667	478.801758	34.362759
107.725000	5617.041667	477.543945	74.471527
107.725000	5617.041667	476.285156	-19.708923
107.725000	5617.041667	475.027344	-17.645979
107.725000	5617.041667	473.767578	42.568298
107.725000	5617.041667	472.508789	8.828068
107.725000	5617.041667	471.249023	238.930359
107.725000	5617.041667	469.989258	10.676083
107.725000	5617.041667	468.729492	-38.690781
107.725000	5617.041667	467.469727	8.040067
107.725000	5617.041667	466.208984	92.722694
107.725000	5617.041667	464.948242	-25.879677
107.725000	5617.041667	463.686523	23.036684
107.725000	5617.041667	462.425781	-68.718163
107.725000	5617.041667	461.164063	13.657277
107.725000	5617.041667	459.901367	-2.196438
107.725000	5617.041667	458.639648	-58.205864
107.725000	5617.041667	457.376953	146.777313
107.725000	5617.041667	456.114258	-5.146427
107.725000	5617.041667	454.851563	-130.256042
107.725000	5617.041667	453.587891	-16.804171
107.725000	5617.041667	452.324219	-41.584209
107.725000	5617.041667	451.060547	-90.870804
107.725000	5617.041667	449.796875	42.524509
107.725000	5617.041667	448.532227	15.494452
107.725000	5617.041667	447.267578	86.441818
107.725000	5617.041667	446.002930	61.620659
107.725000	5617.041667	444.737305	85.765121
107.725000	5617.041667	443.471680	156.618011
107.725000	5617.041667	442.206055	98.390541
107.725000	5617.041667	440.940430	193.652298
107.725000	5617.041667	439.673828	86.490997
107.725000	5617.041667	438.407227	159.451599
107.725000	5617.041667	437.140625	1.188018
107.725000	5617.041667	435.873047	5.209240
107.725000	5617.041667	434.605469	109.196342
107.725000	5617.041667	433.337891	124.264549
107.725000	5617.041667	432.070313	50.469009
107.725000	5617.041667	430.801758	3.329939
107.725000	5617.041667	429.533203	149.326874
107.725000	5617.041667	428.264648	66.630775
107.725000	5617.041667	426.996094	21.670134
107.725000	5617.041667	425.726563	138.654861
107.725000	5617.041667	424.457031	120.261604
107.725000	5617.041667	423.186523	128.457962
107.725000	5617.041667	421.916992	85.630325
107.725000	5617.041667	420.646484	47.222401
107.725000	5617.041667	419.375977	26.528147
107.725000	5617.041667	418.104492	36.826099
107.725000	5617.041667	416.833008	179.994141
107.725000	5617.041667	415.561523	13.007154
107.725000	5617.041667	414.290039	173.755951
107.725000	5617.041667	413.017578	73.173035
107.725000	5617.041667	411.746094	74.402550
107.725000	5617.041667	410.472656	51.242413
107.725000	5617.041667	409.200195	-18.410007
107.725000	5617.041667	407.926758	-6.246481
107.725000	5617.041667	406.653320	21.340084
107.725000	5617.041667	405.379883	2.433901
107.725000	5617.041667	404.105469	18.844643
107.725000	5617.041667	402.831055	-17.847563
107.725000	5617.041667	401.556641	53.676628
107.725000	5617.041667	400.282227	-14.055030
107.725000	5617.041667	399.006836	2.095263
107.725000	5617.041667	397.731445	64.537567
107.725000	5617.041667	396.456055	124.674408
107.725000	5617.041667	395.179688	65.530373
107.725000	5617.041667	393.903320	127.693153
107.725000	5617.041667	392.626953	30.914135
107.725000	5617.041667	391.350586	103.922142
107.725000	5617.041667	390.073242	123.887650
107.725000	5617.041667	388.795898	44.546661
107.725000	5617.041667	387.518555	4.821571
107.725000	5617.041667	386.240234	119.268578
107.725000	5617.041667	384.961914	48.499561
107.725000	5617.041667	383.683594	6.291606
107.725000	5617.041667	382.405273	-42.612492
107.725000	5617.041667	381.125977	31.685989
107.725000	5617.041667	379.846680	68.414055
107.725000	5617.041667	378.567383	111.608620
107.725000	5617.041667	377.287109	161.256653
107.725000	5617.041667	376.006836	69.964973
107.725000	5617.041667	374.726563	86.347282
107.725000	5617.041667	373.446289	164.151459
107.725000	5617.041667	372.165039	57.111168
107.725000	5617.041667	370.883789	106.019630
107.725000	5617.041667	369.602539	-115.529449
107.725000	5617.041667	368.320313	-27.375410
107.725000	5617.041667	367.039063	-82.190483
107.725000	5617.041667	365.755859	-22.967564
107.725000	5617.041667	364.473633	-21.024855
107.725000	5617.041667	363.190430	39.997524
107.725000	5617.041667	361.907227	111.778923
107.725000	5617.041667	360.624023	115.320290
107.725000	5617.041667	359.340820	136.209824
107.725000	5617.041667	358.056641	-58.045418
107.725000	5617.041667	356.772461	-4.659651
107.725000	5617.041667	355.487305	-19.478512
107.725000	5617.041667	354.202148	-27.941336
107.725000	5617.041667	352.916992	-1.573981
107.725000	5617.041667	351.631836	-60.895634
107.725000	5617.041667	350.346680	35.069485
107.725000	5617.041667	349.060547	104.454979
107.725000	5617.041667	347.774414	40.000256
107.725000	5617.041667	346.487305	47.528599
107.725000	5617.041667	345.200195	39.456192
107.725000	5617.041667	343.913086	-6.092181
107.725000	5617.041667	342.625977	-12.543176
107.725000	5617.041667	341.338867	-52.098049
107.725000	5617.041667	340.050781	65.467766
107.725000	5617.041667	338.762695	5.597913
107.725000	5617.041667	337.473633	-4.318399
107.725000	5617.041667	336.184570	-1.461003
107.725000	5617.041667	334.895508	-57.936455
107.725000	5617.041667	333.606445	-95.090767
107.725000	5617.041667	332.317383	35.536472
107.725000	5617.041667	331.027344	-50.409138
107.725000	5617.041667	329.736328	5.151631
107.725000	5617.041667	328.446289	-26.988337
107.725000	5617.041667	327.155273	-72.627571
107.725000	5617.041667	325.864258	-79.409363
107.725000	5617.041667	324.573242	-5.937142
107.725000	5617.041667	323.281250	21.259045
107.725000	5617.041667	321.989258	143.894043
107.725000	5617.041667	320.697266	28.461809
107.725000	5617.041667	319.405273	-56.900356
107.725000	5617.041667	318.112305	20.639814
107.725000	5617.041667	316.819336	8.344395
107.725000	5617.041667	315.526367	-91.564178
107.725000	5617.041667	314.232422	54.010509
107.725000	5617.041667	312.938477	-16.496305
107.725000	5617.041667	311.644531	25.612583
107.725000	5617.041667	310.349609	-11.209151
107.725000	5617.041667	309.054688	-57.309597
107.725000	5617.041667	307.759766	156.944122
107.725000	5617.041667	306.464844	196.555176
107.725000	5617.041667	305.168945	152.895615
107.725000	5617.041667	303.873047	197.695068
107.725000	5617.041667	302.577148	276.564209
107.725000	5617.041667	301.281250	213.520157
107.725000	5617.041667	299.984375	214.927719
