#X		#Y		#Wave		#Intensity
421.038830	6402.956667	1999.946289	-175.958130
421.038830	6402.956667	1998.981445	273.589539
421.038830	6402.956667	1998.017578	56.428925
421.038830	6402.956667	1997.052734	37.375813
421.038830	6402.956667	1996.088867	50.311649
421.038830	6402.956667	1995.124023	-120.281914
421.038830	6402.956667	1994.159180	-139.941895
421.038830	6402.956667	1993.193359	23.446926
421.038830	6402.956667	1992.228516	-36.253094
421.038830	6402.956667	1991.262695	17.742355
421.038830	6402.956667	1990.296875	-42.318031
421.038830	6402.956667	1989.331055	78.090256
421.038830	6402.956667	1988.365234	-125.818886
421.038830	6402.956667	1987.398438	-89.894768
421.038830	6402.956667	1986.432617	67.020767
421.038830	6402.956667	1985.465820	97.609688
421.038830	6402.956667	1984.499023	202.188736
421.038830	6402.956667	1983.532227	-32.052013
421.038830	6402.956667	1982.565430	45.014935
421.038830	6402.956667	1981.597656	119.434357
421.038830	6402.956667	1980.629883	82.515549
421.038830	6402.956667	1979.662109	-48.386673
421.038830	6402.956667	1978.694336	25.582443
421.038830	6402.956667	1977.726563	328.999237
421.038830	6402.956667	1976.758789	81.703690
421.038830	6402.956667	1975.790039	184.834015
421.038830	6402.956667	1974.821289	21.307413
421.038830	6402.956667	1973.852539	188.313217
421.038830	6402.956667	1972.883789	143.010452
421.038830	6402.956667	1971.915039	90.214302
421.038830	6402.956667	1970.945313	244.451782
421.038830	6402.956667	1969.975586	191.445007
421.038830	6402.956667	1969.005859	219.695496
421.038830	6402.956667	1968.036133	45.760380
421.038830	6402.956667	1967.066406	-34.577694
421.038830	6402.956667	1966.096680	18.049788
421.038830	6402.956667	1965.125977	65.642502
421.038830	6402.956667	1964.155273	177.158142
421.038830	6402.956667	1963.184570	138.365448
421.038830	6402.956667	1962.213867	92.121948
421.038830	6402.956667	1961.242188	208.255859
421.038830	6402.956667	1960.271484	-34.988853
421.038830	6402.956667	1959.299805	208.914124
421.038830	6402.956667	1958.328125	-61.435757
421.038830	6402.956667	1957.356445	297.835327
421.038830	6402.956667	1956.384766	238.903915
421.038830	6402.956667	1955.412109	241.394333
421.038830	6402.956667	1954.439453	140.592621
421.038830	6402.956667	1953.467773	-80.642784
421.038830	6402.956667	1952.495117	74.077415
421.038830	6402.956667	1951.521484	164.817993
421.038830	6402.956667	1950.548828	157.232758
421.038830	6402.956667	1949.575195	115.225197
421.038830	6402.956667	1948.601563	154.211227
421.038830	6402.956667	1947.627930	-5.692698
421.038830	6402.956667	1946.654297	-64.950241
421.038830	6402.956667	1945.680664	177.598907
421.038830	6402.956667	1944.706055	-11.772551
421.038830	6402.956667	1943.732422	206.079636
421.038830	6402.956667	1942.757813	-0.457532
421.038830	6402.956667	1941.783203	-3.430159
421.038830	6402.956667	1940.807617	84.276939
421.038830	6402.956667	1939.833008	154.769958
421.038830	6402.956667	1938.857422	210.507782
421.038830	6402.956667	1937.881836	143.694214
421.038830	6402.956667	1936.906250	108.730347
421.038830	6402.956667	1935.930664	98.254555
421.038830	6402.956667	1934.955078	-125.281395
421.038830	6402.956667	1933.978516	-86.776443
421.038830	6402.956667	1933.001953	-16.478043
421.038830	6402.956667	1932.025391	166.364304
421.038830	6402.956667	1931.048828	-22.814419
421.038830	6402.956667	1930.072266	71.864143
421.038830	6402.956667	1929.094727	164.052536
421.038830	6402.956667	1928.118164	214.624405
421.038830	6402.956667	1927.140625	-238.533539
421.038830	6402.956667	1926.163086	90.779289
421.038830	6402.956667	1925.184570	-200.875565
421.038830	6402.956667	1924.207031	32.993610
421.038830	6402.956667	1923.228516	5.334848
421.038830	6402.956667	1922.250000	68.073204
421.038830	6402.956667	1921.271484	130.788818
421.038830	6402.956667	1920.292969	176.388916
421.038830	6402.956667	1919.314453	124.312950
421.038830	6402.956667	1918.334961	123.522621
421.038830	6402.956667	1917.355469	81.245529
421.038830	6402.956667	1916.375977	-46.415909
421.038830	6402.956667	1915.396484	343.193420
421.038830	6402.956667	1914.416992	59.432720
421.038830	6402.956667	1913.436523	-4.724736
421.038830	6402.956667	1912.457031	-185.889313
421.038830	6402.956667	1911.476563	32.833977
421.038830	6402.956667	1910.496094	19.930300
421.038830	6402.956667	1909.515625	-66.066528
421.038830	6402.956667	1908.534180	13.660446
421.038830	6402.956667	1907.552734	-133.183060
421.038830	6402.956667	1906.572266	-202.020309
421.038830	6402.956667	1905.590820	106.627655
421.038830	6402.956667	1904.608398	54.838493
421.038830	6402.956667	1903.626953	17.687870
421.038830	6402.956667	1902.644531	-58.375534
421.038830	6402.956667	1901.663086	271.969910
421.038830	6402.956667	1900.680664	-130.088806
421.038830	6402.956667	1899.698242	-45.498661
421.038830	6402.956667	1898.714844	77.985886
421.038830	6402.956667	1897.732422	28.804394
421.038830	6402.956667	1896.749023	-73.827812
421.038830	6402.956667	1895.765625	190.615784
421.038830	6402.956667	1894.782227	-6.750363
421.038830	6402.956667	1893.798828	89.966537
421.038830	6402.956667	1892.814453	50.625248
421.038830	6402.956667	1891.831055	-112.550835
421.038830	6402.956667	1890.846680	180.876328
421.038830	6402.956667	1889.862305	22.626360
421.038830	6402.956667	1888.877930	102.339973
421.038830	6402.956667	1887.892578	101.951103
421.038830	6402.956667	1886.908203	-60.995838
421.038830	6402.956667	1885.922852	-3.094006
421.038830	6402.956667	1884.937500	45.101631
421.038830	6402.956667	1883.952148	-20.686298
421.038830	6402.956667	1882.965820	209.381409
421.038830	6402.956667	1881.980469	5.441651
421.038830	6402.956667	1880.994141	7.616213
421.038830	6402.956667	1880.007813	0.114578
421.038830	6402.956667	1879.021484	-99.436417
421.038830	6402.956667	1878.035156	140.205276
421.038830	6402.956667	1877.047852	47.964813
421.038830	6402.956667	1876.061523	69.587151
421.038830	6402.956667	1875.074219	-27.414213
421.038830	6402.956667	1874.086914	-10.594646
421.038830	6402.956667	1873.098633	110.301071
421.038830	6402.956667	1872.111328	-54.356316
421.038830	6402.956667	1871.123047	117.338364
421.038830	6402.956667	1870.135742	32.591709
421.038830	6402.956667	1869.147461	-61.780926
421.038830	6402.956667	1868.158203	-47.298328
421.038830	6402.956667	1867.169922	-64.233543
421.038830	6402.956667	1866.180664	-42.476231
421.038830	6402.956667	1865.192383	-27.962603
421.038830	6402.956667	1864.203125	-83.507088
421.038830	6402.956667	1863.213867	-126.938835
421.038830	6402.956667	1862.223633	-56.828777
421.038830	6402.956667	1861.234375	-119.542000
421.038830	6402.956667	1860.244141	83.349312
421.038830	6402.956667	1859.253906	155.831360
421.038830	6402.956667	1858.263672	-25.105089
421.038830	6402.956667	1857.273438	100.476089
421.038830	6402.956667	1856.282227	-174.446228
421.038830	6402.956667	1855.291992	78.971634
421.038830	6402.956667	1854.300781	-22.192028
421.038830	6402.956667	1853.309570	9.301768
421.038830	6402.956667	1852.317383	45.612560
421.038830	6402.956667	1851.326172	-7.257871
421.038830	6402.956667	1850.333984	24.239502
421.038830	6402.956667	1849.342773	212.335907
421.038830	6402.956667	1848.350586	75.177055
421.038830	6402.956667	1847.357422	-110.091042
421.038830	6402.956667	1846.365234	-136.361267
421.038830	6402.956667	1845.372070	87.759209
421.038830	6402.956667	1844.379883	169.787628
421.038830	6402.956667	1843.386719	25.572870
421.038830	6402.956667	1842.393555	-70.462654
421.038830	6402.956667	1841.399414	66.890381
421.038830	6402.956667	1840.406250	189.762451
421.038830	6402.956667	1839.412109	50.473133
421.038830	6402.956667	1838.417969	74.729965
421.038830	6402.956667	1837.423828	-45.251801
421.038830	6402.956667	1836.429688	113.604393
421.038830	6402.956667	1835.434570	-64.009705
421.038830	6402.956667	1834.440430	-15.724429
421.038830	6402.956667	1833.445313	-75.550270
421.038830	6402.956667	1832.450195	-22.481892
421.038830	6402.956667	1831.454102	30.564024
421.038830	6402.956667	1830.458984	141.203232
421.038830	6402.956667	1829.462891	66.979912
421.038830	6402.956667	1828.466797	31.176723
421.038830	6402.956667	1827.470703	67.361427
421.038830	6402.956667	1826.474609	26.762915
421.038830	6402.956667	1825.478516	94.102242
421.038830	6402.956667	1824.481445	15.133587
421.038830	6402.956667	1823.484375	-61.415062
421.038830	6402.956667	1822.487305	-281.765991
421.038830	6402.956667	1821.490234	25.209070
421.038830	6402.956667	1820.493164	63.691166
421.038830	6402.956667	1819.495117	-82.320473
421.038830	6402.956667	1818.498047	28.003899
421.038830	6402.956667	1817.500000	138.275665
421.038830	6402.956667	1816.500977	30.608427
421.038830	6402.956667	1815.502930	-21.970737
421.038830	6402.956667	1814.504883	28.374298
421.038830	6402.956667	1813.505859	21.255007
421.038830	6402.956667	1812.506836	-31.334896
421.038830	6402.956667	1811.507813	21.332485
421.038830	6402.956667	1810.508789	-19.308891
421.038830	6402.956667	1809.508789	203.077972
421.038830	6402.956667	1808.508789	162.383347
421.038830	6402.956667	1807.508789	45.198399
421.038830	6402.956667	1806.508789	116.836006
421.038830	6402.956667	1805.508789	135.860992
421.038830	6402.956667	1804.508789	-2.809289
421.038830	6402.956667	1803.507813	99.788055
421.038830	6402.956667	1802.506836	47.105896
421.038830	6402.956667	1801.505859	156.775467
421.038830	6402.956667	1800.504883	63.477806
421.038830	6402.956667	1799.502930	60.885696
421.038830	6402.956667	1798.501953	-185.121643
421.038830	6402.956667	1797.500000	81.879059
421.038830	6402.956667	1796.498047	-164.087906
421.038830	6402.956667	1795.496094	93.219063
421.038830	6402.956667	1794.493164	-50.177727
421.038830	6402.956667	1793.491211	-33.820709
421.038830	6402.956667	1792.488281	56.390919
421.038830	6402.956667	1791.485352	5.941547
421.038830	6402.956667	1790.482422	-4.012163
421.038830	6402.956667	1789.478516	50.327358
421.038830	6402.956667	1788.475586	-16.848627
421.038830	6402.956667	1787.471680	73.132706
421.038830	6402.956667	1786.467773	13.059595
421.038830	6402.956667	1785.463867	-44.640751
421.038830	6402.956667	1784.459961	-88.070435
421.038830	6402.956667	1783.455078	-48.236706
421.038830	6402.956667	1782.450195	172.352905
421.038830	6402.956667	1781.445313	133.566055
421.038830	6402.956667	1780.440430	2.014525
421.038830	6402.956667	1779.435547	-34.414482
421.038830	6402.956667	1778.429688	-135.050629
421.038830	6402.956667	1777.424805	-93.076942
421.038830	6402.956667	1776.418945	43.894611
421.038830	6402.956667	1775.413086	38.228844
421.038830	6402.956667	1774.406250	-26.856163
421.038830	6402.956667	1773.400391	309.409973
421.038830	6402.956667	1772.393555	85.132835
421.038830	6402.956667	1771.386719	98.306274
421.038830	6402.956667	1770.379883	-45.219566
421.038830	6402.956667	1769.373047	-43.969540
421.038830	6402.956667	1768.365234	-45.133945
421.038830	6402.956667	1767.358398	5.853968
421.038830	6402.956667	1766.350586	410.174561
421.038830	6402.956667	1765.342773	309.208710
421.038830	6402.956667	1764.334961	82.583885
421.038830	6402.956667	1763.326172	-238.814148
421.038830	6402.956667	1762.318359	195.889374
421.038830	6402.956667	1761.309570	78.286568
421.038830	6402.956667	1760.300781	109.936272
421.038830	6402.956667	1759.291016	-52.697830
421.038830	6402.956667	1758.282227	-35.330429
421.038830	6402.956667	1757.272461	263.742615
421.038830	6402.956667	1756.262695	32.388863
421.038830	6402.956667	1755.252930	2.258401
421.038830	6402.956667	1754.243164	78.581345
421.038830	6402.956667	1753.233398	195.049759
421.038830	6402.956667	1752.222656	-78.875832
421.038830	6402.956667	1751.211914	63.498596
421.038830	6402.956667	1750.201172	2.420784
421.038830	6402.956667	1749.190430	40.612118
421.038830	6402.956667	1748.179688	3.103559
421.038830	6402.956667	1747.167969	232.603516
421.038830	6402.956667	1746.156250	140.632416
421.038830	6402.956667	1745.144531	79.357986
421.038830	6402.956667	1744.132813	110.170586
421.038830	6402.956667	1743.121094	72.443016
421.038830	6402.956667	1742.108398	124.394234
421.038830	6402.956667	1741.095703	65.332069
421.038830	6402.956667	1740.083008	-135.359924
421.038830	6402.956667	1739.070313	-57.592102
421.038830	6402.956667	1738.057617	156.928284
421.038830	6402.956667	1737.043945	-102.787010
421.038830	6402.956667	1736.030273	-93.612526
421.038830	6402.956667	1735.016602	104.133209
421.038830	6402.956667	1734.002930	136.737122
421.038830	6402.956667	1732.989258	72.644379
421.038830	6402.956667	1731.974609	-29.181343
421.038830	6402.956667	1730.959961	-48.560570
421.038830	6402.956667	1729.945313	-136.294220
421.038830	6402.956667	1728.930664	6.754290
421.038830	6402.956667	1727.916016	-59.868279
421.038830	6402.956667	1726.900391	144.213684
421.038830	6402.956667	1725.885742	148.098190
421.038830	6402.956667	1724.870117	114.273834
421.038830	6402.956667	1723.853516	54.524590
421.038830	6402.956667	1722.837891	222.931198
421.038830	6402.956667	1721.822266	-123.856369
421.038830	6402.956667	1720.805664	-19.078955
421.038830	6402.956667	1719.789063	-41.351387
421.038830	6402.956667	1718.772461	46.810661
421.038830	6402.956667	1717.754883	-36.680447
421.038830	6402.956667	1716.738281	25.493986
421.038830	6402.956667	1715.720703	132.223129
421.038830	6402.956667	1714.703125	-190.973770
421.038830	6402.956667	1713.685547	105.866188
421.038830	6402.956667	1712.667969	-59.998207
421.038830	6402.956667	1711.649414	15.931101
421.038830	6402.956667	1710.630859	166.882568
421.038830	6402.956667	1709.612305	127.652145
421.038830	6402.956667	1708.593750	3.922476
421.038830	6402.956667	1707.575195	-33.023170
421.038830	6402.956667	1706.555664	-20.762136
421.038830	6402.956667	1705.536133	-60.144779
421.038830	6402.956667	1704.516602	12.961798
421.038830	6402.956667	1703.497070	118.800850
421.038830	6402.956667	1702.477539	215.172272
421.038830	6402.956667	1701.457031	46.695793
421.038830	6402.956667	1700.437500	-53.832596
421.038830	6402.956667	1699.416992	260.164307
421.038830	6402.956667	1698.395508	9.656203
421.038830	6402.956667	1697.375000	-105.016640
421.038830	6402.956667	1696.354492	171.200012
421.038830	6402.956667	1695.333008	40.048679
421.038830	6402.956667	1694.311523	58.643520
421.038830	6402.956667	1693.290039	126.305016
421.038830	6402.956667	1692.267578	2.092968
421.038830	6402.956667	1691.246094	-21.564840
421.038830	6402.956667	1690.223633	59.940235
421.038830	6402.956667	1689.201172	66.560509
421.038830	6402.956667	1688.178711	49.756153
421.038830	6402.956667	1687.155273	222.171738
421.038830	6402.956667	1686.132813	30.024624
421.038830	6402.956667	1685.109375	312.056824
421.038830	6402.956667	1684.085938	77.824417
421.038830	6402.956667	1683.062500	130.820847
421.038830	6402.956667	1682.039063	10.999496
421.038830	6402.956667	1681.014648	54.546700
421.038830	6402.956667	1679.990234	261.373260
421.038830	6402.956667	1678.965820	321.087891
421.038830	6402.956667	1677.941406	406.389099
421.038830	6402.956667	1676.916992	263.055511
421.038830	6402.956667	1675.891602	259.626831
421.038830	6402.956667	1674.866211	486.945740
421.038830	6402.956667	1673.840820	238.642441
421.038830	6402.956667	1672.815430	393.541504
421.038830	6402.956667	1671.790039	282.721405
421.038830	6402.956667	1670.763672	239.446243
421.038830	6402.956667	1669.737305	338.211334
421.038830	6402.956667	1668.710938	401.962311
421.038830	6402.956667	1667.684570	454.003296
421.038830	6402.956667	1666.658203	505.977264
421.038830	6402.956667	1665.630859	297.231110
421.038830	6402.956667	1664.603516	363.079773
421.038830	6402.956667	1663.576172	519.584167
421.038830	6402.956667	1662.548828	599.231018
421.038830	6402.956667	1661.520508	648.565430
421.038830	6402.956667	1660.493164	544.394958
421.038830	6402.956667	1659.464844	609.905945
421.038830	6402.956667	1658.436523	670.700745
421.038830	6402.956667	1657.408203	650.102905
421.038830	6402.956667	1656.378906	641.080322
421.038830	6402.956667	1655.350586	894.494568
421.038830	6402.956667	1654.321289	660.083496
421.038830	6402.956667	1653.291992	690.411560
421.038830	6402.956667	1652.261719	729.966797
421.038830	6402.956667	1651.232422	792.682617
421.038830	6402.956667	1650.202148	843.726135
421.038830	6402.956667	1649.171875	999.113159
421.038830	6402.956667	1648.141602	896.926208
421.038830	6402.956667	1647.111328	873.591553
421.038830	6402.956667	1646.080078	803.848206
421.038830	6402.956667	1645.049805	863.923828
421.038830	6402.956667	1644.018555	1111.673706
421.038830	6402.956667	1642.987305	872.648987
421.038830	6402.956667	1641.955078	754.153076
421.038830	6402.956667	1640.923828	932.180420
421.038830	6402.956667	1639.891602	815.966064
421.038830	6402.956667	1638.859375	903.530029
421.038830	6402.956667	1637.827148	965.561340
421.038830	6402.956667	1636.794922	1171.043945
421.038830	6402.956667	1635.761719	966.793823
421.038830	6402.956667	1634.729492	1005.542114
421.038830	6402.956667	1633.696289	1025.730591
421.038830	6402.956667	1632.662109	1191.583374
421.038830	6402.956667	1631.628906	1149.232300
421.038830	6402.956667	1630.594727	1183.156006
421.038830	6402.956667	1629.561523	1235.536255
421.038830	6402.956667	1628.527344	1105.287231
421.038830	6402.956667	1627.493164	1310.099121
421.038830	6402.956667	1626.458008	1413.150146
421.038830	6402.956667	1625.423828	1345.223633
421.038830	6402.956667	1624.388672	1323.474854
421.038830	6402.956667	1623.353516	1437.929199
421.038830	6402.956667	1622.318359	1485.371338
421.038830	6402.956667	1621.282227	1456.602417
421.038830	6402.956667	1620.247070	1467.055542
421.038830	6402.956667	1619.210938	1555.913940
421.038830	6402.956667	1618.174805	1432.509888
421.038830	6402.956667	1617.137695	1463.634399
421.038830	6402.956667	1616.101563	1365.616455
421.038830	6402.956667	1615.064453	1399.006348
421.038830	6402.956667	1614.027344	1199.580566
421.038830	6402.956667	1612.990234	1484.123169
421.038830	6402.956667	1611.953125	1570.402344
421.038830	6402.956667	1610.916016	1608.257446
421.038830	6402.956667	1609.877930	1717.467163
421.038830	6402.956667	1608.839844	1469.723877
421.038830	6402.956667	1607.801758	1733.124146
421.038830	6402.956667	1606.763672	1591.319946
421.038830	6402.956667	1605.724609	1578.413940
421.038830	6402.956667	1604.685547	1461.966919
421.038830	6402.956667	1603.646484	1778.005981
421.038830	6402.956667	1602.607422	1719.035645
421.038830	6402.956667	1601.568359	1777.345825
421.038830	6402.956667	1600.528320	1493.072266
421.038830	6402.956667	1599.489258	1512.307739
421.038830	6402.956667	1598.449219	1503.941284
421.038830	6402.956667	1597.408203	1638.013550
421.038830	6402.956667	1596.368164	1542.317749
421.038830	6402.956667	1595.327148	1614.303467
421.038830	6402.956667	1594.287109	1364.786133
421.038830	6402.956667	1593.246094	1090.099121
421.038830	6402.956667	1592.204102	1354.914917
421.038830	6402.956667	1591.163086	1185.892090
421.038830	6402.956667	1590.121094	1342.737793
421.038830	6402.956667	1589.079102	1366.465332
421.038830	6402.956667	1588.037109	1202.110352
421.038830	6402.956667	1586.995117	1134.127808
421.038830	6402.956667	1585.953125	1293.144531
421.038830	6402.956667	1584.910156	1303.096924
421.038830	6402.956667	1583.867188	1028.867188
421.038830	6402.956667	1582.824219	1160.308716
421.038830	6402.956667	1581.781250	1170.284668
421.038830	6402.956667	1580.737305	992.437439
421.038830	6402.956667	1579.693359	1043.661133
421.038830	6402.956667	1578.649414	1110.895020
421.038830	6402.956667	1577.605469	1100.278320
421.038830	6402.956667	1576.561523	1114.846191
421.038830	6402.956667	1575.516602	946.353394
421.038830	6402.956667	1574.472656	1100.511108
421.038830	6402.956667	1573.427734	952.686768
421.038830	6402.956667	1572.381836	978.721191
421.038830	6402.956667	1571.336914	892.729492
421.038830	6402.956667	1570.291016	1014.794250
421.038830	6402.956667	1569.246094	1111.688843
421.038830	6402.956667	1568.200195	957.195068
421.038830	6402.956667	1567.153320	1106.617554
421.038830	6402.956667	1566.107422	876.833862
421.038830	6402.956667	1565.060547	836.693420
421.038830	6402.956667	1564.013672	728.085205
421.038830	6402.956667	1562.966797	1005.328247
421.038830	6402.956667	1561.919922	924.149902
421.038830	6402.956667	1560.872070	706.098267
421.038830	6402.956667	1559.825195	907.944519
421.038830	6402.956667	1558.777344	1105.160156
421.038830	6402.956667	1557.729492	1074.262085
421.038830	6402.956667	1556.680664	797.136292
421.038830	6402.956667	1555.632813	923.646606
421.038830	6402.956667	1554.583984	895.135864
421.038830	6402.956667	1553.535156	866.656860
421.038830	6402.956667	1552.486328	854.160461
421.038830	6402.956667	1551.436523	691.346497
421.038830	6402.956667	1550.387695	929.453369
421.038830	6402.956667	1549.337891	636.950134
421.038830	6402.956667	1548.288086	560.856323
421.038830	6402.956667	1547.238281	721.531982
421.038830	6402.956667	1546.187500	486.204346
421.038830	6402.956667	1545.136719	589.999207
421.038830	6402.956667	1544.086914	616.447632
421.038830	6402.956667	1543.035156	415.473053
421.038830	6402.956667	1541.984375	510.212982
421.038830	6402.956667	1540.933594	577.666138
421.038830	6402.956667	1539.881836	476.919281
421.038830	6402.956667	1538.830078	414.876343
421.038830	6402.956667	1537.778320	550.558594
421.038830	6402.956667	1536.725586	340.932648
421.038830	6402.956667	1535.673828	492.541870
421.038830	6402.956667	1534.621094	564.645142
421.038830	6402.956667	1533.568359	654.917786
421.038830	6402.956667	1532.515625	554.528442
421.038830	6402.956667	1531.461914	297.623718
421.038830	6402.956667	1530.409180	453.805023
421.038830	6402.956667	1529.355469	369.500641
421.038830	6402.956667	1528.301758	364.649323
421.038830	6402.956667	1527.247070	53.712284
421.038830	6402.956667	1526.193359	250.778885
421.038830	6402.956667	1525.138672	148.601959
421.038830	6402.956667	1524.083984	214.208939
421.038830	6402.956667	1523.029297	175.606323
421.038830	6402.956667	1521.974609	492.717590
421.038830	6402.956667	1520.918945	390.740540
421.038830	6402.956667	1519.863281	293.377167
421.038830	6402.956667	1518.807617	1.394743
421.038830	6402.956667	1517.751953	196.234314
421.038830	6402.956667	1516.696289	198.680679
421.038830	6402.956667	1515.639648	302.985535
421.038830	6402.956667	1514.583008	276.090881
421.038830	6402.956667	1513.526367	165.571579
421.038830	6402.956667	1512.469727	-76.010246
421.038830	6402.956667	1511.412109	175.412689
421.038830	6402.956667	1510.355469	245.960602
421.038830	6402.956667	1509.297852	95.050690
421.038830	6402.956667	1508.240234	224.430359
421.038830	6402.956667	1507.181641	-84.450127
421.038830	6402.956667	1506.124023	-13.704367
421.038830	6402.956667	1505.065430	-31.005575
421.038830	6402.956667	1504.006836	-181.450348
421.038830	6402.956667	1502.948242	51.953102
421.038830	6402.956667	1501.888672	-26.125954
421.038830	6402.956667	1500.830078	117.011795
421.038830	6402.956667	1499.770508	-91.779015
421.038830	6402.956667	1498.710938	-239.531769
421.038830	6402.956667	1497.650391	-130.100449
421.038830	6402.956667	1496.590820	-203.269608
421.038830	6402.956667	1495.530273	-132.090393
421.038830	6402.956667	1494.469727	-0.032041
421.038830	6402.956667	1493.409180	-131.593033
421.038830	6402.956667	1492.348633	-118.862701
421.038830	6402.956667	1491.287109	-61.034527
421.038830	6402.956667	1490.225586	-257.629730
421.038830	6402.956667	1489.164063	-24.059898
421.038830	6402.956667	1488.102539	-87.650734
421.038830	6402.956667	1487.041016	-45.377327
421.038830	6402.956667	1485.978516	21.690163
421.038830	6402.956667	1484.916016	-64.151443
421.038830	6402.956667	1483.853516	63.724300
421.038830	6402.956667	1482.791016	180.399887
421.038830	6402.956667	1481.727539	123.988014
421.038830	6402.956667	1480.664063	20.456116
421.038830	6402.956667	1479.600586	-67.222694
421.038830	6402.956667	1478.537109	-53.696426
421.038830	6402.956667	1477.473633	51.979702
421.038830	6402.956667	1476.409180	-66.813766
421.038830	6402.956667	1475.344727	99.591454
421.038830	6402.956667	1474.280273	-232.311066
421.038830	6402.956667	1473.215820	116.016197
421.038830	6402.956667	1472.151367	51.438869
421.038830	6402.956667	1471.085938	76.584885
421.038830	6402.956667	1470.020508	86.046959
421.038830	6402.956667	1468.955078	26.435831
421.038830	6402.956667	1467.888672	210.654999
421.038830	6402.956667	1466.823242	54.992393
421.038830	6402.956667	1465.756836	216.867981
421.038830	6402.956667	1464.690430	-59.196190
421.038830	6402.956667	1463.624023	-36.097248
421.038830	6402.956667	1462.556641	262.795197
421.038830	6402.956667	1461.490234	100.897247
421.038830	6402.956667	1460.422852	162.713531
421.038830	6402.956667	1459.355469	463.525452
421.038830	6402.956667	1458.287109	118.139442
421.038830	6402.956667	1457.219727	385.357727
421.038830	6402.956667	1456.151367	342.352478
421.038830	6402.956667	1455.083008	245.687958
421.038830	6402.956667	1454.014648	453.258057
421.038830	6402.956667	1452.945313	331.890991
421.038830	6402.956667	1451.876953	275.671448
421.038830	6402.956667	1450.807617	547.500732
421.038830	6402.956667	1449.738281	425.337372
421.038830	6402.956667	1448.668945	406.917908
421.038830	6402.956667	1447.598633	488.828705
421.038830	6402.956667	1446.528320	534.570923
421.038830	6402.956667	1445.458008	455.849915
421.038830	6402.956667	1444.387695	216.670776
421.038830	6402.956667	1443.317383	549.508301
421.038830	6402.956667	1442.246094	306.646484
421.038830	6402.956667	1441.174805	381.651550
421.038830	6402.956667	1440.103516	674.281494
421.038830	6402.956667	1439.032227	318.365540
421.038830	6402.956667	1437.960938	277.319977
421.038830	6402.956667	1436.888672	587.761108
421.038830	6402.956667	1435.816406	371.879730
421.038830	6402.956667	1434.744141	498.254089
421.038830	6402.956667	1433.670898	289.492035
421.038830	6402.956667	1432.598633	224.006393
421.038830	6402.956667	1431.525391	168.597626
421.038830	6402.956667	1430.452148	-5.789998
421.038830	6402.956667	1429.378906	31.148314
421.038830	6402.956667	1428.304688	34.969910
421.038830	6402.956667	1427.231445	85.551727
421.038830	6402.956667	1426.157227	-99.930077
421.038830	6402.956667	1425.083008	23.529865
421.038830	6402.956667	1424.007813	-0.294029
421.038830	6402.956667	1422.933594	-149.773514
421.038830	6402.956667	1421.858398	135.563080
421.038830	6402.956667	1420.783203	188.971741
421.038830	6402.956667	1419.708008	36.857819
421.038830	6402.956667	1418.631836	87.384743
421.038830	6402.956667	1417.555664	53.270184
421.038830	6402.956667	1416.479492	100.563965
421.038830	6402.956667	1415.403320	184.053238
421.038830	6402.956667	1414.327148	282.558319
421.038830	6402.956667	1413.250000	147.901199
421.038830	6402.956667	1412.173828	226.645050
421.038830	6402.956667	1411.096680	144.685837
421.038830	6402.956667	1410.018555	238.725952
421.038830	6402.956667	1408.941406	305.443268
421.038830	6402.956667	1407.863281	123.086777
421.038830	6402.956667	1406.785156	45.244373
421.038830	6402.956667	1405.707031	93.506836
421.038830	6402.956667	1404.628906	220.469818
421.038830	6402.956667	1403.549805	135.910065
421.038830	6402.956667	1402.470703	280.011810
421.038830	6402.956667	1401.391602	191.583572
421.038830	6402.956667	1400.312500	-90.614960
421.038830	6402.956667	1399.233398	-36.756725
421.038830	6402.956667	1398.153320	190.478333
421.038830	6402.956667	1397.073242	18.145123
421.038830	6402.956667	1395.993164	-52.752563
421.038830	6402.956667	1394.913086	-91.204094
421.038830	6402.956667	1393.832031	302.302277
421.038830	6402.956667	1392.750977	53.490051
421.038830	6402.956667	1391.669922	46.780972
421.038830	6402.956667	1390.588867	154.606537
421.038830	6402.956667	1389.506836	12.130129
421.038830	6402.956667	1388.425781	118.512871
421.038830	6402.956667	1387.343750	25.950890
421.038830	6402.956667	1386.261719	207.176956
421.038830	6402.956667	1385.178711	142.239517
421.038830	6402.956667	1384.096680	139.370331
421.038830	6402.956667	1383.013672	2.021952
421.038830	6402.956667	1381.930664	162.885818
421.038830	6402.956667	1380.846680	89.512604
421.038830	6402.956667	1379.763672	255.354111
421.038830	6402.956667	1378.679688	38.673077
421.038830	6402.956667	1377.595703	250.584427
421.038830	6402.956667	1376.511719	238.594742
421.038830	6402.956667	1375.427734	225.792648
421.038830	6402.956667	1374.342773	-8.892841
421.038830	6402.956667	1373.257813	192.718277
421.038830	6402.956667	1372.172852	347.344482
421.038830	6402.956667	1371.087891	378.946472
421.038830	6402.956667	1370.001953	209.519897
421.038830	6402.956667	1368.916992	91.268921
421.038830	6402.956667	1367.831055	98.173523
421.038830	6402.956667	1366.744141	392.724854
421.038830	6402.956667	1365.658203	662.518188
421.038830	6402.956667	1364.571289	275.822998
421.038830	6402.956667	1363.484375	162.849823
421.038830	6402.956667	1362.397461	73.334656
421.038830	6402.956667	1361.310547	247.593582
421.038830	6402.956667	1360.222656	294.093567
421.038830	6402.956667	1359.135742	152.082336
421.038830	6402.956667	1358.047852	424.763763
421.038830	6402.956667	1356.958984	300.325226
421.038830	6402.956667	1355.871094	304.381134
421.038830	6402.956667	1354.782227	231.534241
421.038830	6402.956667	1353.693359	443.364502
421.038830	6402.956667	1352.604492	235.612732
421.038830	6402.956667	1351.515625	121.447479
421.038830	6402.956667	1350.425781	143.357803
421.038830	6402.956667	1349.335938	300.387177
421.038830	6402.956667	1348.246094	408.709076
421.038830	6402.956667	1347.156250	429.014435
421.038830	6402.956667	1346.066406	243.483536
421.038830	6402.956667	1344.975586	206.960205
421.038830	6402.956667	1343.884766	344.345978
421.038830	6402.956667	1342.793945	524.104309
421.038830	6402.956667	1341.702148	217.071335
421.038830	6402.956667	1340.611328	427.675995
421.038830	6402.956667	1339.519531	384.572571
421.038830	6402.956667	1338.427734	437.604706
421.038830	6402.956667	1337.334961	328.593140
421.038830	6402.956667	1336.243164	148.011139
421.038830	6402.956667	1335.150391	229.813370
421.038830	6402.956667	1334.057617	244.803055
421.038830	6402.956667	1332.964844	323.638885
421.038830	6402.956667	1331.871094	203.605835
421.038830	6402.956667	1330.778320	84.074944
421.038830	6402.956667	1329.684570	171.124481
421.038830	6402.956667	1328.590820	263.400116
421.038830	6402.956667	1327.496094	162.867737
421.038830	6402.956667	1326.402344	142.441788
421.038830	6402.956667	1325.307617	232.708832
421.038830	6402.956667	1324.212891	63.702961
421.038830	6402.956667	1323.117188	209.956635
421.038830	6402.956667	1322.022461	37.822330
421.038830	6402.956667	1320.926758	-49.501633
421.038830	6402.956667	1319.831055	58.579136
421.038830	6402.956667	1318.735352	81.419548
421.038830	6402.956667	1317.638672	29.220304
421.038830	6402.956667	1316.542969	-175.228241
421.038830	6402.956667	1315.446289	10.998353
421.038830	6402.956667	1314.349609	8.136756
421.038830	6402.956667	1313.251953	-75.250816
421.038830	6402.956667	1312.155273	-20.750431
421.038830	6402.956667	1311.057617	-24.881565
421.038830	6402.956667	1309.959961	23.544355
421.038830	6402.956667	1308.862305	70.575569
421.038830	6402.956667	1307.763672	27.576294
421.038830	6402.956667	1306.665039	-49.914478
421.038830	6402.956667	1305.566406	-9.283098
421.038830	6402.956667	1304.467773	33.627060
421.038830	6402.956667	1303.369141	-19.617233
421.038830	6402.956667	1302.269531	212.225433
421.038830	6402.956667	1301.169922	181.600006
421.038830	6402.956667	1300.070313	110.565453
421.038830	6402.956667	1298.970703	114.796921
421.038830	6402.956667	1297.870117	182.848495
421.038830	6402.956667	1296.769531	295.148346
421.038830	6402.956667	1295.668945	440.664551
421.038830	6402.956667	1294.568359	-9.687497
421.038830	6402.956667	1293.466797	258.261688
421.038830	6402.956667	1292.366211	110.675194
421.038830	6402.956667	1291.264648	64.120163
421.038830	6402.956667	1290.162109	27.712303
421.038830	6402.956667	1289.060547	54.836090
421.038830	6402.956667	1287.958008	76.068710
421.038830	6402.956667	1286.855469	-44.382816
421.038830	6402.956667	1285.752930	-14.711528
421.038830	6402.956667	1284.650391	45.090702
421.038830	6402.956667	1283.546875	92.506195
421.038830	6402.956667	1282.444336	3.092758
421.038830	6402.956667	1281.339844	106.344704
421.038830	6402.956667	1280.236328	101.974388
421.038830	6402.956667	1279.132813	142.395798
421.038830	6402.956667	1278.028320	162.651993
421.038830	6402.956667	1276.923828	210.490616
421.038830	6402.956667	1275.819336	159.737167
421.038830	6402.956667	1274.713867	67.160378
421.038830	6402.956667	1273.608398	180.600571
421.038830	6402.956667	1272.503906	45.393040
421.038830	6402.956667	1271.397461	-26.844881
421.038830	6402.956667	1270.291992	36.169464
421.038830	6402.956667	1269.185547	82.492020
421.038830	6402.956667	1268.080078	-104.022491
421.038830	6402.956667	1266.972656	41.429169
421.038830	6402.956667	1265.866211	11.987677
421.038830	6402.956667	1264.759766	38.521557
421.038830	6402.956667	1263.652344	-39.979469
421.038830	6402.956667	1262.544922	-182.656860
421.038830	6402.956667	1261.436523	-176.404617
421.038830	6402.956667	1260.329102	-43.480743
421.038830	6402.956667	1259.220703	10.195619
421.038830	6402.956667	1258.112305	138.419418
421.038830	6402.956667	1257.003906	189.226089
421.038830	6402.956667	1255.895508	41.992867
421.038830	6402.956667	1254.786133	-109.356750
421.038830	6402.956667	1253.676758	49.844158
421.038830	6402.956667	1252.567383	105.675941
421.038830	6402.956667	1251.458008	23.877148
421.038830	6402.956667	1250.347656	189.802048
421.038830	6402.956667	1249.237305	250.436798
421.038830	6402.956667	1248.126953	92.565834
421.038830	6402.956667	1247.016602	155.892563
421.038830	6402.956667	1245.905273	193.509613
421.038830	6402.956667	1244.793945	192.873749
421.038830	6402.956667	1243.682617	110.889534
421.038830	6402.956667	1242.571289	115.646118
421.038830	6402.956667	1241.459961	63.285355
421.038830	6402.956667	1240.347656	39.238834
421.038830	6402.956667	1239.235352	-9.200825
421.038830	6402.956667	1238.123047	-20.120262
421.038830	6402.956667	1237.009766	44.813507
421.038830	6402.956667	1235.897461	134.695099
421.038830	6402.956667	1234.784180	120.759567
421.038830	6402.956667	1233.670898	64.967438
421.038830	6402.956667	1232.556641	-38.347271
421.038830	6402.956667	1231.443359	179.370895
421.038830	6402.956667	1230.329102	109.853188
421.038830	6402.956667	1229.214844	13.199722
421.038830	6402.956667	1228.099609	112.216248
421.038830	6402.956667	1226.985352	174.725723
421.038830	6402.956667	1225.870117	70.335442
421.038830	6402.956667	1224.754883	126.583008
421.038830	6402.956667	1223.639648	149.170853
421.038830	6402.956667	1222.523438	175.807098
421.038830	6402.956667	1221.408203	125.125183
421.038830	6402.956667	1220.291992	213.856506
421.038830	6402.956667	1219.174805	178.727936
421.038830	6402.956667	1218.058594	178.309418
421.038830	6402.956667	1216.941406	223.003281
421.038830	6402.956667	1215.824219	147.797272
421.038830	6402.956667	1214.707031	185.861603
421.038830	6402.956667	1213.589844	325.098938
421.038830	6402.956667	1212.471680	172.752594
421.038830	6402.956667	1211.353516	175.653076
421.038830	6402.956667	1210.235352	357.728455
421.038830	6402.956667	1209.117188	247.316910
421.038830	6402.956667	1207.998047	357.975220
421.038830	6402.956667	1206.878906	104.591606
421.038830	6402.956667	1205.759766	263.757141
421.038830	6402.956667	1204.640625	61.555183
421.038830	6402.956667	1203.520508	-43.125454
421.038830	6402.956667	1202.401367	93.972725
421.038830	6402.956667	1201.281250	-45.333889
421.038830	6402.956667	1200.160156	142.324158
421.038830	6402.956667	1199.040039	7.802055
421.038830	6402.956667	1197.918945	-4.379735
421.038830	6402.956667	1196.797852	-19.343731
421.038830	6402.956667	1195.676758	-84.571037
421.038830	6402.956667	1194.555664	-95.380653
421.038830	6402.956667	1193.433594	-148.560532
421.038830	6402.956667	1192.311523	-207.212662
421.038830	6402.956667	1191.189453	-88.026138
421.038830	6402.956667	1190.066406	-8.464734
421.038830	6402.956667	1188.944336	-206.654510
421.038830	6402.956667	1187.821289	-135.287064
421.038830	6402.956667	1186.698242	-112.060974
421.038830	6402.956667	1185.574219	-170.630478
421.038830	6402.956667	1184.451172	-233.996536
421.038830	6402.956667	1183.327148	-29.587139
421.038830	6402.956667	1182.203125	-69.124252
421.038830	6402.956667	1181.078125	-17.484818
421.038830	6402.956667	1179.954102	16.460234
421.038830	6402.956667	1178.829102	-15.273851
421.038830	6402.956667	1177.704102	-94.787857
421.038830	6402.956667	1176.579102	51.986008
421.038830	6402.956667	1175.453125	101.842613
421.038830	6402.956667	1174.327148	-96.746506
421.038830	6402.956667	1173.201172	7.674155
421.038830	6402.956667	1172.075195	-69.341270
421.038830	6402.956667	1170.949219	-13.956424
421.038830	6402.956667	1169.822266	-23.339394
421.038830	6402.956667	1168.695313	-104.378876
421.038830	6402.956667	1167.568359	-105.307831
421.038830	6402.956667	1166.440430	-108.195763
421.038830	6402.956667	1165.313477	-182.789047
421.038830	6402.956667	1164.185547	-220.000626
421.038830	6402.956667	1163.057617	-145.460236
421.038830	6402.956667	1161.928711	-234.861526
421.038830	6402.956667	1160.800781	-26.438915
421.038830	6402.956667	1159.671875	-191.673874
421.038830	6402.956667	1158.541992	-46.180241
421.038830	6402.956667	1157.413086	-123.116142
421.038830	6402.956667	1156.283203	-116.792252
421.038830	6402.956667	1155.154297	-13.121473
421.038830	6402.956667	1154.023438	-114.069756
421.038830	6402.956667	1152.893555	-233.759003
421.038830	6402.956667	1151.763672	-138.051880
421.038830	6402.956667	1150.632813	-282.547455
421.038830	6402.956667	1149.501953	22.909977
421.038830	6402.956667	1148.370117	-239.425171
421.038830	6402.956667	1147.239258	6.098082
421.038830	6402.956667	1146.107422	24.636400
421.038830	6402.956667	1144.975586	-91.383842
421.038830	6402.956667	1143.843750	13.933415
421.038830	6402.956667	1142.710938	11.400048
421.038830	6402.956667	1141.578125	-60.361172
421.038830	6402.956667	1140.445313	29.991144
421.038830	6402.956667	1139.312500	-51.382275
421.038830	6402.956667	1138.178711	-55.490944
421.038830	6402.956667	1137.045898	-136.694992
421.038830	6402.956667	1135.912109	-67.173203
421.038830	6402.956667	1134.777344	-18.020800
421.038830	6402.956667	1133.643555	-22.362339
421.038830	6402.956667	1132.508789	74.607574
421.038830	6402.956667	1131.374023	93.880211
421.038830	6402.956667	1130.239258	267.355591
421.038830	6402.956667	1129.104492	149.159378
421.038830	6402.956667	1127.968750	111.039589
421.038830	6402.956667	1126.833008	149.656616
421.038830	6402.956667	1125.697266	234.891953
421.038830	6402.956667	1124.560547	92.722092
421.038830	6402.956667	1123.424805	-3.427061
421.038830	6402.956667	1122.288086	46.185848
421.038830	6402.956667	1121.151367	51.513397
421.038830	6402.956667	1120.013672	58.299519
421.038830	6402.956667	1118.876953	16.756575
421.038830	6402.956667	1117.739258	207.822922
421.038830	6402.956667	1116.601563	21.112423
421.038830	6402.956667	1115.462891	155.053482
421.038830	6402.956667	1114.324219	50.748322
421.038830	6402.956667	1113.186523	-106.747513
421.038830	6402.956667	1112.046875	19.485264
421.038830	6402.956667	1110.908203	39.814938
421.038830	6402.956667	1109.769531	36.005791
421.038830	6402.956667	1108.629883	29.741875
421.038830	6402.956667	1107.490234	19.660862
421.038830	6402.956667	1106.349609	99.997513
421.038830	6402.956667	1105.209961	-118.564110
421.038830	6402.956667	1104.069336	39.790455
421.038830	6402.956667	1102.928711	55.438309
421.038830	6402.956667	1101.787109	74.658035
421.038830	6402.956667	1100.646484	-49.512447
421.038830	6402.956667	1099.504883	64.120903
421.038830	6402.956667	1098.363281	-4.052890
421.038830	6402.956667	1097.221680	-30.430492
421.038830	6402.956667	1096.079102	106.032135
421.038830	6402.956667	1094.936523	-46.413551
421.038830	6402.956667	1093.793945	159.348511
421.038830	6402.956667	1092.651367	-54.074409
421.038830	6402.956667	1091.507813	-42.839577
421.038830	6402.956667	1090.364258	119.779259
421.038830	6402.956667	1089.220703	194.818100
421.038830	6402.956667	1088.077148	180.019028
421.038830	6402.956667	1086.933594	44.241291
421.038830	6402.956667	1085.789063	136.738586
421.038830	6402.956667	1084.644531	24.437592
421.038830	6402.956667	1083.499023	101.237434
421.038830	6402.956667	1082.354492	-14.774698
421.038830	6402.956667	1081.208984	107.786407
421.038830	6402.956667	1080.063477	144.703110
421.038830	6402.956667	1078.917969	155.574966
421.038830	6402.956667	1077.771484	68.063583
421.038830	6402.956667	1076.625977	258.870880
421.038830	6402.956667	1075.479492	53.552578
421.038830	6402.956667	1074.332031	5.215927
421.038830	6402.956667	1073.185547	114.994751
421.038830	6402.956667	1072.038086	62.873245
421.038830	6402.956667	1070.890625	79.598022
421.038830	6402.956667	1069.743164	-3.207883
421.038830	6402.956667	1068.594727	236.714523
421.038830	6402.956667	1067.447266	265.938019
421.038830	6402.956667	1066.298828	343.092865
421.038830	6402.956667	1065.149414	345.516815
421.038830	6402.956667	1064.000977	209.805420
421.038830	6402.956667	1062.851563	88.502754
421.038830	6402.956667	1061.702148	28.253284
421.038830	6402.956667	1060.552734	135.987717
421.038830	6402.956667	1059.402344	195.389572
421.038830	6402.956667	1058.252930	102.000092
421.038830	6402.956667	1057.102539	225.953827
421.038830	6402.956667	1055.951172	-85.828384
421.038830	6402.956667	1054.800781	156.504547
421.038830	6402.956667	1053.649414	191.847672
421.038830	6402.956667	1052.498047	18.248199
421.038830	6402.956667	1051.346680	99.826317
421.038830	6402.956667	1050.194336	26.922478
421.038830	6402.956667	1049.042969	18.447819
421.038830	6402.956667	1047.890625	92.195419
421.038830	6402.956667	1046.738281	107.036942
421.038830	6402.956667	1045.584961	10.205277
421.038830	6402.956667	1044.431641	197.660065
421.038830	6402.956667	1043.278320	52.294018
421.038830	6402.956667	1042.125000	241.576981
421.038830	6402.956667	1040.971680	103.503250
421.038830	6402.956667	1039.817383	123.596535
421.038830	6402.956667	1038.663086	77.016914
421.038830	6402.956667	1037.508789	-52.012798
421.038830	6402.956667	1036.353516	5.725348
421.038830	6402.956667	1035.198242	173.471649
421.038830	6402.956667	1034.042969	137.650116
421.038830	6402.956667	1032.887695	102.158363
421.038830	6402.956667	1031.732422	137.150894
421.038830	6402.956667	1030.576172	228.546631
421.038830	6402.956667	1029.419922	-12.183406
421.038830	6402.956667	1028.263672	-76.844696
421.038830	6402.956667	1027.106445	136.488434
421.038830	6402.956667	1025.949219	72.123077
421.038830	6402.956667	1024.792969	47.941647
421.038830	6402.956667	1023.634766	-37.778469
421.038830	6402.956667	1022.477539	151.765869
421.038830	6402.956667	1021.319336	-42.329323
421.038830	6402.956667	1020.161133	152.960052
421.038830	6402.956667	1019.002930	100.194771
421.038830	6402.956667	1017.843750	243.479919
421.038830	6402.956667	1016.684570	95.231346
421.038830	6402.956667	1015.525391	75.186592
421.038830	6402.956667	1014.366211	99.131065
421.038830	6402.956667	1013.207031	-15.371492
421.038830	6402.956667	1012.046875	121.772125
421.038830	6402.956667	1010.886719	104.233818
421.038830	6402.956667	1009.726563	163.063660
421.038830	6402.956667	1008.565430	22.780539
421.038830	6402.956667	1007.404297	102.918793
421.038830	6402.956667	1006.243164	122.671082
421.038830	6402.956667	1005.082031	-49.905666
421.038830	6402.956667	1003.920898	15.507213
421.038830	6402.956667	1002.758789	74.506561
421.038830	6402.956667	1001.596680	-138.274445
421.038830	6402.956667	1000.433594	-46.604263
421.038830	6402.956667	999.271484	104.660355
421.038830	6402.956667	998.108398	-193.016830
421.038830	6402.956667	996.945313	247.600998
421.038830	6402.956667	995.782227	209.124542
421.038830	6402.956667	994.618164	-62.850567
421.038830	6402.956667	993.454102	50.164593
421.038830	6402.956667	992.290039	78.282646
421.038830	6402.956667	991.125977	-236.650360
421.038830	6402.956667	989.960938	-19.448076
421.038830	6402.956667	988.796875	55.980648
421.038830	6402.956667	987.630859	45.622845
421.038830	6402.956667	986.465820	44.819313
421.038830	6402.956667	985.300781	-73.769974
421.038830	6402.956667	984.134766	22.110540
421.038830	6402.956667	982.968750	69.773323
421.038830	6402.956667	981.801758	226.985580
421.038830	6402.956667	980.635742	101.187576
421.038830	6402.956667	979.468750	-45.881588
421.038830	6402.956667	978.301758	126.916878
421.038830	6402.956667	977.133789	-11.144063
421.038830	6402.956667	975.966797	214.931732
421.038830	6402.956667	974.798828	-90.513298
421.038830	6402.956667	973.630859	-180.587341
421.038830	6402.956667	972.461914	-18.868128
421.038830	6402.956667	971.293945	19.712036
421.038830	6402.956667	970.125000	149.220932
421.038830	6402.956667	968.956055	147.632538
421.038830	6402.956667	967.786133	101.281128
421.038830	6402.956667	966.617188	12.403565
421.038830	6402.956667	965.447266	51.684605
421.038830	6402.956667	964.276367	-159.797318
421.038830	6402.956667	963.106445	-38.813019
421.038830	6402.956667	961.935547	22.839703
421.038830	6402.956667	960.764648	-5.901109
421.038830	6402.956667	959.593750	-72.704010
421.038830	6402.956667	958.422852	47.261467
421.038830	6402.956667	957.250977	141.307907
421.038830	6402.956667	956.079102	104.400795
421.038830	6402.956667	954.907227	14.472170
421.038830	6402.956667	953.734375	160.502518
421.038830	6402.956667	952.562500	90.741005
421.038830	6402.956667	951.389648	-61.362556
421.038830	6402.956667	950.215820	45.343529
421.038830	6402.956667	949.042969	82.869308
421.038830	6402.956667	947.869141	63.807045
421.038830	6402.956667	946.695313	-78.165672
421.038830	6402.956667	945.521484	78.059959
421.038830	6402.956667	944.346680	79.191772
421.038830	6402.956667	943.172852	171.359192
421.038830	6402.956667	941.998047	-111.829147
421.038830	6402.956667	940.822266	29.397587
421.038830	6402.956667	939.647461	64.780266
421.038830	6402.956667	938.471680	152.133453
421.038830	6402.956667	937.295898	-0.308431
421.038830	6402.956667	936.119141	0.449414
421.038830	6402.956667	934.943359	225.616760
421.038830	6402.956667	933.766602	16.425980
421.038830	6402.956667	932.589844	209.452377
421.038830	6402.956667	931.413086	39.858463
421.038830	6402.956667	930.235352	74.969017
421.038830	6402.956667	929.057617	196.313507
421.038830	6402.956667	927.879883	11.910853
421.038830	6402.956667	926.702148	189.952850
421.038830	6402.956667	925.523438	215.066971
421.038830	6402.956667	924.344727	185.942871
421.038830	6402.956667	923.166016	95.223503
421.038830	6402.956667	921.987305	189.288162
421.038830	6402.956667	920.807617	241.430252
421.038830	6402.956667	919.627930	243.872696
421.038830	6402.956667	919.497070	116.489265
421.038830	6402.956667	918.331055	45.452610
421.038830	6402.956667	917.165039	-210.201492
421.038830	6402.956667	915.999023	-99.043007
421.038830	6402.956667	914.833008	-17.473919
421.038830	6402.956667	913.666016	-93.405029
421.038830	6402.956667	912.499023	-6.977613
421.038830	6402.956667	911.332031	30.215895
421.038830	6402.956667	910.165039	5.912162
421.038830	6402.956667	908.997070	-188.009613
421.038830	6402.956667	907.830078	-57.448444
421.038830	6402.956667	906.661133	-10.494987
421.038830	6402.956667	905.493164	-140.459274
421.038830	6402.956667	904.325195	7.170651
421.038830	6402.956667	903.156250	-58.916492
421.038830	6402.956667	901.987305	95.980858
421.038830	6402.956667	900.818359	-43.762962
421.038830	6402.956667	899.648438	79.144218
421.038830	6402.956667	898.478516	5.692087
421.038830	6402.956667	897.308594	-18.675703
421.038830	6402.956667	896.138672	86.950333
421.038830	6402.956667	894.968750	45.390804
421.038830	6402.956667	893.797852	123.973953
421.038830	6402.956667	892.626953	35.834015
421.038830	6402.956667	891.456055	4.087491
421.038830	6402.956667	890.284180	36.052822
421.038830	6402.956667	889.113281	151.285355
421.038830	6402.956667	887.941406	-15.195498
421.038830	6402.956667	886.768555	43.668129
421.038830	6402.956667	885.596680	24.154263
421.038830	6402.956667	884.423828	124.582069
421.038830	6402.956667	883.250977	73.234245
421.038830	6402.956667	882.078125	132.002640
421.038830	6402.956667	880.905273	163.832809
421.038830	6402.956667	879.731445	90.478676
421.038830	6402.956667	878.557617	171.197525
421.038830	6402.956667	877.383789	161.423203
421.038830	6402.956667	876.209961	105.206711
421.038830	6402.956667	875.035156	44.122227
421.038830	6402.956667	873.860352	244.481750
421.038830	6402.956667	872.685547	34.377285
421.038830	6402.956667	871.510742	-4.689972
421.038830	6402.956667	870.334961	207.753525
421.038830	6402.956667	869.159180	-19.315180
421.038830	6402.956667	867.983398	22.185156
421.038830	6402.956667	866.807617	14.860190
421.038830	6402.956667	865.630859	-24.180815
421.038830	6402.956667	864.454102	31.920031
421.038830	6402.956667	863.277344	236.756653
421.038830	6402.956667	862.100586	53.829208
421.038830	6402.956667	860.922852	0.174668
421.038830	6402.956667	859.745117	41.590363
421.038830	6402.956667	858.567383	41.561798
421.038830	6402.956667	857.389648	-177.729248
421.038830	6402.956667	856.210938	168.156509
421.038830	6402.956667	855.032227	-43.768780
421.038830	6402.956667	853.853516	-82.743256
421.038830	6402.956667	852.674805	121.718544
421.038830	6402.956667	851.495117	-90.071075
421.038830	6402.956667	850.315430	-109.551155
421.038830	6402.956667	849.135742	109.381935
421.038830	6402.956667	847.956055	-0.126201
421.038830	6402.956667	846.775391	16.859745
421.038830	6402.956667	845.595703	167.552429
421.038830	6402.956667	844.415039	-155.807526
421.038830	6402.956667	843.233398	-31.873350
421.038830	6402.956667	842.052734	-53.776165
421.038830	6402.956667	840.871094	123.527367
421.038830	6402.956667	839.689453	-95.126419
421.038830	6402.956667	838.506836	-187.421417
421.038830	6402.956667	837.325195	-100.030724
421.038830	6402.956667	836.142578	14.025473
421.038830	6402.956667	834.959961	-78.238785
421.038830	6402.956667	833.777344	-78.269753
421.038830	6402.956667	832.593750	120.609962
421.038830	6402.956667	831.410156	-88.031898
421.038830	6402.956667	830.226563	-83.211929
421.038830	6402.956667	829.042969	-46.881313
421.038830	6402.956667	827.858398	37.910774
421.038830	6402.956667	826.673828	195.362900
421.038830	6402.956667	825.489258	1.453545
421.038830	6402.956667	824.304688	236.357498
421.038830	6402.956667	823.120117	-76.146950
421.038830	6402.956667	821.934570	-68.920555
421.038830	6402.956667	820.749023	42.393433
421.038830	6402.956667	819.562500	233.528976
421.038830	6402.956667	818.376953	153.573639
421.038830	6402.956667	817.190430	148.646759
421.038830	6402.956667	816.003906	-35.265049
421.038830	6402.956667	814.817383	54.157455
421.038830	6402.956667	813.629883	-216.699448
421.038830	6402.956667	812.442383	148.286575
421.038830	6402.956667	811.254883	-4.061343
421.038830	6402.956667	810.067383	-231.252090
421.038830	6402.956667	808.878906	-18.684582
421.038830	6402.956667	807.690430	147.902161
421.038830	6402.956667	806.501953	27.064651
421.038830	6402.956667	805.313477	-26.125950
421.038830	6402.956667	804.124023	-38.262932
421.038830	6402.956667	802.934570	53.371700
421.038830	6402.956667	801.745117	-113.197792
421.038830	6402.956667	800.555664	94.196411
421.038830	6402.956667	799.365234	-2.376916
421.038830	6402.956667	798.175781	-188.131042
421.038830	6402.956667	796.985352	-19.431168
421.038830	6402.956667	795.793945	38.325047
421.038830	6402.956667	794.603516	38.219250
421.038830	6402.956667	793.412109	-29.349152
421.038830	6402.956667	792.220703	-157.112381
421.038830	6402.956667	791.028320	290.745331
421.038830	6402.956667	789.836914	160.551743
421.038830	6402.956667	788.644531	80.961098
421.038830	6402.956667	787.452148	-15.450268
421.038830	6402.956667	786.258789	92.706650
421.038830	6402.956667	785.066406	-39.763844
421.038830	6402.956667	783.873047	-95.215370
421.038830	6402.956667	782.679688	15.277035
421.038830	6402.956667	781.485352	72.825966
421.038830	6402.956667	780.291992	-59.555271
421.038830	6402.956667	779.097656	79.681976
421.038830	6402.956667	777.903320	-240.073456
421.038830	6402.956667	776.708008	-146.512726
421.038830	6402.956667	775.512695	71.891663
421.038830	6402.956667	774.318359	95.694603
421.038830	6402.956667	773.122070	16.248842
421.038830	6402.956667	771.926758	114.445183
421.038830	6402.956667	770.730469	47.008888
421.038830	6402.956667	769.534180	-53.997353
421.038830	6402.956667	768.337891	65.714226
421.038830	6402.956667	767.141602	142.197998
421.038830	6402.956667	765.944336	206.651352
421.038830	6402.956667	764.747070	144.011963
421.038830	6402.956667	763.549805	-2.499776
421.038830	6402.956667	762.351563	119.422829
421.038830	6402.956667	761.154297	246.072571
421.038830	6402.956667	759.956055	87.620789
421.038830	6402.956667	758.757813	-166.568024
421.038830	6402.956667	757.558594	252.129196
421.038830	6402.956667	756.359375	17.137470
421.038830	6402.956667	755.160156	191.480865
421.038830	6402.956667	753.960938	90.567192
421.038830	6402.956667	752.761719	140.395126
421.038830	6402.956667	751.561523	300.211670
421.038830	6402.956667	750.361328	-94.832497
421.038830	6402.956667	749.160156	-71.338089
421.038830	6402.956667	747.959961	-52.651764
421.038830	6402.956667	746.758789	209.771576
421.038830	6402.956667	745.557617	137.566986
421.038830	6402.956667	744.356445	184.815140
421.038830	6402.956667	743.154297	-25.908951
421.038830	6402.956667	741.952148	90.564972
421.038830	6402.956667	740.750000	-158.283997
421.038830	6402.956667	739.547852	67.925568
421.038830	6402.956667	738.344727	-78.241150
421.038830	6402.956667	737.142578	-59.746799
421.038830	6402.956667	735.939453	30.279606
421.038830	6402.956667	734.735352	103.555374
421.038830	6402.956667	733.532227	-71.188690
421.038830	6402.956667	732.328125	-126.690109
421.038830	6402.956667	731.124023	-163.123245
421.038830	6402.956667	729.918945	14.890453
421.038830	6402.956667	728.714844	-50.189590
421.038830	6402.956667	727.509766	68.135300
421.038830	6402.956667	726.303711	-82.701759
421.038830	6402.956667	725.098633	-0.178724
421.038830	6402.956667	723.892578	110.849449
421.038830	6402.956667	722.686523	162.310089
421.038830	6402.956667	721.480469	-17.069693
421.038830	6402.956667	720.274414	-60.807896
421.038830	6402.956667	719.067383	-23.689255
421.038830	6402.956667	717.860352	-105.504143
421.038830	6402.956667	716.653320	-73.200241
421.038830	6402.956667	715.445313	-10.036963
421.038830	6402.956667	714.238281	-127.530952
421.038830	6402.956667	713.030273	25.842337
421.038830	6402.956667	711.821289	-3.778908
421.038830	6402.956667	710.613281	-102.287170
421.038830	6402.956667	709.404297	-51.199047
421.038830	6402.956667	708.195313	78.173782
421.038830	6402.956667	706.986328	-22.753067
421.038830	6402.956667	705.776367	-92.821228
421.038830	6402.956667	704.566406	-63.251465
421.038830	6402.956667	703.356445	-45.586178
421.038830	6402.956667	702.146484	33.694736
421.038830	6402.956667	700.935547	37.042526
421.038830	6402.956667	699.724609	56.948456
421.038830	6402.956667	698.513672	34.155281
421.038830	6402.956667	697.302734	6.598166
421.038830	6402.956667	696.090820	-6.767831
421.038830	6402.956667	694.878906	174.043777
421.038830	6402.956667	693.666992	-78.576752
421.038830	6402.956667	692.455078	78.428772
421.038830	6402.956667	691.242188	43.614948
421.038830	6402.956667	690.029297	179.159790
421.038830	6402.956667	688.816406	-33.174381
421.038830	6402.956667	687.602539	130.639603
421.038830	6402.956667	686.389648	36.574635
421.038830	6402.956667	685.175781	226.238113
421.038830	6402.956667	683.960938	165.209656
421.038830	6402.956667	682.747070	186.888168
421.038830	6402.956667	681.532227	227.421890
421.038830	6402.956667	680.317383	386.018372
421.038830	6402.956667	679.102539	202.031845
421.038830	6402.956667	677.886719	223.525360
421.038830	6402.956667	676.670898	49.014240
421.038830	6402.956667	675.455078	70.449364
421.038830	6402.956667	674.239258	-0.202772
421.038830	6402.956667	673.022461	63.620815
421.038830	6402.956667	671.805664	172.194397
421.038830	6402.956667	670.588867	261.812622
421.038830	6402.956667	669.372070	146.211533
421.038830	6402.956667	668.154297	16.471613
421.038830	6402.956667	666.936523	153.076263
421.038830	6402.956667	665.718750	240.094574
421.038830	6402.956667	664.500977	169.185501
421.038830	6402.956667	663.282227	79.417664
421.038830	6402.956667	662.063477	60.292233
421.038830	6402.956667	660.844727	59.966228
421.038830	6402.956667	659.625000	92.550194
421.038830	6402.956667	658.405273	141.550308
421.038830	6402.956667	657.185547	82.248611
421.038830	6402.956667	655.965820	34.688881
421.038830	6402.956667	654.745117	95.293083
421.038830	6402.956667	653.525391	71.173805
421.038830	6402.956667	652.303711	105.791519
421.038830	6402.956667	651.083008	53.382732
421.038830	6402.956667	649.861328	304.095123
421.038830	6402.956667	648.640625	82.411720
421.038830	6402.956667	647.417969	156.744766
421.038830	6402.956667	646.196289	106.531425
421.038830	6402.956667	644.973633	98.554878
421.038830	6402.956667	643.750977	69.407799
421.038830	6402.956667	642.528320	26.143826
421.038830	6402.956667	641.305664	-49.998795
421.038830	6402.956667	640.082031	16.948483
421.038830	6402.956667	638.858398	-21.728132
421.038830	6402.956667	637.634766	-13.535479
421.038830	6402.956667	636.410156	-122.619347
421.038830	6402.956667	635.185547	68.329086
421.038830	6402.956667	633.960938	59.950481
421.038830	6402.956667	632.736328	227.255615
421.038830	6402.956667	631.510742	0.895482
421.038830	6402.956667	630.285156	90.759178
421.038830	6402.956667	629.059570	84.534294
421.038830	6402.956667	627.833984	288.958221
421.038830	6402.956667	626.607422	-28.693140
421.038830	6402.956667	625.380859	7.089627
421.038830	6402.956667	624.154297	138.732437
421.038830	6402.956667	622.927734	36.367279
421.038830	6402.956667	621.700195	41.570740
421.038830	6402.956667	620.472656	28.020403
421.038830	6402.956667	619.245117	21.443024
421.038830	6402.956667	618.016602	119.988373
421.038830	6402.956667	616.788086	160.031448
421.038830	6402.956667	615.559570	344.848846
421.038830	6402.956667	614.331055	279.635162
421.038830	6402.956667	613.101563	64.956070
421.038830	6402.956667	611.872070	74.443634
421.038830	6402.956667	610.642578	4.523917
421.038830	6402.956667	609.413086	219.287064
421.038830	6402.956667	608.182617	-2.376092
421.038830	6402.956667	606.952148	216.872726
421.038830	6402.956667	605.721680	144.471359
421.038830	6402.956667	604.491211	4.439703
421.038830	6402.956667	603.259766	104.528870
421.038830	6402.956667	602.028320	244.152527
421.038830	6402.956667	600.796875	27.165575
421.038830	6402.956667	599.564453	71.145233
421.038830	6402.956667	598.332031	152.330505
421.038830	6402.956667	597.099609	-85.582832
421.038830	6402.956667	595.867188	258.600006
421.038830	6402.956667	594.633789	160.340973
421.038830	6402.956667	593.400391	-51.945957
421.038830	6402.956667	592.166992	84.815903
421.038830	6402.956667	590.933594	30.736456
421.038830	6402.956667	589.699219	27.803934
421.038830	6402.956667	588.464844	162.019424
421.038830	6402.956667	587.230469	-122.301071
421.038830	6402.956667	585.995117	244.231018
421.038830	6402.956667	584.760742	36.623489
421.038830	6402.956667	583.525391	191.483963
421.038830	6402.956667	582.289063	44.290524
421.038830	6402.956667	581.053711	-54.105095
421.038830	6402.956667	579.817383	112.179039
421.038830	6402.956667	578.581055	78.735168
421.038830	6402.956667	577.343750	203.078751
421.038830	6402.956667	576.107422	137.082245
421.038830	6402.956667	574.870117	24.686071
421.038830	6402.956667	573.631836	14.350826
421.038830	6402.956667	572.394531	-28.468803
421.038830	6402.956667	571.156250	33.019043
421.038830	6402.956667	569.917969	87.498650
421.038830	6402.956667	568.679688	49.237381
421.038830	6402.956667	567.440430	115.217422
421.038830	6402.956667	566.202148	37.538250
421.038830	6402.956667	564.961914	91.859665
421.038830	6402.956667	563.722656	99.831093
421.038830	6402.956667	562.482422	343.879944
421.038830	6402.956667	561.243164	118.005264
421.038830	6402.956667	560.001953	225.385284
421.038830	6402.956667	558.761719	-21.232697
421.038830	6402.956667	557.520508	30.581570
421.038830	6402.956667	556.279297	19.922834
421.038830	6402.956667	555.038086	25.432590
421.038830	6402.956667	553.795898	12.428895
421.038830	6402.956667	552.554688	-16.757875
421.038830	6402.956667	551.311523	67.250458
421.038830	6402.956667	550.069336	77.296249
421.038830	6402.956667	548.826172	1.876031
421.038830	6402.956667	547.583984	141.199203
421.038830	6402.956667	546.339844	-58.881557
421.038830	6402.956667	545.096680	-129.646805
421.038830	6402.956667	543.852539	-87.333443
421.038830	6402.956667	542.608398	-31.207882
421.038830	6402.956667	541.364258	-69.675461
421.038830	6402.956667	540.119141	-64.326355
421.038830	6402.956667	538.875000	-102.785065
421.038830	6402.956667	537.628906	1.663309
421.038830	6402.956667	536.383789	36.932659
421.038830	6402.956667	535.137695	9.974493
421.038830	6402.956667	533.892578	12.972920
421.038830	6402.956667	532.645508	-20.886480
421.038830	6402.956667	531.399414	-153.732788
421.038830	6402.956667	530.152344	10.422601
421.038830	6402.956667	528.905273	-76.348824
421.038830	6402.956667	527.658203	55.508518
421.038830	6402.956667	526.410156	-1.328996
421.038830	6402.956667	525.163086	141.959396
421.038830	6402.956667	523.914063	161.013382
421.038830	6402.956667	522.666016	-13.045240
421.038830	6402.956667	521.416992	-143.356812
421.038830	6402.956667	520.167969	61.899120
421.038830	6402.956667	518.918945	32.731159
421.038830	6402.956667	517.669922	-49.247593
421.038830	6402.956667	516.419922	-105.923294
421.038830	6402.956667	515.169922	0.450164
421.038830	6402.956667	513.919922	67.765129
421.038830	6402.956667	512.668945	-25.592123
421.038830	6402.956667	511.417969	-128.075760
421.038830	6402.956667	510.166992	-85.978081
421.038830	6402.956667	508.916016	-151.683182
421.038830	6402.956667	507.664063	44.059410
421.038830	6402.956667	506.412109	-127.077660
421.038830	6402.956667	505.160156	-89.547905
421.038830	6402.956667	503.907227	-15.356759
421.038830	6402.956667	502.655273	-108.426331
421.038830	6402.956667	501.402344	-82.332512
421.038830	6402.956667	500.148438	-72.267181
421.038830	6402.956667	498.895508	-142.320618
421.038830	6402.956667	497.641602	66.941032
421.038830	6402.956667	496.387695	-85.470100
421.038830	6402.956667	495.132813	18.469704
421.038830	6402.956667	493.878906	-97.225616
421.038830	6402.956667	492.624023	-55.043125
421.038830	6402.956667	491.368164	-278.111542
421.038830	6402.956667	490.113281	-144.423965
421.038830	6402.956667	488.857422	44.078346
421.038830	6402.956667	487.601563	-71.407364
421.038830	6402.956667	486.344727	-100.008957
421.038830	6402.956667	485.088867	-121.724792
421.038830	6402.956667	483.832031	-6.392663
421.038830	6402.956667	482.575195	-199.322479
421.038830	6402.956667	481.317383	-97.685219
421.038830	6402.956667	480.059570	13.055722
421.038830	6402.956667	478.801758	153.430206
421.038830	6402.956667	477.543945	-105.453842
421.038830	6402.956667	476.285156	121.584915
421.038830	6402.956667	475.027344	17.909632
421.038830	6402.956667	473.767578	-5.920033
421.038830	6402.956667	472.508789	-43.396858
421.038830	6402.956667	471.249023	60.437847
421.038830	6402.956667	469.989258	-90.925926
421.038830	6402.956667	468.729492	-185.267532
421.038830	6402.956667	467.469727	-88.265808
421.038830	6402.956667	466.208984	-96.030037
421.038830	6402.956667	464.948242	87.426437
421.038830	6402.956667	463.686523	209.361359
421.038830	6402.956667	462.425781	-5.496041
421.038830	6402.956667	461.164063	29.972496
421.038830	6402.956667	459.901367	88.169563
421.038830	6402.956667	458.639648	212.284973
421.038830	6402.956667	457.376953	95.367355
421.038830	6402.956667	456.114258	80.776573
421.038830	6402.956667	454.851563	88.908890
421.038830	6402.956667	453.587891	144.737976
421.038830	6402.956667	452.324219	71.062782
421.038830	6402.956667	451.060547	117.763573
421.038830	6402.956667	449.796875	125.832787
421.038830	6402.956667	448.532227	63.509136
421.038830	6402.956667	447.267578	98.776627
421.038830	6402.956667	446.002930	84.088196
421.038830	6402.956667	444.737305	5.858836
421.038830	6402.956667	443.471680	16.081907
421.038830	6402.956667	442.206055	212.199158
421.038830	6402.956667	440.940430	238.168793
421.038830	6402.956667	439.673828	248.216583
421.038830	6402.956667	438.407227	240.086288
421.038830	6402.956667	437.140625	322.528595
421.038830	6402.956667	435.873047	173.844803
421.038830	6402.956667	434.605469	29.695242
421.038830	6402.956667	433.337891	12.330039
421.038830	6402.956667	432.070313	71.861435
421.038830	6402.956667	430.801758	153.920837
421.038830	6402.956667	429.533203	131.786148
421.038830	6402.956667	428.264648	290.540710
421.038830	6402.956667	426.996094	424.257843
421.038830	6402.956667	425.726563	168.907745
421.038830	6402.956667	424.457031	223.266724
421.038830	6402.956667	423.186523	196.124634
421.038830	6402.956667	421.916992	302.197693
421.038830	6402.956667	420.646484	170.887833
421.038830	6402.956667	419.375977	240.522552
421.038830	6402.956667	418.104492	230.949966
421.038830	6402.956667	416.833008	266.386871
421.038830	6402.956667	415.561523	448.370331
421.038830	6402.956667	414.290039	228.422516
421.038830	6402.956667	413.017578	254.319687
421.038830	6402.956667	411.746094	250.705460
421.038830	6402.956667	410.472656	267.190979
421.038830	6402.956667	409.200195	195.541519
421.038830	6402.956667	407.926758	180.066071
421.038830	6402.956667	406.653320	225.229294
421.038830	6402.956667	405.379883	182.268127
421.038830	6402.956667	404.105469	105.288704
421.038830	6402.956667	402.831055	334.402649
421.038830	6402.956667	401.556641	299.696564
421.038830	6402.956667	400.282227	1.329980
421.038830	6402.956667	399.006836	101.194962
421.038830	6402.956667	397.731445	225.473862
421.038830	6402.956667	396.456055	311.141602
421.038830	6402.956667	395.179688	126.520088
421.038830	6402.956667	393.903320	173.274673
421.038830	6402.956667	392.626953	64.520782
421.038830	6402.956667	391.350586	126.289436
421.038830	6402.956667	390.073242	270.797455
421.038830	6402.956667	388.795898	86.801437
421.038830	6402.956667	387.518555	35.013897
421.038830	6402.956667	386.240234	243.342819
421.038830	6402.956667	384.961914	217.612839
421.038830	6402.956667	383.683594	290.214844
421.038830	6402.956667	382.405273	66.040321
421.038830	6402.956667	381.125977	77.077110
421.038830	6402.956667	379.846680	96.573265
421.038830	6402.956667	378.567383	232.165939
421.038830	6402.956667	377.287109	113.736877
421.038830	6402.956667	376.006836	30.662754
421.038830	6402.956667	374.726563	117.392769
421.038830	6402.956667	373.446289	120.559235
421.038830	6402.956667	372.165039	-53.923767
421.038830	6402.956667	370.883789	100.307449
421.038830	6402.956667	369.602539	79.112167
421.038830	6402.956667	368.320313	200.515594
421.038830	6402.956667	367.039063	198.039566
421.038830	6402.956667	365.755859	4.549220
421.038830	6402.956667	364.473633	-6.122465
421.038830	6402.956667	363.190430	60.701340
421.038830	6402.956667	361.907227	137.859634
421.038830	6402.956667	360.624023	153.763412
421.038830	6402.956667	359.340820	-50.306808
421.038830	6402.956667	358.056641	122.540611
421.038830	6402.956667	356.772461	-112.330894
421.038830	6402.956667	355.487305	-95.610527
421.038830	6402.956667	354.202148	-117.856697
421.038830	6402.956667	352.916992	64.348503
421.038830	6402.956667	351.631836	-163.166534
421.038830	6402.956667	350.346680	-45.657108
421.038830	6402.956667	349.060547	39.420494
421.038830	6402.956667	347.774414	-10.561122
421.038830	6402.956667	346.487305	297.436584
421.038830	6402.956667	345.200195	48.734596
421.038830	6402.956667	343.913086	215.873810
421.038830	6402.956667	342.625977	-39.690601
421.038830	6402.956667	341.338867	-51.288418
421.038830	6402.956667	340.050781	42.692280
421.038830	6402.956667	338.762695	-63.047802
421.038830	6402.956667	337.473633	16.891447
421.038830	6402.956667	336.184570	-100.652191
421.038830	6402.956667	334.895508	-21.509672
421.038830	6402.956667	333.606445	7.067308
421.038830	6402.956667	332.317383	-172.937469
421.038830	6402.956667	331.027344	-0.777574
421.038830	6402.956667	329.736328	-75.121277
421.038830	6402.956667	328.446289	-37.703651
421.038830	6402.956667	327.155273	-142.211914
421.038830	6402.956667	325.864258	-159.585358
421.038830	6402.956667	324.573242	-78.816460
421.038830	6402.956667	323.281250	17.716047
421.038830	6402.956667	321.989258	138.882553
421.038830	6402.956667	320.697266	-70.759651
421.038830	6402.956667	319.405273	-224.659164
421.038830	6402.956667	318.112305	-125.369057
421.038830	6402.956667	316.819336	-219.208527
421.038830	6402.956667	315.526367	113.040581
421.038830	6402.956667	314.232422	223.128387
421.038830	6402.956667	312.938477	108.980415
421.038830	6402.956667	311.644531	65.640572
421.038830	6402.956667	310.349609	50.808132
421.038830	6402.956667	309.054688	75.548073
421.038830	6402.956667	307.759766	22.310965
421.038830	6402.956667	306.464844	150.328430
421.038830	6402.956667	305.168945	348.579071
421.038830	6402.956667	303.873047	444.265381
421.038830	6402.956667	302.577148	437.386749
421.038830	6402.956667	301.281250	575.888672
421.038830	6402.956667	299.984375	408.002441
