#X		#Y		#Wave		#Intensity
136.646277	5910.841667	1999.946289	44.838013
136.646277	5910.841667	1998.981445	-13.220009
136.646277	5910.841667	1998.017578	74.664497
136.646277	5910.841667	1997.052734	13.870672
136.646277	5910.841667	1996.088867	62.158092
136.646277	5910.841667	1995.124023	6.424539
136.646277	5910.841667	1994.159180	-17.051476
136.646277	5910.841667	1993.193359	83.332176
136.646277	5910.841667	1992.228516	-39.106731
136.646277	5910.841667	1991.262695	68.743469
136.646277	5910.841667	1990.296875	-28.827454
136.646277	5910.841667	1989.331055	34.510880
136.646277	5910.841667	1988.365234	13.744139
136.646277	5910.841667	1987.398438	35.067032
136.646277	5910.841667	1986.432617	63.833752
136.646277	5910.841667	1985.465820	8.551844
136.646277	5910.841667	1984.499023	-12.069125
136.646277	5910.841667	1983.532227	14.308881
136.646277	5910.841667	1982.565430	80.245346
136.646277	5910.841667	1981.597656	84.415718
136.646277	5910.841667	1980.629883	88.611763
136.646277	5910.841667	1979.662109	-80.057060
136.646277	5910.841667	1978.694336	116.832420
136.646277	5910.841667	1977.726563	-17.163404
136.646277	5910.841667	1976.758789	16.771006
136.646277	5910.841667	1975.790039	55.652023
136.646277	5910.841667	1974.821289	-33.771637
136.646277	5910.841667	1973.852539	-2.252141
136.646277	5910.841667	1972.883789	41.610336
136.646277	5910.841667	1971.915039	-10.704044
136.646277	5910.841667	1970.945313	30.718588
136.646277	5910.841667	1969.975586	22.840033
136.646277	5910.841667	1969.005859	91.392189
136.646277	5910.841667	1968.036133	31.790939
136.646277	5910.841667	1967.066406	9.187753
136.646277	5910.841667	1966.096680	-30.634039
136.646277	5910.841667	1965.125977	-26.091076
136.646277	5910.841667	1964.155273	-4.296311
136.646277	5910.841667	1963.184570	-44.045856
136.646277	5910.841667	1962.213867	-0.071475
136.646277	5910.841667	1961.242188	19.289392
136.646277	5910.841667	1960.271484	48.499409
136.646277	5910.841667	1959.299805	-55.140736
136.646277	5910.841667	1958.328125	77.408562
136.646277	5910.841667	1957.356445	79.576843
136.646277	5910.841667	1956.384766	118.638863
136.646277	5910.841667	1955.412109	83.945557
136.646277	5910.841667	1954.439453	93.518692
136.646277	5910.841667	1953.467773	51.491081
136.646277	5910.841667	1952.495117	83.199783
136.646277	5910.841667	1951.521484	-10.379064
136.646277	5910.841667	1950.548828	16.435198
136.646277	5910.841667	1949.575195	6.413182
136.646277	5910.841667	1948.601563	-52.701187
136.646277	5910.841667	1947.627930	3.587032
136.646277	5910.841667	1946.654297	35.318436
136.646277	5910.841667	1945.680664	20.422064
136.646277	5910.841667	1944.706055	42.338387
136.646277	5910.841667	1943.732422	-21.600000
136.646277	5910.841667	1942.757813	-16.839855
136.646277	5910.841667	1941.783203	7.539880
136.646277	5910.841667	1940.807617	41.721676
136.646277	5910.841667	1939.833008	56.286278
136.646277	5910.841667	1938.857422	29.188982
136.646277	5910.841667	1937.881836	2.105615
136.646277	5910.841667	1936.906250	-5.366504
136.646277	5910.841667	1935.930664	26.355547
136.646277	5910.841667	1934.955078	-27.639809
136.646277	5910.841667	1933.978516	26.115374
136.646277	5910.841667	1933.001953	-5.823786
136.646277	5910.841667	1932.025391	79.728081
136.646277	5910.841667	1931.048828	-23.168295
136.646277	5910.841667	1930.072266	-8.591559
136.646277	5910.841667	1929.094727	-13.587646
136.646277	5910.841667	1928.118164	18.102924
136.646277	5910.841667	1927.140625	17.995401
136.646277	5910.841667	1926.163086	69.226967
136.646277	5910.841667	1925.184570	-18.882809
136.646277	5910.841667	1924.207031	-43.421585
136.646277	5910.841667	1923.228516	59.102226
136.646277	5910.841667	1922.250000	39.442894
136.646277	5910.841667	1921.271484	-36.386139
136.646277	5910.841667	1920.292969	-21.834927
136.646277	5910.841667	1919.314453	-12.173713
136.646277	5910.841667	1918.334961	75.596436
136.646277	5910.841667	1917.355469	63.267048
136.646277	5910.841667	1916.375977	26.538731
136.646277	5910.841667	1915.396484	67.892120
136.646277	5910.841667	1914.416992	36.050285
136.646277	5910.841667	1913.436523	45.677212
136.646277	5910.841667	1912.457031	50.420937
136.646277	5910.841667	1911.476563	84.414429
136.646277	5910.841667	1910.496094	3.833301
136.646277	5910.841667	1909.515625	47.564236
136.646277	5910.841667	1908.534180	20.616554
136.646277	5910.841667	1907.552734	-25.813219
136.646277	5910.841667	1906.572266	76.341934
136.646277	5910.841667	1905.590820	-18.791748
136.646277	5910.841667	1904.608398	17.579531
136.646277	5910.841667	1903.626953	12.550560
136.646277	5910.841667	1902.644531	75.665176
136.646277	5910.841667	1901.663086	60.884899
136.646277	5910.841667	1900.680664	53.404308
136.646277	5910.841667	1899.698242	-29.483332
136.646277	5910.841667	1898.714844	-41.817883
136.646277	5910.841667	1897.732422	45.538734
136.646277	5910.841667	1896.749023	42.908653
136.646277	5910.841667	1895.765625	59.718952
136.646277	5910.841667	1894.782227	-25.548536
136.646277	5910.841667	1893.798828	-67.055168
136.646277	5910.841667	1892.814453	56.636112
136.646277	5910.841667	1891.831055	39.406025
136.646277	5910.841667	1890.846680	24.604977
136.646277	5910.841667	1889.862305	4.947825
136.646277	5910.841667	1888.877930	-63.256428
136.646277	5910.841667	1887.892578	19.030693
136.646277	5910.841667	1886.908203	72.162529
136.646277	5910.841667	1885.922852	84.025330
136.646277	5910.841667	1884.937500	20.683723
136.646277	5910.841667	1883.952148	1.012162
136.646277	5910.841667	1882.965820	37.109413
136.646277	5910.841667	1881.980469	51.368317
136.646277	5910.841667	1880.994141	21.987331
136.646277	5910.841667	1880.007813	43.500500
136.646277	5910.841667	1879.021484	21.387138
136.646277	5910.841667	1878.035156	76.792831
136.646277	5910.841667	1877.047852	93.419342
136.646277	5910.841667	1876.061523	88.239212
136.646277	5910.841667	1875.074219	20.106337
136.646277	5910.841667	1874.086914	-23.801741
136.646277	5910.841667	1873.098633	-14.457094
136.646277	5910.841667	1872.111328	-14.801805
136.646277	5910.841667	1871.123047	59.843063
136.646277	5910.841667	1870.135742	64.307922
136.646277	5910.841667	1869.147461	73.600555
136.646277	5910.841667	1868.158203	61.121536
136.646277	5910.841667	1867.169922	65.561928
136.646277	5910.841667	1866.180664	89.329247
136.646277	5910.841667	1865.192383	74.415977
136.646277	5910.841667	1864.203125	11.179440
136.646277	5910.841667	1863.213867	66.324738
136.646277	5910.841667	1862.223633	-28.298485
136.646277	5910.841667	1861.234375	-35.963665
136.646277	5910.841667	1860.244141	74.665108
136.646277	5910.841667	1859.253906	4.209592
136.646277	5910.841667	1858.263672	-49.333385
136.646277	5910.841667	1857.273438	-3.934904
136.646277	5910.841667	1856.282227	111.399925
136.646277	5910.841667	1855.291992	45.784840
136.646277	5910.841667	1854.300781	107.998299
136.646277	5910.841667	1853.309570	66.504280
136.646277	5910.841667	1852.317383	5.733202
136.646277	5910.841667	1851.326172	7.642363
136.646277	5910.841667	1850.333984	84.244797
136.646277	5910.841667	1849.342773	-29.521572
136.646277	5910.841667	1848.350586	32.591255
136.646277	5910.841667	1847.357422	-23.336906
136.646277	5910.841667	1846.365234	31.512787
136.646277	5910.841667	1845.372070	23.740334
136.646277	5910.841667	1844.379883	54.475636
136.646277	5910.841667	1843.386719	65.939400
136.646277	5910.841667	1842.393555	55.736691
136.646277	5910.841667	1841.399414	19.067993
136.646277	5910.841667	1840.406250	16.078653
136.646277	5910.841667	1839.412109	92.439644
136.646277	5910.841667	1838.417969	106.253006
136.646277	5910.841667	1837.423828	-48.215118
136.646277	5910.841667	1836.429688	4.059220
136.646277	5910.841667	1835.434570	20.262196
136.646277	5910.841667	1834.440430	43.659721
136.646277	5910.841667	1833.445313	23.804287
136.646277	5910.841667	1832.450195	25.563488
136.646277	5910.841667	1831.454102	-27.911320
136.646277	5910.841667	1830.458984	48.263519
136.646277	5910.841667	1829.462891	40.394585
136.646277	5910.841667	1828.466797	68.518089
136.646277	5910.841667	1827.470703	127.815094
136.646277	5910.841667	1826.474609	14.364367
136.646277	5910.841667	1825.478516	-43.886906
136.646277	5910.841667	1824.481445	5.784735
136.646277	5910.841667	1823.484375	67.418213
136.646277	5910.841667	1822.487305	-5.213596
136.646277	5910.841667	1821.490234	10.849544
136.646277	5910.841667	1820.493164	-1.853995
136.646277	5910.841667	1819.495117	-14.559767
136.646277	5910.841667	1818.498047	-29.662516
136.646277	5910.841667	1817.500000	-35.187347
136.646277	5910.841667	1816.500977	57.450962
136.646277	5910.841667	1815.502930	35.141285
136.646277	5910.841667	1814.504883	130.111908
136.646277	5910.841667	1813.505859	-7.080005
136.646277	5910.841667	1812.506836	1.718059
136.646277	5910.841667	1811.507813	82.268845
136.646277	5910.841667	1810.508789	24.068127
136.646277	5910.841667	1809.508789	-34.117386
136.646277	5910.841667	1808.508789	3.341915
136.646277	5910.841667	1807.508789	21.658482
136.646277	5910.841667	1806.508789	82.978722
136.646277	5910.841667	1805.508789	0.907175
136.646277	5910.841667	1804.508789	43.084393
136.646277	5910.841667	1803.507813	13.585032
136.646277	5910.841667	1802.506836	5.582935
136.646277	5910.841667	1801.505859	-62.111427
136.646277	5910.841667	1800.504883	-27.140097
136.646277	5910.841667	1799.502930	3.038122
136.646277	5910.841667	1798.501953	85.696205
136.646277	5910.841667	1797.500000	46.642815
136.646277	5910.841667	1796.498047	74.387138
136.646277	5910.841667	1795.496094	11.490625
136.646277	5910.841667	1794.493164	65.447578
136.646277	5910.841667	1793.491211	64.547874
136.646277	5910.841667	1792.488281	-45.998646
136.646277	5910.841667	1791.485352	62.731800
136.646277	5910.841667	1790.482422	76.111450
136.646277	5910.841667	1789.478516	91.862244
136.646277	5910.841667	1788.475586	74.258354
136.646277	5910.841667	1787.471680	1.886656
136.646277	5910.841667	1786.467773	27.149469
136.646277	5910.841667	1785.463867	64.299164
136.646277	5910.841667	1784.459961	-43.743797
136.646277	5910.841667	1783.455078	60.018612
136.646277	5910.841667	1782.450195	68.576981
136.646277	5910.841667	1781.445313	41.448822
136.646277	5910.841667	1780.440430	-49.882412
136.646277	5910.841667	1779.435547	-55.589157
136.646277	5910.841667	1778.429688	45.674122
136.646277	5910.841667	1777.424805	73.215897
136.646277	5910.841667	1776.418945	0.937871
136.646277	5910.841667	1775.413086	97.366570
136.646277	5910.841667	1774.406250	13.224213
136.646277	5910.841667	1773.400391	26.481909
136.646277	5910.841667	1772.393555	68.222969
136.646277	5910.841667	1771.386719	41.096851
136.646277	5910.841667	1770.379883	54.327244
136.646277	5910.841667	1769.373047	-20.257675
136.646277	5910.841667	1768.365234	0.087729
136.646277	5910.841667	1767.358398	46.516010
136.646277	5910.841667	1766.350586	28.883865
136.646277	5910.841667	1765.342773	32.595909
136.646277	5910.841667	1764.334961	83.719696
136.646277	5910.841667	1763.326172	49.484127
136.646277	5910.841667	1762.318359	65.027260
136.646277	5910.841667	1761.309570	23.691351
136.646277	5910.841667	1760.300781	62.915337
136.646277	5910.841667	1759.291016	59.484612
136.646277	5910.841667	1758.282227	-12.625081
136.646277	5910.841667	1757.272461	40.777115
136.646277	5910.841667	1756.262695	34.973412
136.646277	5910.841667	1755.252930	22.067616
136.646277	5910.841667	1754.243164	11.529385
136.646277	5910.841667	1753.233398	-34.497433
136.646277	5910.841667	1752.222656	40.127640
136.646277	5910.841667	1751.211914	-27.180113
136.646277	5910.841667	1750.201172	-18.799917
136.646277	5910.841667	1749.190430	72.317474
136.646277	5910.841667	1748.179688	64.122787
136.646277	5910.841667	1747.167969	25.205343
136.646277	5910.841667	1746.156250	7.564178
136.646277	5910.841667	1745.144531	79.694214
136.646277	5910.841667	1744.132813	19.529209
136.646277	5910.841667	1743.121094	25.503304
136.646277	5910.841667	1742.108398	62.163677
136.646277	5910.841667	1741.095703	58.678204
136.646277	5910.841667	1740.083008	31.590265
136.646277	5910.841667	1739.070313	39.903820
136.646277	5910.841667	1738.057617	123.704117
136.646277	5910.841667	1737.043945	-21.325930
136.646277	5910.841667	1736.030273	43.581299
136.646277	5910.841667	1735.016602	73.093819
136.646277	5910.841667	1734.002930	88.447998
136.646277	5910.841667	1732.989258	9.517182
136.646277	5910.841667	1731.974609	-48.178936
136.646277	5910.841667	1730.959961	9.588696
136.646277	5910.841667	1729.945313	22.575983
136.646277	5910.841667	1728.930664	-44.518055
136.646277	5910.841667	1727.916016	3.789172
136.646277	5910.841667	1726.900391	-20.905748
136.646277	5910.841667	1725.885742	-59.715530
136.646277	5910.841667	1724.870117	87.397430
136.646277	5910.841667	1723.853516	-3.187557
136.646277	5910.841667	1722.837891	49.757385
136.646277	5910.841667	1721.822266	-50.197529
136.646277	5910.841667	1720.805664	33.300251
136.646277	5910.841667	1719.789063	50.934273
136.646277	5910.841667	1718.772461	99.117294
136.646277	5910.841667	1717.754883	-21.932415
136.646277	5910.841667	1716.738281	-25.451921
136.646277	5910.841667	1715.720703	22.710848
136.646277	5910.841667	1714.703125	-4.308779
136.646277	5910.841667	1713.685547	-68.893692
136.646277	5910.841667	1712.667969	-60.670681
136.646277	5910.841667	1711.649414	34.402248
136.646277	5910.841667	1710.630859	66.067734
136.646277	5910.841667	1709.612305	-19.608513
136.646277	5910.841667	1708.593750	-48.947250
136.646277	5910.841667	1707.575195	67.154350
136.646277	5910.841667	1706.555664	7.318223
136.646277	5910.841667	1705.536133	-14.980318
136.646277	5910.841667	1704.516602	-58.370872
136.646277	5910.841667	1703.497070	-40.806038
136.646277	5910.841667	1702.477539	-32.623051
136.646277	5910.841667	1701.457031	27.099461
136.646277	5910.841667	1700.437500	35.263252
136.646277	5910.841667	1699.416992	15.316869
136.646277	5910.841667	1698.395508	44.549774
136.646277	5910.841667	1697.375000	36.312458
136.646277	5910.841667	1696.354492	-9.374462
136.646277	5910.841667	1695.333008	-38.664204
136.646277	5910.841667	1694.311523	105.202118
136.646277	5910.841667	1693.290039	3.379077
136.646277	5910.841667	1692.267578	55.961388
136.646277	5910.841667	1691.246094	0.953840
136.646277	5910.841667	1690.223633	23.119905
136.646277	5910.841667	1689.201172	-20.175331
136.646277	5910.841667	1688.178711	-0.352850
136.646277	5910.841667	1687.155273	-27.273029
136.646277	5910.841667	1686.132813	-51.846836
136.646277	5910.841667	1685.109375	-25.026148
136.646277	5910.841667	1684.085938	13.460013
136.646277	5910.841667	1683.062500	9.902946
136.646277	5910.841667	1682.039063	15.684031
136.646277	5910.841667	1681.014648	-18.216047
136.646277	5910.841667	1679.990234	-33.435738
136.646277	5910.841667	1678.965820	-1.988795
136.646277	5910.841667	1677.941406	59.769344
136.646277	5910.841667	1676.916992	23.551977
136.646277	5910.841667	1675.891602	-40.633488
136.646277	5910.841667	1674.866211	56.062790
136.646277	5910.841667	1673.840820	40.842010
136.646277	5910.841667	1672.815430	81.555534
136.646277	5910.841667	1671.790039	26.725971
136.646277	5910.841667	1670.763672	16.176416
136.646277	5910.841667	1669.737305	12.617538
136.646277	5910.841667	1668.710938	25.359798
136.646277	5910.841667	1667.684570	17.143585
136.646277	5910.841667	1666.658203	-56.244568
136.646277	5910.841667	1665.630859	77.517578
136.646277	5910.841667	1664.603516	90.235535
136.646277	5910.841667	1663.576172	33.158604
136.646277	5910.841667	1662.548828	45.879841
136.646277	5910.841667	1661.520508	-29.770954
136.646277	5910.841667	1660.493164	8.532189
136.646277	5910.841667	1659.464844	7.302601
136.646277	5910.841667	1658.436523	40.934666
136.646277	5910.841667	1657.408203	-4.449635
136.646277	5910.841667	1656.378906	96.543221
136.646277	5910.841667	1655.350586	-6.902522
136.646277	5910.841667	1654.321289	-38.318089
136.646277	5910.841667	1653.291992	4.577257
136.646277	5910.841667	1652.261719	47.455482
136.646277	5910.841667	1651.232422	53.182953
136.646277	5910.841667	1650.202148	63.548767
136.646277	5910.841667	1649.171875	85.511017
136.646277	5910.841667	1648.141602	26.279459
136.646277	5910.841667	1647.111328	6.496453
136.646277	5910.841667	1646.080078	-15.597912
136.646277	5910.841667	1645.049805	106.048386
136.646277	5910.841667	1644.018555	88.579681
136.646277	5910.841667	1642.987305	8.549886
136.646277	5910.841667	1641.955078	0.374631
136.646277	5910.841667	1640.923828	8.418800
136.646277	5910.841667	1639.891602	2.563787
136.646277	5910.841667	1638.859375	19.867170
136.646277	5910.841667	1637.827148	78.836060
136.646277	5910.841667	1636.794922	79.916405
136.646277	5910.841667	1635.761719	122.652145
136.646277	5910.841667	1634.729492	33.488705
136.646277	5910.841667	1633.696289	64.651611
136.646277	5910.841667	1632.662109	-26.778898
136.646277	5910.841667	1631.628906	34.446434
136.646277	5910.841667	1630.594727	47.096958
136.646277	5910.841667	1629.561523	82.859200
136.646277	5910.841667	1628.527344	130.163269
136.646277	5910.841667	1627.493164	78.093224
136.646277	5910.841667	1626.458008	60.696182
136.646277	5910.841667	1625.423828	22.520338
136.646277	5910.841667	1624.388672	76.729958
136.646277	5910.841667	1623.353516	70.890289
136.646277	5910.841667	1622.318359	76.595840
136.646277	5910.841667	1621.282227	93.839294
136.646277	5910.841667	1620.247070	55.698364
136.646277	5910.841667	1619.210938	91.397400
136.646277	5910.841667	1618.174805	-22.843338
136.646277	5910.841667	1617.137695	-7.896395
136.646277	5910.841667	1616.101563	80.828384
136.646277	5910.841667	1615.064453	109.583191
136.646277	5910.841667	1614.027344	50.746487
136.646277	5910.841667	1612.990234	51.846863
136.646277	5910.841667	1611.953125	62.163399
136.646277	5910.841667	1610.916016	146.187088
136.646277	5910.841667	1609.877930	73.575920
136.646277	5910.841667	1608.839844	180.592133
136.646277	5910.841667	1607.801758	94.193016
136.646277	5910.841667	1606.763672	35.448685
136.646277	5910.841667	1605.724609	98.690941
136.646277	5910.841667	1604.685547	111.293846
136.646277	5910.841667	1603.646484	84.788429
136.646277	5910.841667	1602.607422	97.392242
136.646277	5910.841667	1601.568359	73.202492
136.646277	5910.841667	1600.528320	35.229454
136.646277	5910.841667	1599.489258	80.019539
136.646277	5910.841667	1598.449219	92.620384
136.646277	5910.841667	1597.408203	141.978806
136.646277	5910.841667	1596.368164	108.623383
136.646277	5910.841667	1595.327148	114.325638
136.646277	5910.841667	1594.287109	177.434692
136.646277	5910.841667	1593.246094	86.701340
136.646277	5910.841667	1592.204102	78.637329
136.646277	5910.841667	1591.163086	95.823212
136.646277	5910.841667	1590.121094	122.181175
136.646277	5910.841667	1589.079102	68.240776
136.646277	5910.841667	1588.037109	69.368729
136.646277	5910.841667	1586.995117	139.291611
136.646277	5910.841667	1585.953125	142.701859
136.646277	5910.841667	1584.910156	132.359039
136.646277	5910.841667	1583.867188	140.356415
136.646277	5910.841667	1582.824219	111.691795
136.646277	5910.841667	1581.781250	101.367424
136.646277	5910.841667	1580.737305	93.338928
136.646277	5910.841667	1579.693359	108.215431
136.646277	5910.841667	1578.649414	77.297974
136.646277	5910.841667	1577.605469	128.801666
136.646277	5910.841667	1576.561523	22.372057
136.646277	5910.841667	1575.516602	108.193054
136.646277	5910.841667	1574.472656	65.870285
136.646277	5910.841667	1573.427734	71.598717
136.646277	5910.841667	1572.381836	123.063446
136.646277	5910.841667	1571.336914	103.633011
136.646277	5910.841667	1570.291016	104.785362
136.646277	5910.841667	1569.246094	121.939079
136.646277	5910.841667	1568.200195	196.213715
136.646277	5910.841667	1567.153320	176.792664
136.646277	5910.841667	1566.107422	132.257080
136.646277	5910.841667	1565.060547	142.549545
136.646277	5910.841667	1564.013672	63.793762
136.646277	5910.841667	1562.966797	99.211693
136.646277	5910.841667	1561.919922	93.536034
136.646277	5910.841667	1560.872070	142.630173
136.646277	5910.841667	1559.825195	162.049606
136.646277	5910.841667	1558.777344	129.000381
136.646277	5910.841667	1557.729492	130.175049
136.646277	5910.841667	1556.680664	119.950928
136.646277	5910.841667	1555.632813	132.530945
136.646277	5910.841667	1554.583984	133.712234
136.646277	5910.841667	1553.535156	64.253998
136.646277	5910.841667	1552.486328	67.732399
136.646277	5910.841667	1551.436523	173.715485
136.646277	5910.841667	1550.387695	165.789688
136.646277	5910.841667	1549.337891	121.437714
136.646277	5910.841667	1548.288086	68.000023
136.646277	5910.841667	1547.238281	66.936127
136.646277	5910.841667	1546.187500	172.829681
136.646277	5910.841667	1545.136719	83.018951
136.646277	5910.841667	1544.086914	182.050186
136.646277	5910.841667	1543.035156	169.604294
136.646277	5910.841667	1541.984375	43.475521
136.646277	5910.841667	1540.933594	19.701878
136.646277	5910.841667	1539.881836	111.859962
136.646277	5910.841667	1538.830078	10.823430
136.646277	5910.841667	1537.778320	57.512703
136.646277	5910.841667	1536.725586	31.495123
136.646277	5910.841667	1535.673828	16.847511
136.646277	5910.841667	1534.621094	118.014091
136.646277	5910.841667	1533.568359	12.551350
136.646277	5910.841667	1532.515625	61.480061
136.646277	5910.841667	1531.461914	173.934219
136.646277	5910.841667	1530.409180	95.759682
136.646277	5910.841667	1529.355469	112.894333
136.646277	5910.841667	1528.301758	55.181271
136.646277	5910.841667	1527.247070	2.029169
136.646277	5910.841667	1526.193359	10.114158
136.646277	5910.841667	1525.138672	194.998932
136.646277	5910.841667	1524.083984	130.529968
136.646277	5910.841667	1523.029297	16.243444
136.646277	5910.841667	1521.974609	-16.442907
136.646277	5910.841667	1520.918945	136.606659
136.646277	5910.841667	1519.863281	158.262314
136.646277	5910.841667	1518.807617	10.114883
136.646277	5910.841667	1517.751953	13.686371
136.646277	5910.841667	1516.696289	110.046371
136.646277	5910.841667	1515.639648	210.897064
136.646277	5910.841667	1514.583008	8050.652832
136.646277	5910.841667	1513.526367	756.273743
136.646277	5910.841667	1512.469727	167.254074
136.646277	5910.841667	1511.412109	82.638794
136.646277	5910.841667	1510.355469	-56.187862
136.646277	5910.841667	1509.297852	-11.900394
136.646277	5910.841667	1508.240234	7.518779
136.646277	5910.841667	1507.181641	58.560432
136.646277	5910.841667	1506.124023	14.725011
136.646277	5910.841667	1505.065430	29.622465
136.646277	5910.841667	1504.006836	55.806740
136.646277	5910.841667	1502.948242	-35.393051
136.646277	5910.841667	1501.888672	105.898651
136.646277	5910.841667	1500.830078	26.015026
136.646277	5910.841667	1499.770508	56.706680
136.646277	5910.841667	1498.710938	17.470652
136.646277	5910.841667	1497.650391	-1.450787
136.646277	5910.841667	1496.590820	-20.360241
136.646277	5910.841667	1495.530273	-12.208966
136.646277	5910.841667	1494.469727	-55.891060
136.646277	5910.841667	1493.409180	17.615961
136.646277	5910.841667	1492.348633	19.009375
136.646277	5910.841667	1491.287109	29.415028
136.646277	5910.841667	1490.225586	-7.468421
136.646277	5910.841667	1489.164063	56.981606
136.646277	5910.841667	1488.102539	20.115705
136.646277	5910.841667	1487.041016	39.532288
136.646277	5910.841667	1485.978516	-33.308552
136.646277	5910.841667	1484.916016	67.106270
136.646277	5910.841667	1483.853516	50.527756
136.646277	5910.841667	1482.791016	9.223246
136.646277	5910.841667	1481.727539	66.864769
136.646277	5910.841667	1480.664063	25.583075
136.646277	5910.841667	1479.600586	24.781984
136.646277	5910.841667	1478.537109	-27.698151
136.646277	5910.841667	1477.473633	-53.194721
136.646277	5910.841667	1476.409180	-6.809367
136.646277	5910.841667	1475.344727	-56.983620
136.646277	5910.841667	1474.280273	72.433411
136.646277	5910.841667	1473.215820	116.517906
136.646277	5910.841667	1472.151367	-18.880018
136.646277	5910.841667	1471.085938	14.003747
136.646277	5910.841667	1470.020508	15.467872
136.646277	5910.841667	1468.955078	1.254800
136.646277	5910.841667	1467.888672	-6.204109
136.646277	5910.841667	1466.823242	107.363724
136.646277	5910.841667	1465.756836	23.777800
136.646277	5910.841667	1464.690430	146.056244
136.646277	5910.841667	1463.624023	55.796474
136.646277	5910.841667	1462.556641	84.134712
136.646277	5910.841667	1461.490234	-10.448740
136.646277	5910.841667	1460.422852	73.778000
136.646277	5910.841667	1459.355469	10.566446
136.646277	5910.841667	1458.287109	-17.069248
136.646277	5910.841667	1457.219727	17.822863
136.646277	5910.841667	1456.151367	88.863625
136.646277	5910.841667	1455.083008	52.074043
136.646277	5910.841667	1454.014648	96.581337
136.646277	5910.841667	1452.945313	-62.604462
136.646277	5910.841667	1451.876953	77.003937
136.646277	5910.841667	1450.807617	-25.931074
136.646277	5910.841667	1449.738281	24.575369
136.646277	5910.841667	1448.668945	77.292068
136.646277	5910.841667	1447.598633	-32.739418
136.646277	5910.841667	1446.528320	57.810715
136.646277	5910.841667	1445.458008	54.805275
136.646277	5910.841667	1444.387695	85.687874
136.646277	5910.841667	1443.317383	2.241723
136.646277	5910.841667	1442.246094	10.851408
136.646277	5910.841667	1441.174805	131.503708
136.646277	5910.841667	1440.103516	-14.451526
136.646277	5910.841667	1439.032227	-10.608759
136.646277	5910.841667	1437.960938	-17.700167
136.646277	5910.841667	1436.888672	25.879566
136.646277	5910.841667	1435.816406	-13.332764
136.646277	5910.841667	1434.744141	-21.102530
136.646277	5910.841667	1433.670898	12.976621
136.646277	5910.841667	1432.598633	76.188927
136.646277	5910.841667	1431.525391	127.971359
136.646277	5910.841667	1430.452148	53.605812
136.646277	5910.841667	1429.378906	19.596684
136.646277	5910.841667	1428.304688	-10.186762
136.646277	5910.841667	1427.231445	30.329948
136.646277	5910.841667	1426.157227	18.202488
136.646277	5910.841667	1425.083008	56.993969
136.646277	5910.841667	1424.007813	24.687939
136.646277	5910.841667	1422.933594	29.116396
136.646277	5910.841667	1421.858398	94.433922
136.646277	5910.841667	1420.783203	107.481209
136.646277	5910.841667	1419.708008	71.511673
136.646277	5910.841667	1418.631836	9.269131
136.646277	5910.841667	1417.555664	-18.886707
136.646277	5910.841667	1416.479492	60.453831
136.646277	5910.841667	1415.403320	-39.256130
136.646277	5910.841667	1414.327148	72.805916
136.646277	5910.841667	1413.250000	84.212433
136.646277	5910.841667	1412.173828	-13.725679
136.646277	5910.841667	1411.096680	-12.139627
136.646277	5910.841667	1410.018555	-65.699318
136.646277	5910.841667	1408.941406	1.149536
136.646277	5910.841667	1407.863281	-14.879037
136.646277	5910.841667	1406.785156	-6.151694
136.646277	5910.841667	1405.707031	61.678486
136.646277	5910.841667	1404.628906	-69.729317
136.646277	5910.841667	1403.549805	15.974980
136.646277	5910.841667	1402.470703	-9.440292
136.646277	5910.841667	1401.391602	-13.341105
136.646277	5910.841667	1400.312500	63.071125
136.646277	5910.841667	1399.233398	25.850344
136.646277	5910.841667	1398.153320	-10.040051
136.646277	5910.841667	1397.073242	-71.925270
136.646277	5910.841667	1395.993164	28.653673
136.646277	5910.841667	1394.913086	-30.104500
136.646277	5910.841667	1393.832031	20.177927
136.646277	5910.841667	1392.750977	-42.398975
136.646277	5910.841667	1391.669922	39.576157
136.646277	5910.841667	1390.588867	11.893610
136.646277	5910.841667	1389.506836	-21.643105
136.646277	5910.841667	1388.425781	-12.287760
136.646277	5910.841667	1387.343750	-18.976770
136.646277	5910.841667	1386.261719	17.632574
136.646277	5910.841667	1385.178711	40.210018
136.646277	5910.841667	1384.096680	35.193645
136.646277	5910.841667	1383.013672	33.900494
136.646277	5910.841667	1381.930664	24.778236
136.646277	5910.841667	1380.846680	22.789358
136.646277	5910.841667	1379.763672	74.515457
136.646277	5910.841667	1378.679688	-2.684153
136.646277	5910.841667	1377.595703	-31.862066
136.646277	5910.841667	1376.511719	53.584003
136.646277	5910.841667	1375.427734	26.179436
136.646277	5910.841667	1374.342773	18.541286
136.646277	5910.841667	1373.257813	72.005859
136.646277	5910.841667	1372.172852	-10.412703
136.646277	5910.841667	1371.087891	27.066359
136.646277	5910.841667	1370.001953	1.322808
136.646277	5910.841667	1368.916992	113.294098
136.646277	5910.841667	1367.831055	106.944130
136.646277	5910.841667	1366.744141	18.184286
136.646277	5910.841667	1365.658203	-50.496994
136.646277	5910.841667	1364.571289	-5.067415
136.646277	5910.841667	1363.484375	47.683784
136.646277	5910.841667	1362.397461	-45.128658
136.646277	5910.841667	1361.310547	41.857296
136.646277	5910.841667	1360.222656	-29.440939
136.646277	5910.841667	1359.135742	124.411804
136.646277	5910.841667	1358.047852	88.589218
136.646277	5910.841667	1356.958984	-69.364754
136.646277	5910.841667	1355.871094	40.653980
136.646277	5910.841667	1354.782227	83.980026
136.646277	5910.841667	1353.693359	116.887589
136.646277	5910.841667	1352.604492	36.888615
136.646277	5910.841667	1351.515625	4.881767
136.646277	5910.841667	1350.425781	74.251526
136.646277	5910.841667	1349.335938	75.768417
136.646277	5910.841667	1348.246094	-32.136673
136.646277	5910.841667	1347.156250	-20.327044
136.646277	5910.841667	1346.066406	23.996847
136.646277	5910.841667	1344.975586	23.550316
136.646277	5910.841667	1343.884766	47.643894
136.646277	5910.841667	1342.793945	53.548561
136.646277	5910.841667	1341.702148	-35.910976
136.646277	5910.841667	1340.611328	37.126308
136.646277	5910.841667	1339.519531	-55.648891
136.646277	5910.841667	1338.427734	-112.670326
136.646277	5910.841667	1337.334961	-13.546011
136.646277	5910.841667	1336.243164	28.471642
136.646277	5910.841667	1335.150391	35.211174
136.646277	5910.841667	1334.057617	7.984059
136.646277	5910.841667	1332.964844	46.759998
136.646277	5910.841667	1331.871094	-13.545208
136.646277	5910.841667	1330.778320	35.061481
136.646277	5910.841667	1329.684570	73.541824
136.646277	5910.841667	1328.590820	-4.913342
136.646277	5910.841667	1327.496094	9.450917
136.646277	5910.841667	1326.402344	65.244789
136.646277	5910.841667	1325.307617	53.112926
136.646277	5910.841667	1324.212891	-28.724306
136.646277	5910.841667	1323.117188	1.059813
136.646277	5910.841667	1322.022461	47.583252
136.646277	5910.841667	1320.926758	32.223846
136.646277	5910.841667	1319.831055	13.698286
136.646277	5910.841667	1318.735352	6.246774
136.646277	5910.841667	1317.638672	27.492685
136.646277	5910.841667	1316.542969	36.208485
136.646277	5910.841667	1315.446289	-49.484299
136.646277	5910.841667	1314.349609	-53.648048
136.646277	5910.841667	1313.251953	-12.808558
136.646277	5910.841667	1312.155273	1.335423
136.646277	5910.841667	1311.057617	76.310966
136.646277	5910.841667	1309.959961	64.750496
136.646277	5910.841667	1308.862305	16.218433
136.646277	5910.841667	1307.763672	59.195114
136.646277	5910.841667	1306.665039	145.419144
136.646277	5910.841667	1305.566406	83.674919
136.646277	5910.841667	1304.467773	-7.058345
136.646277	5910.841667	1303.369141	9.842859
136.646277	5910.841667	1302.269531	76.843506
136.646277	5910.841667	1301.169922	31.585499
136.646277	5910.841667	1300.070313	11.757286
136.646277	5910.841667	1298.970703	-0.081838
136.646277	5910.841667	1297.870117	24.397615
136.646277	5910.841667	1296.769531	55.573864
136.646277	5910.841667	1295.668945	-14.057030
136.646277	5910.841667	1294.568359	107.387962
136.646277	5910.841667	1293.466797	79.605522
136.646277	5910.841667	1292.366211	6.886505
136.646277	5910.841667	1291.264648	77.826965
136.646277	5910.841667	1290.162109	64.260376
136.646277	5910.841667	1289.060547	64.814972
136.646277	5910.841667	1287.958008	71.540680
136.646277	5910.841667	1286.855469	-45.319817
136.646277	5910.841667	1285.752930	-7.797065
136.646277	5910.841667	1284.650391	9.473646
136.646277	5910.841667	1283.546875	-16.420097
136.646277	5910.841667	1282.444336	32.104733
136.646277	5910.841667	1281.339844	12.994563
136.646277	5910.841667	1280.236328	83.546310
136.646277	5910.841667	1279.132813	10.469377
136.646277	5910.841667	1278.028320	62.923637
136.646277	5910.841667	1276.923828	56.192520
136.646277	5910.841667	1275.819336	111.093613
136.646277	5910.841667	1274.713867	120.124191
136.646277	5910.841667	1273.608398	-43.937206
136.646277	5910.841667	1272.503906	55.498245
136.646277	5910.841667	1271.397461	23.111677
136.646277	5910.841667	1270.291992	82.549034
136.646277	5910.841667	1269.185547	25.540270
136.646277	5910.841667	1268.080078	30.915169
136.646277	5910.841667	1266.972656	21.263088
136.646277	5910.841667	1265.866211	18.681114
136.646277	5910.841667	1264.759766	9.168007
136.646277	5910.841667	1263.652344	52.465202
136.646277	5910.841667	1262.544922	78.480850
136.646277	5910.841667	1261.436523	61.193214
136.646277	5910.841667	1260.329102	17.095118
136.646277	5910.841667	1259.220703	54.129940
136.646277	5910.841667	1258.112305	-17.951406
136.646277	5910.841667	1257.003906	-3.138466
136.646277	5910.841667	1255.895508	-12.144655
136.646277	5910.841667	1254.786133	19.290041
136.646277	5910.841667	1253.676758	2.530046
136.646277	5910.841667	1252.567383	-24.477415
136.646277	5910.841667	1251.458008	-35.612019
136.646277	5910.841667	1250.347656	41.233910
136.646277	5910.841667	1249.237305	-17.919693
136.646277	5910.841667	1248.126953	-5.707880
136.646277	5910.841667	1247.016602	14.444992
136.646277	5910.841667	1245.905273	16.076544
136.646277	5910.841667	1244.793945	46.169586
136.646277	5910.841667	1243.682617	2.550251
136.646277	5910.841667	1242.571289	4.553460
136.646277	5910.841667	1241.459961	12.243135
136.646277	5910.841667	1240.347656	-28.005447
136.646277	5910.841667	1239.235352	69.541000
136.646277	5910.841667	1238.123047	0.327996
136.646277	5910.841667	1237.009766	11.290145
136.646277	5910.841667	1235.897461	91.460945
136.646277	5910.841667	1234.784180	-17.385559
136.646277	5910.841667	1233.670898	65.105240
136.646277	5910.841667	1232.556641	24.041063
136.646277	5910.841667	1231.443359	3.672674
136.646277	5910.841667	1230.329102	1.420608
136.646277	5910.841667	1229.214844	64.203201
136.646277	5910.841667	1228.099609	67.126694
136.646277	5910.841667	1226.985352	-7.172886
136.646277	5910.841667	1225.870117	6.609761
136.646277	5910.841667	1224.754883	29.158104
136.646277	5910.841667	1223.639648	70.080742
136.646277	5910.841667	1222.523438	30.458540
136.646277	5910.841667	1221.408203	47.693367
136.646277	5910.841667	1220.291992	9.086151
136.646277	5910.841667	1219.174805	67.297989
136.646277	5910.841667	1218.058594	-22.445280
136.646277	5910.841667	1216.941406	49.811329
136.646277	5910.841667	1215.824219	43.533257
136.646277	5910.841667	1214.707031	70.560059
136.646277	5910.841667	1213.589844	31.737635
136.646277	5910.841667	1212.471680	34.381973
136.646277	5910.841667	1211.353516	1.383554
136.646277	5910.841667	1210.235352	-26.939186
136.646277	5910.841667	1209.117188	-5.644517
136.646277	5910.841667	1207.998047	62.443287
136.646277	5910.841667	1206.878906	12.187973
136.646277	5910.841667	1205.759766	78.473526
136.646277	5910.841667	1204.640625	61.010849
136.646277	5910.841667	1203.520508	95.900589
136.646277	5910.841667	1202.401367	21.208168
136.646277	5910.841667	1201.281250	0.159831
136.646277	5910.841667	1200.160156	-0.393385
136.646277	5910.841667	1199.040039	-21.757532
136.646277	5910.841667	1197.918945	57.606762
136.646277	5910.841667	1196.797852	51.714352
136.646277	5910.841667	1195.676758	18.623426
136.646277	5910.841667	1194.555664	8.189658
136.646277	5910.841667	1193.433594	39.026402
136.646277	5910.841667	1192.311523	41.450642
136.646277	5910.841667	1191.189453	13.143973
136.646277	5910.841667	1190.066406	32.882111
136.646277	5910.841667	1188.944336	39.398663
136.646277	5910.841667	1187.821289	69.979233
136.646277	5910.841667	1186.698242	2.687368
136.646277	5910.841667	1185.574219	-14.526039
136.646277	5910.841667	1184.451172	-3.883064
136.646277	5910.841667	1183.327148	13.196196
136.646277	5910.841667	1182.203125	-62.182339
136.646277	5910.841667	1181.078125	-25.072056
136.646277	5910.841667	1179.954102	-9.855552
136.646277	5910.841667	1178.829102	40.969563
136.646277	5910.841667	1177.704102	-4.947337
136.646277	5910.841667	1176.579102	5.675332
136.646277	5910.841667	1175.453125	-62.494999
136.646277	5910.841667	1174.327148	-73.439560
136.646277	5910.841667	1173.201172	-38.540482
136.646277	5910.841667	1172.075195	32.639954
136.646277	5910.841667	1170.949219	49.485249
136.646277	5910.841667	1169.822266	29.335562
136.646277	5910.841667	1168.695313	-30.880911
136.646277	5910.841667	1167.568359	-36.295921
136.646277	5910.841667	1166.440430	-33.584084
136.646277	5910.841667	1165.313477	-8.475389
136.646277	5910.841667	1164.185547	2.601021
136.646277	5910.841667	1163.057617	43.956158
136.646277	5910.841667	1161.928711	12.473022
136.646277	5910.841667	1160.800781	15.257321
136.646277	5910.841667	1159.671875	49.688141
136.646277	5910.841667	1158.541992	17.505428
136.646277	5910.841667	1157.413086	-35.688038
136.646277	5910.841667	1156.283203	-1.355582
136.646277	5910.841667	1155.154297	25.109116
136.646277	5910.841667	1154.023438	73.658356
136.646277	5910.841667	1152.893555	-0.934400
136.646277	5910.841667	1151.763672	-14.594625
136.646277	5910.841667	1150.632813	-64.765007
136.646277	5910.841667	1149.501953	13.789803
136.646277	5910.841667	1148.370117	-0.071502
136.646277	5910.841667	1147.239258	90.547333
136.646277	5910.841667	1146.107422	-33.943977
136.646277	5910.841667	1144.975586	-53.114300
136.646277	5910.841667	1143.843750	37.987507
136.646277	5910.841667	1142.710938	4.344902
136.646277	5910.841667	1141.578125	-6.376597
136.646277	5910.841667	1140.445313	-8.292867
136.646277	5910.841667	1139.312500	17.327019
136.646277	5910.841667	1138.178711	-14.128339
136.646277	5910.841667	1137.045898	-33.627529
136.646277	5910.841667	1135.912109	-4.548221
136.646277	5910.841667	1134.777344	-0.441229
136.646277	5910.841667	1133.643555	42.198250
136.646277	5910.841667	1132.508789	-32.460945
136.646277	5910.841667	1131.374023	59.477310
136.646277	5910.841667	1130.239258	53.806438
136.646277	5910.841667	1129.104492	13.444991
136.646277	5910.841667	1127.968750	-6.700614
136.646277	5910.841667	1126.833008	59.519539
136.646277	5910.841667	1125.697266	-15.440355
136.646277	5910.841667	1124.560547	54.991764
136.646277	5910.841667	1123.424805	-58.255924
136.646277	5910.841667	1122.288086	-19.750578
136.646277	5910.841667	1121.151367	20.772480
136.646277	5910.841667	1120.013672	-1.421336
136.646277	5910.841667	1118.876953	6.736057
136.646277	5910.841667	1117.739258	-1.263179
136.646277	5910.841667	1116.601563	25.879450
136.646277	5910.841667	1115.462891	6.119296
136.646277	5910.841667	1114.324219	15.213109
136.646277	5910.841667	1113.186523	1.291546
136.646277	5910.841667	1112.046875	6.128425
136.646277	5910.841667	1110.908203	-43.265579
136.646277	5910.841667	1109.769531	61.852123
136.646277	5910.841667	1108.629883	-14.586204
136.646277	5910.841667	1107.490234	73.094543
136.646277	5910.841667	1106.349609	80.330292
136.646277	5910.841667	1105.209961	26.163530
136.646277	5910.841667	1104.069336	37.084682
136.646277	5910.841667	1102.928711	84.241508
136.646277	5910.841667	1101.787109	94.564316
136.646277	5910.841667	1100.646484	124.202797
136.646277	5910.841667	1099.504883	54.346691
136.646277	5910.841667	1098.363281	67.990570
136.646277	5910.841667	1097.221680	73.015022
136.646277	5910.841667	1096.079102	117.756248
136.646277	5910.841667	1094.936523	100.085518
136.646277	5910.841667	1093.793945	144.372467
136.646277	5910.841667	1092.651367	61.157082
136.646277	5910.841667	1091.507813	49.399590
136.646277	5910.841667	1090.364258	35.839195
136.646277	5910.841667	1089.220703	86.148499
136.646277	5910.841667	1088.077148	69.351158
136.646277	5910.841667	1086.933594	115.537483
136.646277	5910.841667	1085.789063	13.486157
136.646277	5910.841667	1084.644531	18.126713
136.646277	5910.841667	1083.499023	82.942169
136.646277	5910.841667	1082.354492	17.557993
136.646277	5910.841667	1081.208984	67.949631
136.646277	5910.841667	1080.063477	49.356331
136.646277	5910.841667	1078.917969	102.325195
136.646277	5910.841667	1077.771484	-19.245131
136.646277	5910.841667	1076.625977	35.741444
136.646277	5910.841667	1075.479492	32.163166
136.646277	5910.841667	1074.332031	33.851925
136.646277	5910.841667	1073.185547	35.014656
136.646277	5910.841667	1072.038086	4.907043
136.646277	5910.841667	1070.890625	59.739296
136.646277	5910.841667	1069.743164	41.346733
136.646277	5910.841667	1068.594727	74.876526
136.646277	5910.841667	1067.447266	-8.491222
136.646277	5910.841667	1066.298828	-3.425410
136.646277	5910.841667	1065.149414	3.030610
136.646277	5910.841667	1064.000977	12.267286
136.646277	5910.841667	1062.851563	57.369488
136.646277	5910.841667	1061.702148	-16.551794
136.646277	5910.841667	1060.552734	10.057145
136.646277	5910.841667	1059.402344	26.217974
136.646277	5910.841667	1058.252930	35.330441
136.646277	5910.841667	1057.102539	-54.505222
136.646277	5910.841667	1055.951172	81.478302
136.646277	5910.841667	1054.800781	56.410645
136.646277	5910.841667	1053.649414	88.343307
136.646277	5910.841667	1052.498047	91.023170
136.646277	5910.841667	1051.346680	37.926430
136.646277	5910.841667	1050.194336	40.440334
136.646277	5910.841667	1049.042969	-28.219280
136.646277	5910.841667	1047.890625	-42.426098
136.646277	5910.841667	1046.738281	20.435423
136.646277	5910.841667	1045.584961	67.118378
136.646277	5910.841667	1044.431641	21.780178
136.646277	5910.841667	1043.278320	-79.536194
136.646277	5910.841667	1042.125000	85.760429
136.646277	5910.841667	1040.971680	-0.024519
136.646277	5910.841667	1039.817383	6.401823
136.646277	5910.841667	1038.663086	-0.393313
136.646277	5910.841667	1037.508789	-45.895645
136.646277	5910.841667	1036.353516	-47.008842
136.646277	5910.841667	1035.198242	-2.858051
136.646277	5910.841667	1034.042969	26.106781
136.646277	5910.841667	1032.887695	9.320100
136.646277	5910.841667	1031.732422	-41.233349
136.646277	5910.841667	1030.576172	120.067902
136.646277	5910.841667	1029.419922	-19.634319
136.646277	5910.841667	1028.263672	-52.890533
136.646277	5910.841667	1027.106445	47.387749
136.646277	5910.841667	1025.949219	27.528784
136.646277	5910.841667	1024.792969	80.095322
136.646277	5910.841667	1023.634766	-19.032402
136.646277	5910.841667	1022.477539	2.277348
136.646277	5910.841667	1021.319336	65.853416
136.646277	5910.841667	1020.161133	17.005989
136.646277	5910.841667	1019.002930	41.067116
136.646277	5910.841667	1017.843750	17.417383
136.646277	5910.841667	1016.684570	37.118713
136.646277	5910.841667	1015.525391	-30.111240
136.646277	5910.841667	1014.366211	-11.687387
136.646277	5910.841667	1013.207031	-78.847511
136.646277	5910.841667	1012.046875	54.498932
136.646277	5910.841667	1010.886719	50.166195
136.646277	5910.841667	1009.726563	-71.876602
136.646277	5910.841667	1008.565430	52.517723
136.646277	5910.841667	1007.404297	1.087868
136.646277	5910.841667	1006.243164	87.932838
136.646277	5910.841667	1005.082031	-57.258755
136.646277	5910.841667	1003.920898	27.648228
136.646277	5910.841667	1002.758789	-70.792061
136.646277	5910.841667	1001.596680	58.870636
136.646277	5910.841667	1000.433594	5.932779
136.646277	5910.841667	999.271484	49.826996
136.646277	5910.841667	998.108398	82.768379
136.646277	5910.841667	996.945313	-51.489948
136.646277	5910.841667	995.782227	50.458649
136.646277	5910.841667	994.618164	49.630581
136.646277	5910.841667	993.454102	74.861511
136.646277	5910.841667	992.290039	34.005932
136.646277	5910.841667	991.125977	2.858057
136.646277	5910.841667	989.960938	-34.381992
136.646277	5910.841667	988.796875	15.500803
136.646277	5910.841667	987.630859	-6.893090
136.646277	5910.841667	986.465820	-9.881635
136.646277	5910.841667	985.300781	-23.437805
136.646277	5910.841667	984.134766	51.876915
136.646277	5910.841667	982.968750	-22.535263
136.646277	5910.841667	981.801758	-17.132315
136.646277	5910.841667	980.635742	-10.371422
136.646277	5910.841667	979.468750	17.508457
136.646277	5910.841667	978.301758	-34.771976
136.646277	5910.841667	977.133789	77.588448
136.646277	5910.841667	975.966797	52.525517
136.646277	5910.841667	974.798828	46.712852
136.646277	5910.841667	973.630859	-1.175230
136.646277	5910.841667	972.461914	106.767792
136.646277	5910.841667	971.293945	32.807423
136.646277	5910.841667	970.125000	26.052700
136.646277	5910.841667	968.956055	-43.922146
136.646277	5910.841667	967.786133	-30.100138
136.646277	5910.841667	966.617188	0.848957
136.646277	5910.841667	965.447266	83.852020
136.646277	5910.841667	964.276367	18.909431
136.646277	5910.841667	963.106445	69.550896
136.646277	5910.841667	961.935547	50.826206
136.646277	5910.841667	960.764648	20.693039
136.646277	5910.841667	959.593750	6.796067
136.646277	5910.841667	958.422852	10.862847
136.646277	5910.841667	957.250977	45.196354
136.646277	5910.841667	956.079102	16.729977
136.646277	5910.841667	954.907227	86.811272
136.646277	5910.841667	953.734375	-62.045010
136.646277	5910.841667	952.562500	-20.479767
136.646277	5910.841667	951.389648	58.355946
136.646277	5910.841667	950.215820	83.411491
136.646277	5910.841667	949.042969	34.536324
136.646277	5910.841667	947.869141	-37.332115
136.646277	5910.841667	946.695313	41.423546
136.646277	5910.841667	945.521484	110.909157
136.646277	5910.841667	944.346680	-2.982964
136.646277	5910.841667	943.172852	47.994602
136.646277	5910.841667	941.998047	75.650620
136.646277	5910.841667	940.822266	38.241333
136.646277	5910.841667	939.647461	17.146744
136.646277	5910.841667	938.471680	-20.144337
136.646277	5910.841667	937.295898	49.232666
136.646277	5910.841667	936.119141	9.655887
136.646277	5910.841667	934.943359	14.112521
136.646277	5910.841667	933.766602	30.215879
136.646277	5910.841667	932.589844	30.002901
136.646277	5910.841667	931.413086	115.631691
136.646277	5910.841667	930.235352	80.678749
136.646277	5910.841667	929.057617	92.053574
136.646277	5910.841667	927.879883	40.832966
136.646277	5910.841667	926.702148	22.107899
136.646277	5910.841667	925.523438	-8.219826
136.646277	5910.841667	924.344727	10.136500
136.646277	5910.841667	923.166016	63.230370
136.646277	5910.841667	921.987305	21.325714
136.646277	5910.841667	920.807617	2.598749
136.646277	5910.841667	919.627930	2.798107
136.646277	5910.841667	919.497070	27.897057
136.646277	5910.841667	918.331055	25.376482
136.646277	5910.841667	917.165039	39.058315
136.646277	5910.841667	915.999023	-32.895683
136.646277	5910.841667	914.833008	1.613262
136.646277	5910.841667	913.666016	22.226688
136.646277	5910.841667	912.499023	-1.114629
136.646277	5910.841667	911.332031	-31.385401
136.646277	5910.841667	910.165039	21.584192
136.646277	5910.841667	908.997070	56.039074
136.646277	5910.841667	907.830078	7.282301
136.646277	5910.841667	906.661133	101.796524
136.646277	5910.841667	905.493164	-60.145252
136.646277	5910.841667	904.325195	57.436756
136.646277	5910.841667	903.156250	20.258900
136.646277	5910.841667	901.987305	33.884892
136.646277	5910.841667	900.818359	42.887383
136.646277	5910.841667	899.648438	14.961724
136.646277	5910.841667	898.478516	26.268801
136.646277	5910.841667	897.308594	60.637489
136.646277	5910.841667	896.138672	-18.017523
136.646277	5910.841667	894.968750	41.707226
136.646277	5910.841667	893.797852	-71.494743
136.646277	5910.841667	892.626953	-53.273834
136.646277	5910.841667	891.456055	15.635115
136.646277	5910.841667	890.284180	84.514847
136.646277	5910.841667	889.113281	47.405396
136.646277	5910.841667	887.941406	28.733919
136.646277	5910.841667	886.768555	44.606758
136.646277	5910.841667	885.596680	5.222271
136.646277	5910.841667	884.423828	48.709888
136.646277	5910.841667	883.250977	85.275177
136.646277	5910.841667	882.078125	59.706738
136.646277	5910.841667	880.905273	-46.358704
136.646277	5910.841667	879.731445	52.292007
136.646277	5910.841667	878.557617	47.435493
136.646277	5910.841667	877.383789	24.189686
136.646277	5910.841667	876.209961	-8.240932
136.646277	5910.841667	875.035156	39.764503
136.646277	5910.841667	873.860352	57.883492
136.646277	5910.841667	872.685547	7.087364
136.646277	5910.841667	871.510742	16.017611
136.646277	5910.841667	870.334961	22.647387
136.646277	5910.841667	869.159180	22.386860
136.646277	5910.841667	867.983398	-0.824748
136.646277	5910.841667	866.807617	58.575321
136.646277	5910.841667	865.630859	-15.105679
136.646277	5910.841667	864.454102	37.390202
136.646277	5910.841667	863.277344	-6.447764
136.646277	5910.841667	862.100586	55.193298
136.646277	5910.841667	860.922852	-4.677583
136.646277	5910.841667	859.745117	-32.440998
136.646277	5910.841667	858.567383	-5.204119
136.646277	5910.841667	857.389648	-60.447403
136.646277	5910.841667	856.210938	40.071819
136.646277	5910.841667	855.032227	67.274101
136.646277	5910.841667	853.853516	25.783228
136.646277	5910.841667	852.674805	27.797453
136.646277	5910.841667	851.495117	9.214226
136.646277	5910.841667	850.315430	-0.210573
136.646277	5910.841667	849.135742	-14.207526
136.646277	5910.841667	847.956055	31.262800
136.646277	5910.841667	846.775391	-14.748216
136.646277	5910.841667	845.595703	96.997627
136.646277	5910.841667	844.415039	32.705254
136.646277	5910.841667	843.233398	-13.280366
136.646277	5910.841667	842.052734	13.861005
136.646277	5910.841667	840.871094	9.011774
136.646277	5910.841667	839.689453	-25.524935
136.646277	5910.841667	838.506836	79.230225
136.646277	5910.841667	837.325195	42.408661
136.646277	5910.841667	836.142578	-8.092346
136.646277	5910.841667	834.959961	37.263855
136.646277	5910.841667	833.777344	-36.031036
136.646277	5910.841667	832.593750	73.175789
136.646277	5910.841667	831.410156	9.023631
136.646277	5910.841667	830.226563	31.535690
136.646277	5910.841667	829.042969	65.434982
136.646277	5910.841667	827.858398	119.830864
136.646277	5910.841667	826.673828	119.517776
136.646277	5910.841667	825.489258	-28.871574
136.646277	5910.841667	824.304688	73.337120
136.646277	5910.841667	823.120117	77.585373
136.646277	5910.841667	821.934570	40.850830
136.646277	5910.841667	820.749023	-30.012737
136.646277	5910.841667	819.562500	-32.575676
136.646277	5910.841667	818.376953	-44.239651
136.646277	5910.841667	817.190430	-28.602278
136.646277	5910.841667	816.003906	39.337330
136.646277	5910.841667	814.817383	-36.005184
136.646277	5910.841667	813.629883	63.733536
136.646277	5910.841667	812.442383	15.690119
136.646277	5910.841667	811.254883	-16.427191
136.646277	5910.841667	810.067383	-71.252190
136.646277	5910.841667	808.878906	21.592875
136.646277	5910.841667	807.690430	-26.406122
136.646277	5910.841667	806.501953	-15.351362
136.646277	5910.841667	805.313477	-24.733213
136.646277	5910.841667	804.124023	11.280545
136.646277	5910.841667	802.934570	-9.450801
136.646277	5910.841667	801.745117	-23.368547
136.646277	5910.841667	800.555664	-7.794729
136.646277	5910.841667	799.365234	37.252407
136.646277	5910.841667	798.175781	-44.688358
136.646277	5910.841667	796.985352	-8.721755
136.646277	5910.841667	795.793945	24.962507
136.646277	5910.841667	794.603516	20.111586
136.646277	5910.841667	793.412109	-52.700665
136.646277	5910.841667	792.220703	51.181435
136.646277	5910.841667	791.028320	55.382446
136.646277	5910.841667	789.836914	9.772578
136.646277	5910.841667	788.644531	7.187399
136.646277	5910.841667	787.452148	95.124504
136.646277	5910.841667	786.258789	-50.022991
136.646277	5910.841667	785.066406	10.741467
136.646277	5910.841667	783.873047	12.676412
136.646277	5910.841667	782.679688	37.221092
136.646277	5910.841667	781.485352	111.489929
136.646277	5910.841667	780.291992	-22.216072
136.646277	5910.841667	779.097656	27.173992
136.646277	5910.841667	777.903320	-25.126707
136.646277	5910.841667	776.708008	-36.748013
136.646277	5910.841667	775.512695	-9.973698
136.646277	5910.841667	774.318359	48.398556
136.646277	5910.841667	773.122070	-10.641245
136.646277	5910.841667	771.926758	47.703957
136.646277	5910.841667	770.730469	15.763591
136.646277	5910.841667	769.534180	37.979473
136.646277	5910.841667	768.337891	37.628925
136.646277	5910.841667	767.141602	75.613411
136.646277	5910.841667	765.944336	79.761200
136.646277	5910.841667	764.747070	9.518630
136.646277	5910.841667	763.549805	101.568535
136.646277	5910.841667	762.351563	112.462822
136.646277	5910.841667	761.154297	15.219065
136.646277	5910.841667	759.956055	77.925461
136.646277	5910.841667	758.757813	66.294472
136.646277	5910.841667	757.558594	34.404350
136.646277	5910.841667	756.359375	-26.735573
136.646277	5910.841667	755.160156	58.423870
136.646277	5910.841667	753.960938	42.299160
136.646277	5910.841667	752.761719	77.916634
136.646277	5910.841667	751.561523	-21.422079
136.646277	5910.841667	750.361328	-3.798208
136.646277	5910.841667	749.160156	92.497955
136.646277	5910.841667	747.959961	35.916290
136.646277	5910.841667	746.758789	93.958885
136.646277	5910.841667	745.557617	14.929755
136.646277	5910.841667	744.356445	54.978783
136.646277	5910.841667	743.154297	50.094601
136.646277	5910.841667	741.952148	105.831841
136.646277	5910.841667	740.750000	67.263115
136.646277	5910.841667	739.547852	-4.956468
136.646277	5910.841667	738.344727	14.848981
136.646277	5910.841667	737.142578	16.696863
136.646277	5910.841667	735.939453	-35.287956
136.646277	5910.841667	734.735352	105.595413
136.646277	5910.841667	733.532227	73.786385
136.646277	5910.841667	732.328125	59.920181
136.646277	5910.841667	731.124023	59.503242
136.646277	5910.841667	729.918945	-61.905998
136.646277	5910.841667	728.714844	-37.661449
136.646277	5910.841667	727.509766	64.956825
136.646277	5910.841667	726.303711	73.485275
136.646277	5910.841667	725.098633	23.801697
136.646277	5910.841667	723.892578	-12.434537
136.646277	5910.841667	722.686523	31.900452
136.646277	5910.841667	721.480469	94.112053
136.646277	5910.841667	720.274414	113.795563
136.646277	5910.841667	719.067383	17.178352
136.646277	5910.841667	717.860352	-45.863377
136.646277	5910.841667	716.653320	-104.410828
136.646277	5910.841667	715.445313	4.683146
136.646277	5910.841667	714.238281	8.708735
136.646277	5910.841667	713.030273	32.835400
136.646277	5910.841667	711.821289	14.511714
136.646277	5910.841667	710.613281	-17.205648
136.646277	5910.841667	709.404297	2.436627
136.646277	5910.841667	708.195313	33.228214
136.646277	5910.841667	706.986328	55.076923
136.646277	5910.841667	705.776367	32.289310
136.646277	5910.841667	704.566406	11.738806
136.646277	5910.841667	703.356445	-46.720745
136.646277	5910.841667	702.146484	-9.278454
136.646277	5910.841667	700.935547	1.392977
136.646277	5910.841667	699.724609	5.369869
136.646277	5910.841667	698.513672	96.248383
136.646277	5910.841667	697.302734	22.219769
136.646277	5910.841667	696.090820	-60.691044
136.646277	5910.841667	694.878906	67.992058
136.646277	5910.841667	693.666992	-37.165901
136.646277	5910.841667	692.455078	-2.042746
136.646277	5910.841667	691.242188	57.543293
136.646277	5910.841667	690.029297	8.070412
136.646277	5910.841667	688.816406	-1.341906
136.646277	5910.841667	687.602539	22.608345
136.646277	5910.841667	686.389648	35.426319
136.646277	5910.841667	685.175781	28.226068
136.646277	5910.841667	683.960938	29.915760
136.646277	5910.841667	682.747070	9.378132
136.646277	5910.841667	681.532227	35.503586
136.646277	5910.841667	680.317383	-13.912274
136.646277	5910.841667	679.102539	-5.567956
136.646277	5910.841667	677.886719	2.768704
136.646277	5910.841667	676.670898	73.256729
136.646277	5910.841667	675.455078	83.784760
136.646277	5910.841667	674.239258	18.857550
136.646277	5910.841667	673.022461	4.980315
136.646277	5910.841667	671.805664	75.392174
136.646277	5910.841667	670.588867	12.712851
136.646277	5910.841667	669.372070	-18.903856
136.646277	5910.841667	668.154297	-48.294895
136.646277	5910.841667	666.936523	-22.272291
136.646277	5910.841667	665.718750	28.108404
136.646277	5910.841667	664.500977	3.143928
136.646277	5910.841667	663.282227	157.585815
136.646277	5910.841667	662.063477	19.664196
136.646277	5910.841667	660.844727	21.271009
136.646277	5910.841667	659.625000	-14.755290
136.646277	5910.841667	658.405273	6.765983
136.646277	5910.841667	657.185547	-60.225361
136.646277	5910.841667	655.965820	-5.532188
136.646277	5910.841667	654.745117	31.441143
136.646277	5910.841667	653.525391	-26.681614
136.646277	5910.841667	652.303711	39.009525
136.646277	5910.841667	651.083008	84.777534
136.646277	5910.841667	649.861328	28.876566
136.646277	5910.841667	648.640625	41.480450
136.646277	5910.841667	647.417969	-3.353044
136.646277	5910.841667	646.196289	2.618606
136.646277	5910.841667	644.973633	-81.937027
136.646277	5910.841667	643.750977	-45.057587
136.646277	5910.841667	642.528320	16.077484
136.646277	5910.841667	641.305664	4.370899
136.646277	5910.841667	640.082031	72.078552
136.646277	5910.841667	638.858398	20.657570
136.646277	5910.841667	637.634766	61.864178
136.646277	5910.841667	636.410156	69.980637
136.646277	5910.841667	635.185547	69.273048
136.646277	5910.841667	633.960938	13.471267
136.646277	5910.841667	632.736328	37.001709
136.646277	5910.841667	631.510742	-54.021233
136.646277	5910.841667	630.285156	-67.932877
136.646277	5910.841667	629.059570	-24.597713
136.646277	5910.841667	627.833984	58.337669
136.646277	5910.841667	626.607422	-28.228640
136.646277	5910.841667	625.380859	17.257694
136.646277	5910.841667	624.154297	78.119698
136.646277	5910.841667	622.927734	-28.203163
136.646277	5910.841667	621.700195	-72.915092
136.646277	5910.841667	620.472656	7.700612
136.646277	5910.841667	619.245117	72.891907
136.646277	5910.841667	618.016602	4.001209
136.646277	5910.841667	616.788086	-29.711185
136.646277	5910.841667	615.559570	33.237305
136.646277	5910.841667	614.331055	61.016876
136.646277	5910.841667	613.101563	5.344690
136.646277	5910.841667	611.872070	41.890862
136.646277	5910.841667	610.642578	128.896515
136.646277	5910.841667	609.413086	22.765265
136.646277	5910.841667	608.182617	37.334251
136.646277	5910.841667	606.952148	-16.100294
136.646277	5910.841667	605.721680	-3.729729
136.646277	5910.841667	604.491211	-28.639090
136.646277	5910.841667	603.259766	29.752056
136.646277	5910.841667	602.028320	15.795862
136.646277	5910.841667	600.796875	50.044262
136.646277	5910.841667	599.564453	51.416069
136.646277	5910.841667	598.332031	-58.910263
136.646277	5910.841667	597.099609	-4.972143
136.646277	5910.841667	595.867188	11.724136
136.646277	5910.841667	594.633789	10.900236
136.646277	5910.841667	593.400391	16.638083
136.646277	5910.841667	592.166992	31.121208
136.646277	5910.841667	590.933594	34.658642
136.646277	5910.841667	589.699219	81.927483
136.646277	5910.841667	588.464844	85.446083
136.646277	5910.841667	587.230469	60.543728
136.646277	5910.841667	585.995117	-14.615783
136.646277	5910.841667	584.760742	34.796547
136.646277	5910.841667	583.525391	-11.932650
136.646277	5910.841667	582.289063	6.875652
136.646277	5910.841667	581.053711	-11.446727
136.646277	5910.841667	579.817383	-23.214846
136.646277	5910.841667	578.581055	-28.432426
136.646277	5910.841667	577.343750	114.736443
136.646277	5910.841667	576.107422	44.036087
136.646277	5910.841667	574.870117	-22.273979
136.646277	5910.841667	573.631836	40.106869
136.646277	5910.841667	572.394531	63.213974
136.646277	5910.841667	571.156250	5.655244
136.646277	5910.841667	569.917969	15.679667
136.646277	5910.841667	568.679688	58.381699
136.646277	5910.841667	567.440430	118.491058
136.646277	5910.841667	566.202148	84.920799
136.646277	5910.841667	564.961914	18.700092
136.646277	5910.841667	563.722656	78.775192
136.646277	5910.841667	562.482422	-4.830952
136.646277	5910.841667	561.243164	35.636269
136.646277	5910.841667	560.001953	76.084572
136.646277	5910.841667	558.761719	16.456682
136.646277	5910.841667	557.520508	-4.001919
136.646277	5910.841667	556.279297	49.472065
136.646277	5910.841667	555.038086	20.318932
136.646277	5910.841667	553.795898	60.723618
136.646277	5910.841667	552.554688	48.962730
136.646277	5910.841667	551.311523	-6.241927
136.646277	5910.841667	550.069336	5.907125
136.646277	5910.841667	548.826172	117.937851
136.646277	5910.841667	547.583984	34.531635
136.646277	5910.841667	546.339844	-37.986671
136.646277	5910.841667	545.096680	26.241201
136.646277	5910.841667	543.852539	21.014465
136.646277	5910.841667	542.608398	61.342644
136.646277	5910.841667	541.364258	47.437538
136.646277	5910.841667	540.119141	37.875462
136.646277	5910.841667	538.875000	69.506020
136.646277	5910.841667	537.628906	55.610867
136.646277	5910.841667	536.383789	-12.447091
136.646277	5910.841667	535.137695	-0.319675
136.646277	5910.841667	533.892578	-14.185972
136.646277	5910.841667	532.645508	-4.225607
136.646277	5910.841667	531.399414	-54.885998
136.646277	5910.841667	530.152344	15.688749
136.646277	5910.841667	528.905273	47.282932
136.646277	5910.841667	527.658203	-31.475863
136.646277	5910.841667	526.410156	-30.164005
136.646277	5910.841667	525.163086	-39.662750
136.646277	5910.841667	523.914063	43.818169
136.646277	5910.841667	522.666016	1.887451
136.646277	5910.841667	521.416992	1.041158
136.646277	5910.841667	520.167969	17.484724
136.646277	5910.841667	518.918945	83.611969
136.646277	5910.841667	517.669922	-1.475400
136.646277	5910.841667	516.419922	10.649692
136.646277	5910.841667	515.169922	-18.246056
136.646277	5910.841667	513.919922	67.273048
136.646277	5910.841667	512.668945	6.015443
136.646277	5910.841667	511.417969	-1.273306
136.646277	5910.841667	510.166992	-2.083167
136.646277	5910.841667	508.916016	-50.333431
136.646277	5910.841667	507.664063	-1.532056
136.646277	5910.841667	506.412109	77.432724
136.646277	5910.841667	505.160156	74.470345
136.646277	5910.841667	503.907227	-72.854256
136.646277	5910.841667	502.655273	-8.989613
136.646277	5910.841667	501.402344	39.776028
136.646277	5910.841667	500.148438	75.605896
136.646277	5910.841667	498.895508	42.533501
136.646277	5910.841667	497.641602	5.176124
136.646277	5910.841667	496.387695	64.679665
136.646277	5910.841667	495.132813	18.739330
136.646277	5910.841667	493.878906	-25.023540
136.646277	5910.841667	492.624023	47.370190
136.646277	5910.841667	491.368164	83.187019
136.646277	5910.841667	490.113281	24.410194
136.646277	5910.841667	488.857422	32.290482
136.646277	5910.841667	487.601563	22.984348
136.646277	5910.841667	486.344727	-24.979729
136.646277	5910.841667	485.088867	23.735445
136.646277	5910.841667	483.832031	81.025932
136.646277	5910.841667	482.575195	9.486523
136.646277	5910.841667	481.317383	34.573799
136.646277	5910.841667	480.059570	-47.639679
136.646277	5910.841667	478.801758	63.284164
136.646277	5910.841667	477.543945	58.336266
136.646277	5910.841667	476.285156	42.675480
136.646277	5910.841667	475.027344	50.614712
136.646277	5910.841667	473.767578	-14.325663
136.646277	5910.841667	472.508789	30.072405
136.646277	5910.841667	471.249023	48.746807
136.646277	5910.841667	469.989258	-16.126595
136.646277	5910.841667	468.729492	-20.993420
136.646277	5910.841667	467.469727	-60.111191
136.646277	5910.841667	466.208984	33.530159
136.646277	5910.841667	464.948242	-37.671757
136.646277	5910.841667	463.686523	-18.956860
136.646277	5910.841667	462.425781	31.850838
136.646277	5910.841667	461.164063	16.335407
136.646277	5910.841667	459.901367	-7.719068
136.646277	5910.841667	458.639648	-78.792656
136.646277	5910.841667	457.376953	12.633172
136.646277	5910.841667	456.114258	16.404058
136.646277	5910.841667	454.851563	-18.278969
136.646277	5910.841667	453.587891	90.190102
136.646277	5910.841667	452.324219	42.708496
136.646277	5910.841667	451.060547	20.879805
136.646277	5910.841667	449.796875	31.091787
136.646277	5910.841667	448.532227	-5.649042
136.646277	5910.841667	447.267578	102.741982
136.646277	5910.841667	446.002930	48.950191
136.646277	5910.841667	444.737305	50.648232
136.646277	5910.841667	443.471680	35.293026
136.646277	5910.841667	442.206055	118.028740
136.646277	5910.841667	440.940430	-18.821875
136.646277	5910.841667	439.673828	14.888280
136.646277	5910.841667	438.407227	18.761202
136.646277	5910.841667	437.140625	-64.700226
136.646277	5910.841667	435.873047	-84.224892
136.646277	5910.841667	434.605469	-24.948900
136.646277	5910.841667	433.337891	55.596783
136.646277	5910.841667	432.070313	21.180243
136.646277	5910.841667	430.801758	-2.575273
136.646277	5910.841667	429.533203	-5.039586
136.646277	5910.841667	428.264648	7.392139
136.646277	5910.841667	426.996094	66.608170
136.646277	5910.841667	425.726563	21.625134
136.646277	5910.841667	424.457031	-33.961655
136.646277	5910.841667	423.186523	25.239771
136.646277	5910.841667	421.916992	54.673824
136.646277	5910.841667	420.646484	-36.983650
136.646277	5910.841667	419.375977	-9.665380
136.646277	5910.841667	418.104492	30.384310
136.646277	5910.841667	416.833008	-103.656395
136.646277	5910.841667	415.561523	25.542624
136.646277	5910.841667	414.290039	86.784859
136.646277	5910.841667	413.017578	67.384987
136.646277	5910.841667	411.746094	18.299810
136.646277	5910.841667	410.472656	-68.934013
136.646277	5910.841667	409.200195	2.878076
136.646277	5910.841667	407.926758	-41.922611
136.646277	5910.841667	406.653320	31.969364
136.646277	5910.841667	405.379883	6.246742
136.646277	5910.841667	404.105469	-17.349079
136.646277	5910.841667	402.831055	126.369102
136.646277	5910.841667	401.556641	66.754715
136.646277	5910.841667	400.282227	-1.306254
136.646277	5910.841667	399.006836	72.457878
136.646277	5910.841667	397.731445	-20.978317
136.646277	5910.841667	396.456055	37.935753
136.646277	5910.841667	395.179688	-2.591335
136.646277	5910.841667	393.903320	52.046890
136.646277	5910.841667	392.626953	55.912392
136.646277	5910.841667	391.350586	59.765350
136.646277	5910.841667	390.073242	42.472637
136.646277	5910.841667	388.795898	39.963989
136.646277	5910.841667	387.518555	143.057465
136.646277	5910.841667	386.240234	91.927071
136.646277	5910.841667	384.961914	68.250748
136.646277	5910.841667	383.683594	8.681775
136.646277	5910.841667	382.405273	29.318117
136.646277	5910.841667	381.125977	56.255806
136.646277	5910.841667	379.846680	13.545863
136.646277	5910.841667	378.567383	114.250359
136.646277	5910.841667	377.287109	35.654137
136.646277	5910.841667	376.006836	-45.040985
136.646277	5910.841667	374.726563	11.273947
136.646277	5910.841667	373.446289	38.034988
136.646277	5910.841667	372.165039	26.832750
136.646277	5910.841667	370.883789	127.240311
136.646277	5910.841667	369.602539	75.948593
136.646277	5910.841667	368.320313	-0.619834
136.646277	5910.841667	367.039063	51.211826
136.646277	5910.841667	365.755859	79.833336
136.646277	5910.841667	364.473633	85.258934
136.646277	5910.841667	363.190430	42.258484
136.646277	5910.841667	361.907227	11.852287
136.646277	5910.841667	360.624023	-18.585712
136.646277	5910.841667	359.340820	16.111099
136.646277	5910.841667	358.056641	25.522343
136.646277	5910.841667	356.772461	22.270538
136.646277	5910.841667	355.487305	29.470266
136.646277	5910.841667	354.202148	82.819687
136.646277	5910.841667	352.916992	-31.905600
136.646277	5910.841667	351.631836	36.012070
136.646277	5910.841667	350.346680	5.184356
136.646277	5910.841667	349.060547	-13.104396
136.646277	5910.841667	347.774414	-62.924290
136.646277	5910.841667	346.487305	-10.009521
136.646277	5910.841667	345.200195	0.865671
136.646277	5910.841667	343.913086	49.401245
136.646277	5910.841667	342.625977	5.602033
136.646277	5910.841667	341.338867	39.285172
136.646277	5910.841667	340.050781	7.912613
136.646277	5910.841667	338.762695	-2.584739
136.646277	5910.841667	337.473633	60.135769
136.646277	5910.841667	336.184570	99.701668
136.646277	5910.841667	334.895508	63.786922
136.646277	5910.841667	333.606445	54.997414
136.646277	5910.841667	332.317383	46.108395
136.646277	5910.841667	331.027344	-31.926430
136.646277	5910.841667	329.736328	13.370177
136.646277	5910.841667	328.446289	6.253747
136.646277	5910.841667	327.155273	17.837351
136.646277	5910.841667	325.864258	-64.770187
136.646277	5910.841667	324.573242	-30.435093
136.646277	5910.841667	323.281250	-23.409306
136.646277	5910.841667	321.989258	-37.409912
136.646277	5910.841667	320.697266	-53.630932
136.646277	5910.841667	319.405273	-36.578609
136.646277	5910.841667	318.112305	24.156078
136.646277	5910.841667	316.819336	78.451904
136.646277	5910.841667	315.526367	11.541226
136.646277	5910.841667	314.232422	-13.779389
136.646277	5910.841667	312.938477	42.090050
136.646277	5910.841667	311.644531	-27.352888
136.646277	5910.841667	310.349609	-42.738239
136.646277	5910.841667	309.054688	41.753647
136.646277	5910.841667	307.759766	-17.768650
136.646277	5910.841667	306.464844	93.389641
136.646277	5910.841667	305.168945	83.483597
136.646277	5910.841667	303.873047	29.646078
136.646277	5910.841667	302.577148	54.744862
136.646277	5910.841667	301.281250	129.579010
136.646277	5910.841667	299.984375	62.634911
