#X		#Y		#Wave		#Intensity
-174.257447	5489.728333	1999.946289	-226.657791
-174.257447	5489.728333	1998.981445	-45.417477
-174.257447	5489.728333	1998.017578	125.997025
-174.257447	5489.728333	1997.052734	56.634026
-174.257447	5489.728333	1996.088867	143.048721
-174.257447	5489.728333	1995.124023	18.550365
-174.257447	5489.728333	1994.159180	-130.984497
-174.257447	5489.728333	1993.193359	-107.425713
-174.257447	5489.728333	1992.228516	17.328711
-174.257447	5489.728333	1991.262695	102.147301
-174.257447	5489.728333	1990.296875	-83.109398
-174.257447	5489.728333	1989.331055	63.003716
-174.257447	5489.728333	1988.365234	-238.991272
-174.257447	5489.728333	1987.398438	3.048705
-174.257447	5489.728333	1986.432617	49.373531
-174.257447	5489.728333	1985.465820	33.630653
-174.257447	5489.728333	1984.499023	148.684219
-174.257447	5489.728333	1983.532227	216.506683
-174.257447	5489.728333	1982.565430	153.111359
-174.257447	5489.728333	1981.597656	25.291317
-174.257447	5489.728333	1980.629883	-8.813555
-174.257447	5489.728333	1979.662109	119.906281
-174.257447	5489.728333	1978.694336	-35.592121
-174.257447	5489.728333	1977.726563	181.592468
-174.257447	5489.728333	1976.758789	62.806450
-174.257447	5489.728333	1975.790039	121.592880
-174.257447	5489.728333	1974.821289	185.126129
-174.257447	5489.728333	1973.852539	53.576427
-174.257447	5489.728333	1972.883789	-38.611748
-174.257447	5489.728333	1971.915039	7.193447
-174.257447	5489.728333	1970.945313	3.526799
-174.257447	5489.728333	1969.975586	41.634129
-174.257447	5489.728333	1969.005859	222.555115
-174.257447	5489.728333	1968.036133	255.422058
-174.257447	5489.728333	1967.066406	137.859329
-174.257447	5489.728333	1966.096680	27.614244
-174.257447	5489.728333	1965.125977	77.393913
-174.257447	5489.728333	1964.155273	252.637573
-174.257447	5489.728333	1963.184570	36.247429
-174.257447	5489.728333	1962.213867	196.466415
-174.257447	5489.728333	1961.242188	-91.395699
-174.257447	5489.728333	1960.271484	263.002136
-174.257447	5489.728333	1959.299805	14.428028
-174.257447	5489.728333	1958.328125	218.464645
-174.257447	5489.728333	1957.356445	292.006714
-174.257447	5489.728333	1956.384766	198.246689
-174.257447	5489.728333	1955.412109	212.623123
-174.257447	5489.728333	1954.439453	384.239136
-174.257447	5489.728333	1953.467773	-147.110596
-174.257447	5489.728333	1952.495117	-100.916565
-174.257447	5489.728333	1951.521484	308.777649
-174.257447	5489.728333	1950.548828	-13.652363
-174.257447	5489.728333	1949.575195	101.098183
-174.257447	5489.728333	1948.601563	110.187851
-174.257447	5489.728333	1947.627930	195.330658
-174.257447	5489.728333	1946.654297	47.246391
-174.257447	5489.728333	1945.680664	-100.816910
-174.257447	5489.728333	1944.706055	111.787727
-174.257447	5489.728333	1943.732422	356.173096
-174.257447	5489.728333	1942.757813	-98.512390
-174.257447	5489.728333	1941.783203	96.728294
-174.257447	5489.728333	1940.807617	41.816139
-174.257447	5489.728333	1939.833008	-89.077614
-174.257447	5489.728333	1938.857422	199.118759
-174.257447	5489.728333	1937.881836	55.959705
-174.257447	5489.728333	1936.906250	125.968864
-174.257447	5489.728333	1935.930664	252.274307
-174.257447	5489.728333	1934.955078	243.838974
-174.257447	5489.728333	1933.978516	176.638901
-174.257447	5489.728333	1933.001953	-137.779617
-174.257447	5489.728333	1932.025391	-45.807335
-174.257447	5489.728333	1931.048828	-37.068516
-174.257447	5489.728333	1930.072266	-50.351540
-174.257447	5489.728333	1929.094727	-36.721748
-174.257447	5489.728333	1928.118164	-40.210754
-174.257447	5489.728333	1927.140625	110.349831
-174.257447	5489.728333	1926.163086	-100.956039
-174.257447	5489.728333	1925.184570	91.124413
-174.257447	5489.728333	1924.207031	-112.751259
-174.257447	5489.728333	1923.228516	-3.793763
-174.257447	5489.728333	1922.250000	139.334488
-174.257447	5489.728333	1921.271484	116.336716
-174.257447	5489.728333	1920.292969	-23.853407
-174.257447	5489.728333	1919.314453	-41.900921
-174.257447	5489.728333	1918.334961	-235.684204
-174.257447	5489.728333	1917.355469	14.812683
-174.257447	5489.728333	1916.375977	62.699947
-174.257447	5489.728333	1915.396484	-84.589035
-174.257447	5489.728333	1914.416992	-119.598473
-174.257447	5489.728333	1913.436523	-247.250839
-174.257447	5489.728333	1912.457031	0.668963
-174.257447	5489.728333	1911.476563	168.066193
-174.257447	5489.728333	1910.496094	203.801071
-174.257447	5489.728333	1909.515625	39.711941
-174.257447	5489.728333	1908.534180	126.667229
-174.257447	5489.728333	1907.552734	-125.000420
-174.257447	5489.728333	1906.572266	115.441910
-174.257447	5489.728333	1905.590820	27.071369
-174.257447	5489.728333	1904.608398	-41.766003
-174.257447	5489.728333	1903.626953	62.277878
-174.257447	5489.728333	1902.644531	-101.409264
-174.257447	5489.728333	1901.663086	-53.311543
-174.257447	5489.728333	1900.680664	-53.866409
-174.257447	5489.728333	1899.698242	-20.342304
-174.257447	5489.728333	1898.714844	193.157349
-174.257447	5489.728333	1897.732422	-125.896820
-174.257447	5489.728333	1896.749023	-250.324051
-174.257447	5489.728333	1895.765625	82.271057
-174.257447	5489.728333	1894.782227	154.741898
-174.257447	5489.728333	1893.798828	154.317871
-174.257447	5489.728333	1892.814453	-54.996113
-174.257447	5489.728333	1891.831055	87.965385
-174.257447	5489.728333	1890.846680	77.912560
-174.257447	5489.728333	1889.862305	-36.512470
-174.257447	5489.728333	1888.877930	162.266190
-174.257447	5489.728333	1887.892578	140.138229
-174.257447	5489.728333	1886.908203	-83.358253
-174.257447	5489.728333	1885.922852	273.077850
-174.257447	5489.728333	1884.937500	25.428268
-174.257447	5489.728333	1883.952148	144.089081
-174.257447	5489.728333	1882.965820	-52.483654
-174.257447	5489.728333	1881.980469	136.491989
-174.257447	5489.728333	1880.994141	-47.845879
-174.257447	5489.728333	1880.007813	-101.234505
-174.257447	5489.728333	1879.021484	121.623459
-174.257447	5489.728333	1878.035156	-137.645569
-174.257447	5489.728333	1877.047852	128.767029
-174.257447	5489.728333	1876.061523	126.310738
-174.257447	5489.728333	1875.074219	99.660942
-174.257447	5489.728333	1874.086914	114.187561
-174.257447	5489.728333	1873.098633	-4.383797
-174.257447	5489.728333	1872.111328	-79.340172
-174.257447	5489.728333	1871.123047	-101.031517
-174.257447	5489.728333	1870.135742	-171.076019
-174.257447	5489.728333	1869.147461	44.283825
-174.257447	5489.728333	1868.158203	22.621580
-174.257447	5489.728333	1867.169922	78.337502
-174.257447	5489.728333	1866.180664	-134.241547
-174.257447	5489.728333	1865.192383	-114.743706
-174.257447	5489.728333	1864.203125	-153.228806
-174.257447	5489.728333	1863.213867	-128.883850
-174.257447	5489.728333	1862.223633	165.957153
-174.257447	5489.728333	1861.234375	6.730418
-174.257447	5489.728333	1860.244141	-159.672699
-174.257447	5489.728333	1859.253906	93.994324
-174.257447	5489.728333	1858.263672	-31.325001
-174.257447	5489.728333	1857.273438	87.109749
-174.257447	5489.728333	1856.282227	-67.102821
-174.257447	5489.728333	1855.291992	111.600327
-174.257447	5489.728333	1854.300781	-3.969500
-174.257447	5489.728333	1853.309570	160.190948
-174.257447	5489.728333	1852.317383	-5.967170
-174.257447	5489.728333	1851.326172	-37.092804
-174.257447	5489.728333	1850.333984	-89.896133
-174.257447	5489.728333	1849.342773	213.890915
-174.257447	5489.728333	1848.350586	88.790543
-174.257447	5489.728333	1847.357422	339.437653
-174.257447	5489.728333	1846.365234	-31.256165
-174.257447	5489.728333	1845.372070	132.640488
-174.257447	5489.728333	1844.379883	195.375168
-174.257447	5489.728333	1843.386719	209.946625
-174.257447	5489.728333	1842.393555	-54.603844
-174.257447	5489.728333	1841.399414	97.114288
-174.257447	5489.728333	1840.406250	152.556641
-174.257447	5489.728333	1839.412109	152.658401
-174.257447	5489.728333	1838.417969	73.406235
-174.257447	5489.728333	1837.423828	49.459427
-174.257447	5489.728333	1836.429688	71.171600
-174.257447	5489.728333	1835.434570	66.429291
-174.257447	5489.728333	1834.440430	-80.072487
-174.257447	5489.728333	1833.445313	64.109138
-174.257447	5489.728333	1832.450195	-106.386749
-174.257447	5489.728333	1831.454102	56.920071
-174.257447	5489.728333	1830.458984	-58.331882
-174.257447	5489.728333	1829.462891	215.275711
-174.257447	5489.728333	1828.466797	138.392776
-174.257447	5489.728333	1827.470703	-63.247192
-174.257447	5489.728333	1826.474609	-48.935059
-174.257447	5489.728333	1825.478516	102.056847
-174.257447	5489.728333	1824.481445	154.651993
-174.257447	5489.728333	1823.484375	87.326576
-174.257447	5489.728333	1822.487305	226.148117
-174.257447	5489.728333	1821.490234	12.589444
-174.257447	5489.728333	1820.493164	84.225899
-174.257447	5489.728333	1819.495117	-14.288676
-174.257447	5489.728333	1818.498047	59.664314
-174.257447	5489.728333	1817.500000	126.373795
-174.257447	5489.728333	1816.500977	190.632843
-174.257447	5489.728333	1815.502930	-6.097968
-174.257447	5489.728333	1814.504883	34.164276
-174.257447	5489.728333	1813.505859	244.279327
-174.257447	5489.728333	1812.506836	205.457123
-174.257447	5489.728333	1811.507813	412.999664
-174.257447	5489.728333	1810.508789	60.787018
-174.257447	5489.728333	1809.508789	60.173008
-174.257447	5489.728333	1808.508789	133.635300
-174.257447	5489.728333	1807.508789	164.006195
-174.257447	5489.728333	1806.508789	-94.841011
-174.257447	5489.728333	1805.508789	200.705276
-174.257447	5489.728333	1804.508789	137.761551
-174.257447	5489.728333	1803.507813	53.303497
-174.257447	5489.728333	1802.506836	217.189926
-174.257447	5489.728333	1801.505859	120.726807
-174.257447	5489.728333	1800.504883	-28.258404
-174.257447	5489.728333	1799.502930	-60.285259
-174.257447	5489.728333	1798.501953	-25.529514
-174.257447	5489.728333	1797.500000	-62.405640
-174.257447	5489.728333	1796.498047	248.942535
-174.257447	5489.728333	1795.496094	54.535900
-174.257447	5489.728333	1794.493164	184.434784
-174.257447	5489.728333	1793.491211	166.432693
-174.257447	5489.728333	1792.488281	67.349106
-174.257447	5489.728333	1791.485352	-19.830597
-174.257447	5489.728333	1790.482422	57.373486
-174.257447	5489.728333	1789.478516	82.088905
-174.257447	5489.728333	1788.475586	113.891891
-174.257447	5489.728333	1787.471680	78.955048
-174.257447	5489.728333	1786.467773	13.029647
-174.257447	5489.728333	1785.463867	201.774368
-174.257447	5489.728333	1784.459961	138.126205
-174.257447	5489.728333	1783.455078	55.411713
-174.257447	5489.728333	1782.450195	46.423405
-174.257447	5489.728333	1781.445313	35.005550
-174.257447	5489.728333	1780.440430	21.159653
-174.257447	5489.728333	1779.435547	-83.086403
-174.257447	5489.728333	1778.429688	14.709935
-174.257447	5489.728333	1777.424805	81.518692
-174.257447	5489.728333	1776.418945	86.459740
-174.257447	5489.728333	1775.413086	10.563352
-174.257447	5489.728333	1774.406250	24.900814
-174.257447	5489.728333	1773.400391	79.552002
-174.257447	5489.728333	1772.393555	-100.952461
-174.257447	5489.728333	1771.386719	131.633774
-174.257447	5489.728333	1770.379883	-22.819508
-174.257447	5489.728333	1769.373047	102.755737
-174.257447	5489.728333	1768.365234	31.287968
-174.257447	5489.728333	1767.358398	-33.092407
-174.257447	5489.728333	1766.350586	51.910263
-174.257447	5489.728333	1765.342773	-199.907455
-174.257447	5489.728333	1764.334961	-276.246002
-174.257447	5489.728333	1763.326172	157.020081
-174.257447	5489.728333	1762.318359	120.809944
-174.257447	5489.728333	1761.309570	-83.687706
-174.257447	5489.728333	1760.300781	-6.249207
-174.257447	5489.728333	1759.291016	-47.338123
-174.257447	5489.728333	1758.282227	-55.315086
-174.257447	5489.728333	1757.272461	-68.090439
-174.257447	5489.728333	1756.262695	51.642765
-174.257447	5489.728333	1755.252930	-37.013081
-174.257447	5489.728333	1754.243164	127.503410
-174.257447	5489.728333	1753.233398	29.278059
-174.257447	5489.728333	1752.222656	-64.246773
-174.257447	5489.728333	1751.211914	-65.564552
-174.257447	5489.728333	1750.201172	-52.758389
-174.257447	5489.728333	1749.190430	2.533964
-174.257447	5489.728333	1748.179688	-67.533264
-174.257447	5489.728333	1747.167969	-24.208378
-174.257447	5489.728333	1746.156250	-80.200310
-174.257447	5489.728333	1745.144531	-133.872360
-174.257447	5489.728333	1744.132813	105.283257
-174.257447	5489.728333	1743.121094	-80.771538
-174.257447	5489.728333	1742.108398	84.958855
-174.257447	5489.728333	1741.095703	-13.815199
-174.257447	5489.728333	1740.083008	-84.295807
-174.257447	5489.728333	1739.070313	85.865700
-174.257447	5489.728333	1738.057617	76.602974
-174.257447	5489.728333	1737.043945	-53.020256
-174.257447	5489.728333	1736.030273	227.678406
-174.257447	5489.728333	1735.016602	-189.705231
-174.257447	5489.728333	1734.002930	-38.870289
-174.257447	5489.728333	1732.989258	-1.289315
-174.257447	5489.728333	1731.974609	50.347275
-174.257447	5489.728333	1730.959961	-58.309010
-174.257447	5489.728333	1729.945313	4.967562
-174.257447	5489.728333	1728.930664	98.773834
-174.257447	5489.728333	1727.916016	-47.695679
-174.257447	5489.728333	1726.900391	198.974792
-174.257447	5489.728333	1725.885742	-142.946182
-174.257447	5489.728333	1724.870117	-68.269859
-174.257447	5489.728333	1723.853516	-17.218834
-174.257447	5489.728333	1722.837891	-109.741966
-174.257447	5489.728333	1721.822266	51.718082
-174.257447	5489.728333	1720.805664	-45.616554
-174.257447	5489.728333	1719.789063	-128.869965
-174.257447	5489.728333	1718.772461	-207.453018
-174.257447	5489.728333	1717.754883	92.302589
-174.257447	5489.728333	1716.738281	-75.705544
-174.257447	5489.728333	1715.720703	216.738754
-174.257447	5489.728333	1714.703125	58.039047
-174.257447	5489.728333	1713.685547	-220.427368
-174.257447	5489.728333	1712.667969	-38.657249
-174.257447	5489.728333	1711.649414	-44.820450
-174.257447	5489.728333	1710.630859	-231.760193
-174.257447	5489.728333	1709.612305	-181.686066
-174.257447	5489.728333	1708.593750	-286.534241
-174.257447	5489.728333	1707.575195	-2.021125
-174.257447	5489.728333	1706.555664	-90.569725
-174.257447	5489.728333	1705.536133	-146.316895
-174.257447	5489.728333	1704.516602	79.216286
-174.257447	5489.728333	1703.497070	60.844696
-174.257447	5489.728333	1702.477539	152.562912
-174.257447	5489.728333	1701.457031	101.262146
-174.257447	5489.728333	1700.437500	110.837006
-174.257447	5489.728333	1699.416992	-24.863148
-174.257447	5489.728333	1698.395508	-87.982529
-174.257447	5489.728333	1697.375000	52.554451
-174.257447	5489.728333	1696.354492	26.792284
-174.257447	5489.728333	1695.333008	96.929565
-174.257447	5489.728333	1694.311523	21.918007
-174.257447	5489.728333	1693.290039	-55.457710
-174.257447	5489.728333	1692.267578	-36.967854
-174.257447	5489.728333	1691.246094	-116.745186
-174.257447	5489.728333	1690.223633	-53.932350
-174.257447	5489.728333	1689.201172	-75.347870
-174.257447	5489.728333	1688.178711	24.723652
-174.257447	5489.728333	1687.155273	96.660187
-174.257447	5489.728333	1686.132813	191.888062
-174.257447	5489.728333	1685.109375	-68.013115
-174.257447	5489.728333	1684.085938	-77.984657
-174.257447	5489.728333	1683.062500	14.733790
-174.257447	5489.728333	1682.039063	95.696526
-174.257447	5489.728333	1681.014648	129.894592
-174.257447	5489.728333	1679.990234	276.041199
-174.257447	5489.728333	1678.965820	58.127190
-174.257447	5489.728333	1677.941406	87.509613
-174.257447	5489.728333	1676.916992	228.779922
-174.257447	5489.728333	1675.891602	71.483696
-174.257447	5489.728333	1674.866211	168.312881
-174.257447	5489.728333	1673.840820	83.258331
-174.257447	5489.728333	1672.815430	193.945724
-174.257447	5489.728333	1671.790039	216.010468
-174.257447	5489.728333	1670.763672	387.104431
-174.257447	5489.728333	1669.737305	187.778168
-174.257447	5489.728333	1668.710938	107.245262
-174.257447	5489.728333	1667.684570	317.720245
-174.257447	5489.728333	1666.658203	262.720398
-174.257447	5489.728333	1665.630859	142.533188
-174.257447	5489.728333	1664.603516	238.745514
-174.257447	5489.728333	1663.576172	323.253601
-174.257447	5489.728333	1662.548828	212.317886
-174.257447	5489.728333	1661.520508	259.511902
-174.257447	5489.728333	1660.493164	229.936813
-174.257447	5489.728333	1659.464844	-36.770851
-174.257447	5489.728333	1658.436523	261.343201
-174.257447	5489.728333	1657.408203	131.761124
-174.257447	5489.728333	1656.378906	113.701836
-174.257447	5489.728333	1655.350586	132.791229
-174.257447	5489.728333	1654.321289	288.849152
-174.257447	5489.728333	1653.291992	303.185547
-174.257447	5489.728333	1652.261719	196.766281
-174.257447	5489.728333	1651.232422	338.709656
-174.257447	5489.728333	1650.202148	318.127350
-174.257447	5489.728333	1649.171875	1851.953369
-174.257447	5489.728333	1648.141602	2352.941650
-174.257447	5489.728333	1647.111328	713.144287
-174.257447	5489.728333	1646.080078	469.800812
-174.257447	5489.728333	1645.049805	374.903717
-174.257447	5489.728333	1644.018555	565.101624
-174.257447	5489.728333	1642.987305	546.642090
-174.257447	5489.728333	1641.955078	525.842529
-174.257447	5489.728333	1640.923828	535.153625
-174.257447	5489.728333	1639.891602	664.863525
-174.257447	5489.728333	1638.859375	579.158325
-174.257447	5489.728333	1637.827148	491.153198
-174.257447	5489.728333	1636.794922	562.876221
-174.257447	5489.728333	1635.761719	662.315491
-174.257447	5489.728333	1634.729492	736.257935
-174.257447	5489.728333	1633.696289	669.036377
-174.257447	5489.728333	1632.662109	553.248291
-174.257447	5489.728333	1631.628906	650.241089
-174.257447	5489.728333	1630.594727	643.135742
-174.257447	5489.728333	1629.561523	834.820740
-174.257447	5489.728333	1628.527344	769.883728
-174.257447	5489.728333	1627.493164	619.468201
-174.257447	5489.728333	1626.458008	626.184204
-174.257447	5489.728333	1625.423828	609.800171
-174.257447	5489.728333	1624.388672	591.096252
-174.257447	5489.728333	1623.353516	692.451111
-174.257447	5489.728333	1622.318359	431.346985
-174.257447	5489.728333	1621.282227	742.692932
-174.257447	5489.728333	1620.247070	719.338379
-174.257447	5489.728333	1619.210938	1042.034058
-174.257447	5489.728333	1618.174805	817.943054
-174.257447	5489.728333	1617.137695	794.560120
-174.257447	5489.728333	1616.101563	720.469177
-174.257447	5489.728333	1615.064453	657.923950
-174.257447	5489.728333	1614.027344	770.564941
-174.257447	5489.728333	1612.990234	772.555908
-174.257447	5489.728333	1611.953125	1039.493530
-174.257447	5489.728333	1610.916016	940.084534
-174.257447	5489.728333	1609.877930	859.132507
-174.257447	5489.728333	1608.839844	918.670471
-174.257447	5489.728333	1607.801758	810.137695
-174.257447	5489.728333	1606.763672	775.304565
-174.257447	5489.728333	1605.724609	595.508789
-174.257447	5489.728333	1604.685547	977.170105
-174.257447	5489.728333	1603.646484	891.731689
-174.257447	5489.728333	1602.607422	845.432617
-174.257447	5489.728333	1601.568359	909.532410
-174.257447	5489.728333	1600.528320	842.569153
-174.257447	5489.728333	1599.489258	704.397949
-174.257447	5489.728333	1598.449219	761.618347
-174.257447	5489.728333	1597.408203	738.405090
-174.257447	5489.728333	1596.368164	800.217590
-174.257447	5489.728333	1595.327148	820.670227
-174.257447	5489.728333	1594.287109	701.068237
-174.257447	5489.728333	1593.246094	535.604004
-174.257447	5489.728333	1592.204102	544.659363
-174.257447	5489.728333	1591.163086	854.369385
-174.257447	5489.728333	1590.121094	884.045776
-174.257447	5489.728333	1589.079102	649.917664
-174.257447	5489.728333	1588.037109	748.467224
-174.257447	5489.728333	1586.995117	867.637634
-174.257447	5489.728333	1585.953125	681.857300
-174.257447	5489.728333	1584.910156	750.600159
-174.257447	5489.728333	1583.867188	718.501282
-174.257447	5489.728333	1582.824219	894.949097
-174.257447	5489.728333	1581.781250	629.213989
-174.257447	5489.728333	1580.737305	840.007996
-174.257447	5489.728333	1579.693359	704.958496
-174.257447	5489.728333	1578.649414	638.675476
-174.257447	5489.728333	1577.605469	723.525024
-174.257447	5489.728333	1576.561523	497.115173
-174.257447	5489.728333	1575.516602	874.894653
-174.257447	5489.728333	1574.472656	669.192871
-174.257447	5489.728333	1573.427734	660.301025
-174.257447	5489.728333	1572.381836	715.466064
-174.257447	5489.728333	1571.336914	818.663696
-174.257447	5489.728333	1570.291016	704.682312
-174.257447	5489.728333	1569.246094	732.486877
-174.257447	5489.728333	1568.200195	536.372620
-174.257447	5489.728333	1567.153320	925.218384
-174.257447	5489.728333	1566.107422	706.371582
-174.257447	5489.728333	1565.060547	1006.038940
-174.257447	5489.728333	1564.013672	871.808105
-174.257447	5489.728333	1562.966797	970.513672
-174.257447	5489.728333	1561.919922	868.372131
-174.257447	5489.728333	1560.872070	754.892212
-174.257447	5489.728333	1559.825195	684.851501
-174.257447	5489.728333	1558.777344	699.268738
-174.257447	5489.728333	1557.729492	695.477234
-174.257447	5489.728333	1556.680664	598.236938
-174.257447	5489.728333	1555.632813	631.025269
-174.257447	5489.728333	1554.583984	638.764526
-174.257447	5489.728333	1553.535156	594.133728
-174.257447	5489.728333	1552.486328	620.192993
-174.257447	5489.728333	1551.436523	739.672058
-174.257447	5489.728333	1550.387695	622.304749
-174.257447	5489.728333	1549.337891	457.207245
-174.257447	5489.728333	1548.288086	688.336548
-174.257447	5489.728333	1547.238281	491.520325
-174.257447	5489.728333	1546.187500	445.013977
-174.257447	5489.728333	1545.136719	350.796814
-174.257447	5489.728333	1544.086914	381.782562
-174.257447	5489.728333	1543.035156	546.975525
-174.257447	5489.728333	1541.984375	539.350037
-174.257447	5489.728333	1540.933594	390.827576
-174.257447	5489.728333	1539.881836	446.974213
-174.257447	5489.728333	1538.830078	519.059021
-174.257447	5489.728333	1537.778320	622.976013
-174.257447	5489.728333	1536.725586	486.110931
-174.257447	5489.728333	1535.673828	419.766388
-174.257447	5489.728333	1534.621094	367.119385
-174.257447	5489.728333	1533.568359	339.521667
-174.257447	5489.728333	1532.515625	518.543091
-174.257447	5489.728333	1531.461914	525.073425
-174.257447	5489.728333	1530.409180	461.327850
-174.257447	5489.728333	1529.355469	297.846161
-174.257447	5489.728333	1528.301758	331.804077
-174.257447	5489.728333	1527.247070	327.253632
-174.257447	5489.728333	1526.193359	436.124390
-174.257447	5489.728333	1525.138672	252.606979
-174.257447	5489.728333	1524.083984	76.020401
-174.257447	5489.728333	1523.029297	219.037933
-174.257447	5489.728333	1521.974609	362.059418
-174.257447	5489.728333	1520.918945	106.463470
-174.257447	5489.728333	1519.863281	149.933990
-174.257447	5489.728333	1518.807617	139.114960
-174.257447	5489.728333	1517.751953	-5.185582
-174.257447	5489.728333	1516.696289	4.524961
-174.257447	5489.728333	1515.639648	18.814882
-174.257447	5489.728333	1514.583008	-27.916393
-174.257447	5489.728333	1513.526367	-2.187037
-174.257447	5489.728333	1512.469727	48.470135
-174.257447	5489.728333	1511.412109	31.343363
-174.257447	5489.728333	1510.355469	32.377842
-174.257447	5489.728333	1509.297852	94.491539
-174.257447	5489.728333	1508.240234	70.786591
-174.257447	5489.728333	1507.181641	-25.136040
-174.257447	5489.728333	1506.124023	77.808929
-174.257447	5489.728333	1505.065430	-54.072350
-174.257447	5489.728333	1504.006836	-18.762022
-174.257447	5489.728333	1502.948242	-285.869141
-174.257447	5489.728333	1501.888672	29.451702
-174.257447	5489.728333	1500.830078	175.494080
-174.257447	5489.728333	1499.770508	213.259094
-174.257447	5489.728333	1498.710938	61.620682
-174.257447	5489.728333	1497.650391	-47.045219
-174.257447	5489.728333	1496.590820	241.211609
-174.257447	5489.728333	1495.530273	173.269745
-174.257447	5489.728333	1494.469727	123.454987
-174.257447	5489.728333	1493.409180	105.277344
-174.257447	5489.728333	1492.348633	3.826902
-174.257447	5489.728333	1491.287109	109.699692
-174.257447	5489.728333	1490.225586	66.978020
-174.257447	5489.728333	1489.164063	175.193375
-174.257447	5489.728333	1488.102539	-141.997772
-174.257447	5489.728333	1487.041016	29.378407
-174.257447	5489.728333	1485.978516	-13.002646
-174.257447	5489.728333	1484.916016	-142.997467
-174.257447	5489.728333	1483.853516	-90.741615
-174.257447	5489.728333	1482.791016	-101.361862
-174.257447	5489.728333	1481.727539	-127.643448
-174.257447	5489.728333	1480.664063	-68.413933
-174.257447	5489.728333	1479.600586	15.553410
-174.257447	5489.728333	1478.537109	79.403259
-174.257447	5489.728333	1477.473633	-29.693342
-174.257447	5489.728333	1476.409180	-19.701004
-174.257447	5489.728333	1475.344727	6.157795
-174.257447	5489.728333	1474.280273	-140.581665
-174.257447	5489.728333	1473.215820	26.691086
-174.257447	5489.728333	1472.151367	-34.764084
-174.257447	5489.728333	1471.085938	-221.817703
-174.257447	5489.728333	1470.020508	129.542694
-174.257447	5489.728333	1468.955078	162.638489
-174.257447	5489.728333	1467.888672	81.208717
-174.257447	5489.728333	1466.823242	56.153553
-174.257447	5489.728333	1465.756836	85.180519
-174.257447	5489.728333	1464.690430	30.893509
-174.257447	5489.728333	1463.624023	316.884369
-174.257447	5489.728333	1462.556641	238.483261
-174.257447	5489.728333	1461.490234	287.530029
-174.257447	5489.728333	1460.422852	426.251495
-174.257447	5489.728333	1459.355469	492.439545
-174.257447	5489.728333	1458.287109	524.425659
-174.257447	5489.728333	1457.219727	374.697479
-174.257447	5489.728333	1456.151367	452.242096
-174.257447	5489.728333	1455.083008	607.000610
-174.257447	5489.728333	1454.014648	357.994415
-174.257447	5489.728333	1452.945313	470.328735
-174.257447	5489.728333	1451.876953	588.559814
-174.257447	5489.728333	1450.807617	617.667664
-174.257447	5489.728333	1449.738281	560.430786
-174.257447	5489.728333	1448.668945	612.605042
-174.257447	5489.728333	1447.598633	474.315399
-174.257447	5489.728333	1446.528320	519.601929
-174.257447	5489.728333	1445.458008	477.138397
-174.257447	5489.728333	1444.387695	425.283142
-174.257447	5489.728333	1443.317383	440.427643
-174.257447	5489.728333	1442.246094	488.304749
-174.257447	5489.728333	1441.174805	584.832947
-174.257447	5489.728333	1440.103516	278.277771
-174.257447	5489.728333	1439.032227	367.925262
-174.257447	5489.728333	1437.960938	451.752869
-174.257447	5489.728333	1436.888672	425.493683
-174.257447	5489.728333	1435.816406	233.026779
-174.257447	5489.728333	1434.744141	427.866699
-174.257447	5489.728333	1433.670898	237.495773
-174.257447	5489.728333	1432.598633	431.246796
-174.257447	5489.728333	1431.525391	377.886444
-174.257447	5489.728333	1430.452148	358.638123
-174.257447	5489.728333	1429.378906	312.407928
-174.257447	5489.728333	1428.304688	399.897247
-174.257447	5489.728333	1427.231445	455.954773
-174.257447	5489.728333	1426.157227	130.014816
-174.257447	5489.728333	1425.083008	256.935150
-174.257447	5489.728333	1424.007813	338.383331
-174.257447	5489.728333	1422.933594	245.557968
-174.257447	5489.728333	1421.858398	402.061890
-174.257447	5489.728333	1420.783203	383.889343
-174.257447	5489.728333	1419.708008	496.167023
-174.257447	5489.728333	1418.631836	112.669212
-174.257447	5489.728333	1417.555664	188.772690
-174.257447	5489.728333	1416.479492	270.169617
-174.257447	5489.728333	1415.403320	383.556976
-174.257447	5489.728333	1414.327148	234.886703
-174.257447	5489.728333	1413.250000	235.571075
-174.257447	5489.728333	1412.173828	354.089508
-174.257447	5489.728333	1411.096680	196.561829
-174.257447	5489.728333	1410.018555	21.290686
-174.257447	5489.728333	1408.941406	-192.526184
-174.257447	5489.728333	1407.863281	71.503891
-174.257447	5489.728333	1406.785156	212.090912
-174.257447	5489.728333	1405.707031	226.794174
-174.257447	5489.728333	1404.628906	234.193451
-174.257447	5489.728333	1403.549805	170.611755
-174.257447	5489.728333	1402.470703	276.343750
-174.257447	5489.728333	1401.391602	205.186020
-174.257447	5489.728333	1400.312500	268.973175
-174.257447	5489.728333	1399.233398	429.775269
-174.257447	5489.728333	1398.153320	559.859863
-174.257447	5489.728333	1397.073242	574.052612
-174.257447	5489.728333	1395.993164	528.065063
-174.257447	5489.728333	1394.913086	424.092163
-174.257447	5489.728333	1393.832031	703.585388
-174.257447	5489.728333	1392.750977	628.469727
-174.257447	5489.728333	1391.669922	901.133362
-174.257447	5489.728333	1390.588867	937.389526
-174.257447	5489.728333	1389.506836	791.531616
-174.257447	5489.728333	1388.425781	747.957031
-174.257447	5489.728333	1387.343750	714.573486
-174.257447	5489.728333	1386.261719	601.352356
-174.257447	5489.728333	1385.178711	676.643066
-174.257447	5489.728333	1384.096680	611.779785
-174.257447	5489.728333	1383.013672	558.312500
-174.257447	5489.728333	1381.930664	557.483704
-174.257447	5489.728333	1380.846680	586.203552
-174.257447	5489.728333	1379.763672	511.319550
-174.257447	5489.728333	1378.679688	276.509918
-174.257447	5489.728333	1377.595703	351.359772
-174.257447	5489.728333	1376.511719	575.812012
-174.257447	5489.728333	1375.427734	530.806641
-174.257447	5489.728333	1374.342773	757.918335
-174.257447	5489.728333	1373.257813	622.350952
-174.257447	5489.728333	1372.172852	624.300415
-174.257447	5489.728333	1371.087891	557.121704
-174.257447	5489.728333	1370.001953	415.366272
-174.257447	5489.728333	1368.916992	642.169373
-174.257447	5489.728333	1367.831055	604.408508
-174.257447	5489.728333	1366.744141	477.343323
-174.257447	5489.728333	1365.658203	426.044189
-174.257447	5489.728333	1364.571289	530.184998
-174.257447	5489.728333	1363.484375	443.507233
-174.257447	5489.728333	1362.397461	670.436279
-174.257447	5489.728333	1361.310547	473.471588
-174.257447	5489.728333	1360.222656	599.086914
-174.257447	5489.728333	1359.135742	699.746582
-174.257447	5489.728333	1358.047852	635.486389
-174.257447	5489.728333	1356.958984	607.294250
-174.257447	5489.728333	1355.871094	521.638184
-174.257447	5489.728333	1354.782227	582.300293
-174.257447	5489.728333	1353.693359	527.909363
-174.257447	5489.728333	1352.604492	384.088837
-174.257447	5489.728333	1351.515625	533.967224
-174.257447	5489.728333	1350.425781	524.306702
-174.257447	5489.728333	1349.335938	359.881256
-174.257447	5489.728333	1348.246094	305.643555
-174.257447	5489.728333	1347.156250	353.953400
-174.257447	5489.728333	1346.066406	427.319153
-174.257447	5489.728333	1344.975586	403.918213
-174.257447	5489.728333	1343.884766	485.256775
-174.257447	5489.728333	1342.793945	746.287476
-174.257447	5489.728333	1341.702148	975.098083
-174.257447	5489.728333	1340.611328	1095.069214
-174.257447	5489.728333	1339.519531	1128.222534
-174.257447	5489.728333	1338.427734	1079.382568
-174.257447	5489.728333	1337.334961	807.875244
-174.257447	5489.728333	1336.243164	568.820251
-174.257447	5489.728333	1335.150391	783.891052
-174.257447	5489.728333	1334.057617	638.787720
-174.257447	5489.728333	1332.964844	468.690399
-174.257447	5489.728333	1331.871094	479.883514
-174.257447	5489.728333	1330.778320	534.848389
-174.257447	5489.728333	1329.684570	463.215057
-174.257447	5489.728333	1328.590820	581.496826
-174.257447	5489.728333	1327.496094	371.145264
-174.257447	5489.728333	1326.402344	307.880707
-174.257447	5489.728333	1325.307617	483.631226
-174.257447	5489.728333	1324.212891	318.403198
-174.257447	5489.728333	1323.117188	427.843658
-174.257447	5489.728333	1322.022461	447.318115
-174.257447	5489.728333	1320.926758	504.052795
-174.257447	5489.728333	1319.831055	553.447510
-174.257447	5489.728333	1318.735352	636.106140
-174.257447	5489.728333	1317.638672	446.016754
-174.257447	5489.728333	1316.542969	472.903870
-174.257447	5489.728333	1315.446289	573.845642
-174.257447	5489.728333	1314.349609	455.699677
-174.257447	5489.728333	1313.251953	489.979523
-174.257447	5489.728333	1312.155273	552.177917
-174.257447	5489.728333	1311.057617	497.186859
-174.257447	5489.728333	1309.959961	289.286621
-174.257447	5489.728333	1308.862305	365.783264
-174.257447	5489.728333	1307.763672	397.338928
-174.257447	5489.728333	1306.665039	239.849091
-174.257447	5489.728333	1305.566406	263.370789
-174.257447	5489.728333	1304.467773	511.074371
-174.257447	5489.728333	1303.369141	343.460297
-174.257447	5489.728333	1302.269531	438.641022
-174.257447	5489.728333	1301.169922	143.796021
-174.257447	5489.728333	1300.070313	395.419861
-174.257447	5489.728333	1298.970703	340.682861
-174.257447	5489.728333	1297.870117	229.059982
-174.257447	5489.728333	1296.769531	105.117249
-174.257447	5489.728333	1295.668945	222.989853
-174.257447	5489.728333	1294.568359	422.138214
-174.257447	5489.728333	1293.466797	164.286346
-174.257447	5489.728333	1292.366211	138.327362
-174.257447	5489.728333	1291.264648	100.516533
-174.257447	5489.728333	1290.162109	159.388535
-174.257447	5489.728333	1289.060547	62.880314
-174.257447	5489.728333	1287.958008	54.194519
-174.257447	5489.728333	1286.855469	-94.566872
-174.257447	5489.728333	1285.752930	-2.615339
-174.257447	5489.728333	1284.650391	0.011479
-174.257447	5489.728333	1283.546875	247.875702
-174.257447	5489.728333	1282.444336	102.143494
-174.257447	5489.728333	1281.339844	114.842209
-174.257447	5489.728333	1280.236328	169.867249
-174.257447	5489.728333	1279.132813	29.614752
-174.257447	5489.728333	1278.028320	20.606909
-174.257447	5489.728333	1276.923828	10.321486
-174.257447	5489.728333	1275.819336	16.038231
-174.257447	5489.728333	1274.713867	30.565517
-174.257447	5489.728333	1273.608398	94.650597
-174.257447	5489.728333	1272.503906	152.959595
-174.257447	5489.728333	1271.397461	119.702972
-174.257447	5489.728333	1270.291992	36.646774
-174.257447	5489.728333	1269.185547	-14.034973
-174.257447	5489.728333	1268.080078	112.118378
-174.257447	5489.728333	1266.972656	6.227627
-174.257447	5489.728333	1265.866211	260.169006
-174.257447	5489.728333	1264.759766	68.588852
-174.257447	5489.728333	1263.652344	-23.445480
-174.257447	5489.728333	1262.544922	-126.611687
-174.257447	5489.728333	1261.436523	-108.532845
-174.257447	5489.728333	1260.329102	-89.255325
-174.257447	5489.728333	1259.220703	-31.521822
-174.257447	5489.728333	1258.112305	-107.963203
-174.257447	5489.728333	1257.003906	-94.698120
-174.257447	5489.728333	1255.895508	-154.588409
-174.257447	5489.728333	1254.786133	-112.341049
-174.257447	5489.728333	1253.676758	-313.633820
-174.257447	5489.728333	1252.567383	-296.822632
-174.257447	5489.728333	1251.458008	-216.579910
-174.257447	5489.728333	1250.347656	-318.256134
-174.257447	5489.728333	1249.237305	-147.359161
-174.257447	5489.728333	1248.126953	-59.001781
-174.257447	5489.728333	1247.016602	-105.010651
-174.257447	5489.728333	1245.905273	-166.322159
-174.257447	5489.728333	1244.793945	-53.041878
-174.257447	5489.728333	1243.682617	-77.678062
-174.257447	5489.728333	1242.571289	-72.787834
-174.257447	5489.728333	1241.459961	-45.073799
-174.257447	5489.728333	1240.347656	102.306961
-174.257447	5489.728333	1239.235352	7.574095
-174.257447	5489.728333	1238.123047	47.283779
-174.257447	5489.728333	1237.009766	84.376610
-174.257447	5489.728333	1235.897461	20.955402
-174.257447	5489.728333	1234.784180	-25.939024
-174.257447	5489.728333	1233.670898	12.044813
-174.257447	5489.728333	1232.556641	-74.518692
-174.257447	5489.728333	1231.443359	-18.003283
-174.257447	5489.728333	1230.329102	13.840864
-174.257447	5489.728333	1229.214844	-55.569336
-174.257447	5489.728333	1228.099609	19.467480
-174.257447	5489.728333	1226.985352	-60.499573
-174.257447	5489.728333	1225.870117	-27.409134
-174.257447	5489.728333	1224.754883	41.488731
-174.257447	5489.728333	1223.639648	174.824463
-174.257447	5489.728333	1222.523438	46.527946
-174.257447	5489.728333	1221.408203	178.968643
-174.257447	5489.728333	1220.291992	231.933502
-174.257447	5489.728333	1219.174805	225.890839
-174.257447	5489.728333	1218.058594	218.538269
-174.257447	5489.728333	1216.941406	289.988922
-174.257447	5489.728333	1215.824219	367.340393
-174.257447	5489.728333	1214.707031	244.675339
-174.257447	5489.728333	1213.589844	313.870300
-174.257447	5489.728333	1212.471680	149.807312
-174.257447	5489.728333	1211.353516	127.919960
-174.257447	5489.728333	1210.235352	334.400269
-174.257447	5489.728333	1209.117188	161.029099
-174.257447	5489.728333	1207.998047	179.017578
-174.257447	5489.728333	1206.878906	203.563980
-174.257447	5489.728333	1205.759766	226.725571
-174.257447	5489.728333	1204.640625	77.328163
-174.257447	5489.728333	1203.520508	130.082840
-174.257447	5489.728333	1202.401367	123.791924
-174.257447	5489.728333	1201.281250	18.607449
-174.257447	5489.728333	1200.160156	137.457748
-174.257447	5489.728333	1199.040039	137.900116
-174.257447	5489.728333	1197.918945	7.953702
-174.257447	5489.728333	1196.797852	65.495621
-174.257447	5489.728333	1195.676758	120.198402
-174.257447	5489.728333	1194.555664	67.628113
-174.257447	5489.728333	1193.433594	-12.804024
-174.257447	5489.728333	1192.311523	68.426628
-174.257447	5489.728333	1191.189453	-34.172432
-174.257447	5489.728333	1190.066406	-106.952713
-174.257447	5489.728333	1188.944336	-172.370361
-174.257447	5489.728333	1187.821289	-136.384918
-174.257447	5489.728333	1186.698242	-135.841766
-174.257447	5489.728333	1185.574219	39.626293
-174.257447	5489.728333	1184.451172	-30.199476
-174.257447	5489.728333	1183.327148	-19.864620
-174.257447	5489.728333	1182.203125	-119.780891
-174.257447	5489.728333	1181.078125	-3.096729
-174.257447	5489.728333	1179.954102	-8.437011
-174.257447	5489.728333	1178.829102	-55.196003
-174.257447	5489.728333	1177.704102	-101.476799
-174.257447	5489.728333	1176.579102	-106.874390
-174.257447	5489.728333	1175.453125	-41.679859
-174.257447	5489.728333	1174.327148	-79.410301
-174.257447	5489.728333	1173.201172	42.126411
-174.257447	5489.728333	1172.075195	-13.230140
-174.257447	5489.728333	1170.949219	37.387966
-174.257447	5489.728333	1169.822266	-19.859245
-174.257447	5489.728333	1168.695313	45.093262
-174.257447	5489.728333	1167.568359	115.677864
-174.257447	5489.728333	1166.440430	94.891464
-174.257447	5489.728333	1165.313477	-80.393280
-174.257447	5489.728333	1164.185547	37.926067
-174.257447	5489.728333	1163.057617	157.187103
-174.257447	5489.728333	1161.928711	128.889603
-174.257447	5489.728333	1160.800781	-24.425648
-174.257447	5489.728333	1159.671875	2.600490
-174.257447	5489.728333	1158.541992	-59.484394
-174.257447	5489.728333	1157.413086	-163.506592
-174.257447	5489.728333	1156.283203	-186.907822
-174.257447	5489.728333	1155.154297	-92.755531
-174.257447	5489.728333	1154.023438	0.956613
-174.257447	5489.728333	1152.893555	169.777573
-174.257447	5489.728333	1151.763672	51.917007
-174.257447	5489.728333	1150.632813	-65.267044
-174.257447	5489.728333	1149.501953	40.528107
-174.257447	5489.728333	1148.370117	140.544250
-174.257447	5489.728333	1147.239258	265.448639
-174.257447	5489.728333	1146.107422	289.966217
-174.257447	5489.728333	1144.975586	303.668335
-174.257447	5489.728333	1143.843750	254.431793
-174.257447	5489.728333	1142.710938	151.142822
-174.257447	5489.728333	1141.578125	24.894300
-174.257447	5489.728333	1140.445313	272.538635
-174.257447	5489.728333	1139.312500	57.479988
-174.257447	5489.728333	1138.178711	134.292984
-174.257447	5489.728333	1137.045898	53.225349
-174.257447	5489.728333	1135.912109	93.123772
-174.257447	5489.728333	1134.777344	25.748791
-174.257447	5489.728333	1133.643555	327.512329
-174.257447	5489.728333	1132.508789	45.111557
-174.257447	5489.728333	1131.374023	281.664001
-174.257447	5489.728333	1130.239258	152.669510
-174.257447	5489.728333	1129.104492	257.724701
-174.257447	5489.728333	1127.968750	378.168671
-174.257447	5489.728333	1126.833008	155.046768
-174.257447	5489.728333	1125.697266	34.946827
-174.257447	5489.728333	1124.560547	169.374878
-174.257447	5489.728333	1123.424805	317.917114
-174.257447	5489.728333	1122.288086	230.563278
-174.257447	5489.728333	1121.151367	131.432129
-174.257447	5489.728333	1120.013672	175.567719
-174.257447	5489.728333	1118.876953	137.581818
-174.257447	5489.728333	1117.739258	282.180786
-174.257447	5489.728333	1116.601563	-32.885628
-174.257447	5489.728333	1115.462891	109.236107
-174.257447	5489.728333	1114.324219	242.382660
-174.257447	5489.728333	1113.186523	225.617386
-174.257447	5489.728333	1112.046875	183.948227
-174.257447	5489.728333	1110.908203	322.347565
-174.257447	5489.728333	1109.769531	165.732391
-174.257447	5489.728333	1108.629883	280.621216
-174.257447	5489.728333	1107.490234	290.910400
-174.257447	5489.728333	1106.349609	163.395737
-174.257447	5489.728333	1105.209961	379.339020
-174.257447	5489.728333	1104.069336	269.990051
-174.257447	5489.728333	1102.928711	194.662277
-174.257447	5489.728333	1101.787109	136.575287
-174.257447	5489.728333	1100.646484	129.590622
-174.257447	5489.728333	1099.504883	102.041908
-174.257447	5489.728333	1098.363281	320.608948
-174.257447	5489.728333	1097.221680	350.420654
-174.257447	5489.728333	1096.079102	256.251068
-174.257447	5489.728333	1094.936523	220.947144
-174.257447	5489.728333	1093.793945	230.891617
-174.257447	5489.728333	1092.651367	141.909698
-174.257447	5489.728333	1091.507813	30.265640
-174.257447	5489.728333	1090.364258	334.048615
-174.257447	5489.728333	1089.220703	67.487114
-174.257447	5489.728333	1088.077148	135.014740
-174.257447	5489.728333	1086.933594	172.171524
-174.257447	5489.728333	1085.789063	171.290939
-174.257447	5489.728333	1084.644531	238.261139
-174.257447	5489.728333	1083.499023	66.799332
-174.257447	5489.728333	1082.354492	110.358757
-174.257447	5489.728333	1081.208984	165.228333
-174.257447	5489.728333	1080.063477	-7.380449
-174.257447	5489.728333	1078.917969	183.182816
-174.257447	5489.728333	1077.771484	224.482880
-174.257447	5489.728333	1076.625977	148.890244
-174.257447	5489.728333	1075.479492	-121.690224
-174.257447	5489.728333	1074.332031	69.224846
-174.257447	5489.728333	1073.185547	59.505085
-174.257447	5489.728333	1072.038086	75.957603
-174.257447	5489.728333	1070.890625	241.465973
-174.257447	5489.728333	1069.743164	93.826126
-174.257447	5489.728333	1068.594727	-75.639526
-174.257447	5489.728333	1067.447266	75.550209
-174.257447	5489.728333	1066.298828	-98.277252
-174.257447	5489.728333	1065.149414	-45.224491
-174.257447	5489.728333	1064.000977	75.205467
-174.257447	5489.728333	1062.851563	296.830109
-174.257447	5489.728333	1061.702148	25.816444
-174.257447	5489.728333	1060.552734	-10.300362
-174.257447	5489.728333	1059.402344	-58.251770
-174.257447	5489.728333	1058.252930	-31.114779
-174.257447	5489.728333	1057.102539	35.942532
-174.257447	5489.728333	1055.951172	-34.064243
-174.257447	5489.728333	1054.800781	119.309532
-174.257447	5489.728333	1053.649414	-52.464710
-174.257447	5489.728333	1052.498047	117.764580
-174.257447	5489.728333	1051.346680	21.063862
-174.257447	5489.728333	1050.194336	-2.107109
-174.257447	5489.728333	1049.042969	129.258072
-174.257447	5489.728333	1047.890625	16.800512
-174.257447	5489.728333	1046.738281	49.610378
-174.257447	5489.728333	1045.584961	150.112183
-174.257447	5489.728333	1044.431641	47.734989
-174.257447	5489.728333	1043.278320	-89.446922
-174.257447	5489.728333	1042.125000	1.471783
-174.257447	5489.728333	1040.971680	106.606400
-174.257447	5489.728333	1039.817383	-78.636253
-174.257447	5489.728333	1038.663086	-67.341629
-174.257447	5489.728333	1037.508789	47.313576
-174.257447	5489.728333	1036.353516	192.895294
-174.257447	5489.728333	1035.198242	92.474403
-174.257447	5489.728333	1034.042969	53.772633
-174.257447	5489.728333	1032.887695	181.357437
-174.257447	5489.728333	1031.732422	-3.149046
-174.257447	5489.728333	1030.576172	-17.569664
-174.257447	5489.728333	1029.419922	37.354065
-174.257447	5489.728333	1028.263672	-107.166847
-174.257447	5489.728333	1027.106445	203.749756
-174.257447	5489.728333	1025.949219	107.461052
-174.257447	5489.728333	1024.792969	160.855591
-174.257447	5489.728333	1023.634766	75.705544
-174.257447	5489.728333	1022.477539	184.307236
-174.257447	5489.728333	1021.319336	86.066360
-174.257447	5489.728333	1020.161133	47.833378
-174.257447	5489.728333	1019.002930	-11.130892
-174.257447	5489.728333	1017.843750	58.291870
-174.257447	5489.728333	1016.684570	-6.922815
-174.257447	5489.728333	1015.525391	-208.389130
-174.257447	5489.728333	1014.366211	28.894953
-174.257447	5489.728333	1013.207031	153.783997
-174.257447	5489.728333	1012.046875	87.579788
-174.257447	5489.728333	1010.886719	19.291189
-174.257447	5489.728333	1009.726563	-183.019241
-174.257447	5489.728333	1008.565430	-18.663036
-174.257447	5489.728333	1007.404297	106.999557
-174.257447	5489.728333	1006.243164	-71.181770
-174.257447	5489.728333	1005.082031	-104.933525
-174.257447	5489.728333	1003.920898	-62.406010
-174.257447	5489.728333	1002.758789	66.978752
-174.257447	5489.728333	1001.596680	76.480766
-174.257447	5489.728333	1000.433594	45.097897
-174.257447	5489.728333	999.271484	-22.993544
-174.257447	5489.728333	998.108398	144.044876
-174.257447	5489.728333	996.945313	-124.238686
-174.257447	5489.728333	995.782227	58.565998
-174.257447	5489.728333	994.618164	38.742821
-174.257447	5489.728333	993.454102	-225.334793
-174.257447	5489.728333	992.290039	-136.444138
-174.257447	5489.728333	991.125977	-11.059752
-174.257447	5489.728333	989.960938	-6.237662
-174.257447	5489.728333	988.796875	248.626541
-174.257447	5489.728333	987.630859	113.756187
-174.257447	5489.728333	986.465820	-77.702789
-174.257447	5489.728333	985.300781	18.876173
-174.257447	5489.728333	984.134766	43.767017
-174.257447	5489.728333	982.968750	71.588455
-174.257447	5489.728333	981.801758	78.836075
-174.257447	5489.728333	980.635742	285.724915
-174.257447	5489.728333	979.468750	52.658142
-174.257447	5489.728333	978.301758	79.627625
-174.257447	5489.728333	977.133789	-114.083076
-174.257447	5489.728333	975.966797	253.011765
-174.257447	5489.728333	974.798828	158.966522
-174.257447	5489.728333	973.630859	-119.871414
-174.257447	5489.728333	972.461914	-211.986130
-174.257447	5489.728333	971.293945	188.307465
-174.257447	5489.728333	970.125000	84.807724
-174.257447	5489.728333	968.956055	-141.918167
-174.257447	5489.728333	967.786133	242.851685
-174.257447	5489.728333	966.617188	-79.337120
-174.257447	5489.728333	965.447266	-34.286987
-174.257447	5489.728333	964.276367	4.602656
-174.257447	5489.728333	963.106445	158.176346
-174.257447	5489.728333	961.935547	34.150131
-174.257447	5489.728333	960.764648	-96.356926
-174.257447	5489.728333	959.593750	-5.656309
-174.257447	5489.728333	958.422852	-145.573181
-174.257447	5489.728333	957.250977	-132.731567
-174.257447	5489.728333	956.079102	193.290436
-174.257447	5489.728333	954.907227	187.275070
-174.257447	5489.728333	953.734375	188.884384
-174.257447	5489.728333	952.562500	237.105865
-174.257447	5489.728333	951.389648	9.411013
-174.257447	5489.728333	950.215820	-181.830078
-174.257447	5489.728333	949.042969	88.199265
-174.257447	5489.728333	947.869141	-66.072517
-174.257447	5489.728333	946.695313	-64.649185
-174.257447	5489.728333	945.521484	17.664585
-174.257447	5489.728333	944.346680	-135.974197
-174.257447	5489.728333	943.172852	64.518913
-174.257447	5489.728333	941.998047	186.568222
-174.257447	5489.728333	940.822266	-148.719849
-174.257447	5489.728333	939.647461	39.201157
-174.257447	5489.728333	938.471680	-44.025818
-174.257447	5489.728333	937.295898	1.522383
-174.257447	5489.728333	936.119141	183.851242
-174.257447	5489.728333	934.943359	37.695854
-174.257447	5489.728333	933.766602	140.995880
-174.257447	5489.728333	932.589844	134.058334
-174.257447	5489.728333	931.413086	129.797256
-174.257447	5489.728333	930.235352	177.860626
-174.257447	5489.728333	929.057617	323.076965
-174.257447	5489.728333	927.879883	-27.994175
-174.257447	5489.728333	926.702148	140.859116
-174.257447	5489.728333	925.523438	212.482956
-174.257447	5489.728333	924.344727	328.665924
-174.257447	5489.728333	923.166016	56.460705
-174.257447	5489.728333	921.987305	7.327258
-174.257447	5489.728333	920.807617	157.537384
-174.257447	5489.728333	919.627930	160.304535
-174.257447	5489.728333	919.497070	132.266464
-174.257447	5489.728333	918.331055	14.877588
-174.257447	5489.728333	917.165039	-147.050461
-174.257447	5489.728333	915.999023	-156.926880
-174.257447	5489.728333	914.833008	-56.770283
-174.257447	5489.728333	913.666016	-132.200562
-174.257447	5489.728333	912.499023	90.971397
-174.257447	5489.728333	911.332031	83.581512
-174.257447	5489.728333	910.165039	-125.428856
-174.257447	5489.728333	908.997070	-213.963898
-174.257447	5489.728333	907.830078	-189.952698
-174.257447	5489.728333	906.661133	-113.639061
-174.257447	5489.728333	905.493164	-142.024384
-174.257447	5489.728333	904.325195	-345.662292
-174.257447	5489.728333	903.156250	-70.696388
-174.257447	5489.728333	901.987305	31.579273
-174.257447	5489.728333	900.818359	-242.614670
-174.257447	5489.728333	899.648438	134.013718
-174.257447	5489.728333	898.478516	-257.714386
-174.257447	5489.728333	897.308594	110.877708
-174.257447	5489.728333	896.138672	-285.958099
-174.257447	5489.728333	894.968750	1.492015
-174.257447	5489.728333	893.797852	27.728813
-174.257447	5489.728333	892.626953	-71.358040
-174.257447	5489.728333	891.456055	150.558533
-174.257447	5489.728333	890.284180	140.150146
-174.257447	5489.728333	889.113281	327.970764
-174.257447	5489.728333	887.941406	127.091263
-174.257447	5489.728333	886.768555	220.920639
-174.257447	5489.728333	885.596680	173.907547
-174.257447	5489.728333	884.423828	165.985931
-174.257447	5489.728333	883.250977	173.678452
-174.257447	5489.728333	882.078125	30.228161
-174.257447	5489.728333	880.905273	175.951385
-174.257447	5489.728333	879.731445	-45.620098
-174.257447	5489.728333	878.557617	115.632103
-174.257447	5489.728333	877.383789	37.290905
-174.257447	5489.728333	876.209961	11.010514
-174.257447	5489.728333	875.035156	70.589211
-174.257447	5489.728333	873.860352	-33.788128
-174.257447	5489.728333	872.685547	7.514151
-174.257447	5489.728333	871.510742	48.772312
-174.257447	5489.728333	870.334961	4.186887
-174.257447	5489.728333	869.159180	58.375458
-174.257447	5489.728333	867.983398	-238.351532
-174.257447	5489.728333	866.807617	0.300735
-174.257447	5489.728333	865.630859	108.933083
-174.257447	5489.728333	864.454102	43.466892
-174.257447	5489.728333	863.277344	55.906937
-174.257447	5489.728333	862.100586	247.461121
-174.257447	5489.728333	860.922852	-126.975906
-174.257447	5489.728333	859.745117	-148.330307
-174.257447	5489.728333	858.567383	87.177094
-174.257447	5489.728333	857.389648	-19.877657
-174.257447	5489.728333	856.210938	207.670532
-174.257447	5489.728333	855.032227	20.191460
-174.257447	5489.728333	853.853516	-50.570854
-174.257447	5489.728333	852.674805	111.954758
-174.257447	5489.728333	851.495117	-34.008121
-174.257447	5489.728333	850.315430	185.392807
-174.257447	5489.728333	849.135742	184.482635
-174.257447	5489.728333	847.956055	168.004379
-174.257447	5489.728333	846.775391	19.444242
-174.257447	5489.728333	845.595703	21.069698
-174.257447	5489.728333	844.415039	154.671555
-174.257447	5489.728333	843.233398	3.528920
-174.257447	5489.728333	842.052734	126.671143
-174.257447	5489.728333	840.871094	128.154495
-174.257447	5489.728333	839.689453	214.953583
-174.257447	5489.728333	838.506836	74.145218
-174.257447	5489.728333	837.325195	80.717934
-174.257447	5489.728333	836.142578	177.720001
-174.257447	5489.728333	834.959961	246.225708
-174.257447	5489.728333	833.777344	164.825745
-174.257447	5489.728333	832.593750	-17.310410
-174.257447	5489.728333	831.410156	107.915039
-174.257447	5489.728333	830.226563	-94.852531
-174.257447	5489.728333	829.042969	19.948280
-174.257447	5489.728333	827.858398	-40.830551
-174.257447	5489.728333	826.673828	112.554382
-174.257447	5489.728333	825.489258	232.306091
-174.257447	5489.728333	824.304688	96.623650
-174.257447	5489.728333	823.120117	-51.929581
-174.257447	5489.728333	821.934570	-50.914852
-174.257447	5489.728333	820.749023	24.820568
-174.257447	5489.728333	819.562500	33.484917
-174.257447	5489.728333	818.376953	-53.223457
-174.257447	5489.728333	817.190430	-168.266891
-174.257447	5489.728333	816.003906	280.759430
-174.257447	5489.728333	814.817383	62.624870
-174.257447	5489.728333	813.629883	233.301239
-174.257447	5489.728333	812.442383	125.880882
-174.257447	5489.728333	811.254883	-102.481033
-174.257447	5489.728333	810.067383	-40.041473
-174.257447	5489.728333	808.878906	-59.979164
-174.257447	5489.728333	807.690430	130.949753
-174.257447	5489.728333	806.501953	118.629906
-174.257447	5489.728333	805.313477	119.134438
-174.257447	5489.728333	804.124023	168.438797
-174.257447	5489.728333	802.934570	42.945160
-174.257447	5489.728333	801.745117	-43.994057
-174.257447	5489.728333	800.555664	156.760681
-174.257447	5489.728333	799.365234	167.352707
-174.257447	5489.728333	798.175781	180.472519
-174.257447	5489.728333	796.985352	185.850235
-174.257447	5489.728333	795.793945	157.823532
-174.257447	5489.728333	794.603516	29.698351
-174.257447	5489.728333	793.412109	37.560078
-174.257447	5489.728333	792.220703	86.422485
-174.257447	5489.728333	791.028320	130.097656
-174.257447	5489.728333	789.836914	-23.701038
-174.257447	5489.728333	788.644531	94.244408
-174.257447	5489.728333	787.452148	81.398071
-174.257447	5489.728333	786.258789	4.463521
-174.257447	5489.728333	785.066406	70.982513
-174.257447	5489.728333	783.873047	-98.198280
-174.257447	5489.728333	782.679688	-29.199614
-174.257447	5489.728333	781.485352	-116.439125
-174.257447	5489.728333	780.291992	-1.466608
-174.257447	5489.728333	779.097656	126.214767
-174.257447	5489.728333	777.903320	202.633789
-174.257447	5489.728333	776.708008	-137.979828
-174.257447	5489.728333	775.512695	263.189880
-174.257447	5489.728333	774.318359	17.238300
-174.257447	5489.728333	773.122070	32.107494
-174.257447	5489.728333	771.926758	67.379669
-174.257447	5489.728333	770.730469	97.487762
-174.257447	5489.728333	769.534180	155.648315
-174.257447	5489.728333	768.337891	264.831940
-174.257447	5489.728333	767.141602	205.381378
-174.257447	5489.728333	765.944336	248.045609
-174.257447	5489.728333	764.747070	239.598907
-174.257447	5489.728333	763.549805	261.743378
-174.257447	5489.728333	762.351563	240.459351
-174.257447	5489.728333	761.154297	193.634613
-174.257447	5489.728333	759.956055	355.939850
-174.257447	5489.728333	758.757813	0.470787
-174.257447	5489.728333	757.558594	231.506500
-174.257447	5489.728333	756.359375	153.974838
-174.257447	5489.728333	755.160156	247.184341
-174.257447	5489.728333	753.960938	195.082260
-174.257447	5489.728333	752.761719	428.275024
-174.257447	5489.728333	751.561523	258.918549
-174.257447	5489.728333	750.361328	104.871445
-174.257447	5489.728333	749.160156	200.339417
-174.257447	5489.728333	747.959961	183.735306
-174.257447	5489.728333	746.758789	-11.036445
-174.257447	5489.728333	745.557617	104.630051
-174.257447	5489.728333	744.356445	42.148865
-174.257447	5489.728333	743.154297	-76.296967
-174.257447	5489.728333	741.952148	31.561636
-174.257447	5489.728333	740.750000	174.925858
-174.257447	5489.728333	739.547852	71.655106
-174.257447	5489.728333	738.344727	214.868835
-174.257447	5489.728333	737.142578	192.850647
-174.257447	5489.728333	735.939453	112.379456
-174.257447	5489.728333	734.735352	-125.545769
-174.257447	5489.728333	733.532227	-43.504501
-174.257447	5489.728333	732.328125	370.991943
-174.257447	5489.728333	731.124023	341.147552
-174.257447	5489.728333	729.918945	237.690964
-174.257447	5489.728333	728.714844	93.650375
-174.257447	5489.728333	727.509766	177.894150
-174.257447	5489.728333	726.303711	-42.230068
-174.257447	5489.728333	725.098633	130.660614
-174.257447	5489.728333	723.892578	-170.550964
-174.257447	5489.728333	722.686523	-56.072697
-174.257447	5489.728333	721.480469	35.514450
-174.257447	5489.728333	720.274414	15.568001
-174.257447	5489.728333	719.067383	155.140610
-174.257447	5489.728333	717.860352	-26.954018
-174.257447	5489.728333	716.653320	-168.506760
-174.257447	5489.728333	715.445313	-72.130081
-174.257447	5489.728333	714.238281	-18.847738
-174.257447	5489.728333	713.030273	-322.346710
-174.257447	5489.728333	711.821289	-69.294922
-174.257447	5489.728333	710.613281	-71.800880
-174.257447	5489.728333	709.404297	26.787134
-174.257447	5489.728333	708.195313	82.323166
-174.257447	5489.728333	706.986328	13.961679
-174.257447	5489.728333	705.776367	-6.404130
-174.257447	5489.728333	704.566406	-112.690613
-174.257447	5489.728333	703.356445	-19.441534
-174.257447	5489.728333	702.146484	61.105015
-174.257447	5489.728333	700.935547	0.199555
-174.257447	5489.728333	699.724609	47.817482
-174.257447	5489.728333	698.513672	95.377945
-174.257447	5489.728333	697.302734	208.480759
-174.257447	5489.728333	696.090820	112.129303
-174.257447	5489.728333	694.878906	5.693629
-174.257447	5489.728333	693.666992	-120.906113
-174.257447	5489.728333	692.455078	90.313705
-174.257447	5489.728333	691.242188	-41.365303
-174.257447	5489.728333	690.029297	-24.354198
-174.257447	5489.728333	688.816406	83.310165
-174.257447	5489.728333	687.602539	158.146622
-174.257447	5489.728333	686.389648	84.341888
-174.257447	5489.728333	685.175781	45.779072
-174.257447	5489.728333	683.960938	165.777710
-174.257447	5489.728333	682.747070	200.128189
-174.257447	5489.728333	681.532227	342.620728
-174.257447	5489.728333	680.317383	208.303497
-174.257447	5489.728333	679.102539	81.553780
-174.257447	5489.728333	677.886719	25.228149
-174.257447	5489.728333	676.670898	-88.928825
-174.257447	5489.728333	675.455078	111.115402
-174.257447	5489.728333	674.239258	49.695148
-174.257447	5489.728333	673.022461	116.400322
-174.257447	5489.728333	671.805664	7.211945
-174.257447	5489.728333	670.588867	38.675289
-174.257447	5489.728333	669.372070	157.973328
-174.257447	5489.728333	668.154297	161.712479
-174.257447	5489.728333	666.936523	17.342678
-174.257447	5489.728333	665.718750	21.049812
-174.257447	5489.728333	664.500977	-128.307343
-174.257447	5489.728333	663.282227	178.858078
-174.257447	5489.728333	662.063477	290.267578
-174.257447	5489.728333	660.844727	-12.077521
-174.257447	5489.728333	659.625000	-81.211464
-174.257447	5489.728333	658.405273	-12.510344
-174.257447	5489.728333	657.185547	-69.142693
-174.257447	5489.728333	655.965820	-85.697937
-174.257447	5489.728333	654.745117	27.956568
-174.257447	5489.728333	653.525391	-3.689308
-174.257447	5489.728333	652.303711	-223.111557
-174.257447	5489.728333	651.083008	250.840515
-174.257447	5489.728333	649.861328	93.965904
-174.257447	5489.728333	648.640625	109.763420
-174.257447	5489.728333	647.417969	215.570358
-174.257447	5489.728333	646.196289	16.216372
-174.257447	5489.728333	644.973633	41.943680
-174.257447	5489.728333	643.750977	167.625519
-174.257447	5489.728333	642.528320	238.249695
-174.257447	5489.728333	641.305664	188.886002
-174.257447	5489.728333	640.082031	306.893524
-174.257447	5489.728333	638.858398	245.002029
-174.257447	5489.728333	637.634766	183.116333
-174.257447	5489.728333	636.410156	86.281013
-174.257447	5489.728333	635.185547	116.764961
-174.257447	5489.728333	633.960938	29.928080
-174.257447	5489.728333	632.736328	167.657593
-174.257447	5489.728333	631.510742	173.101608
-174.257447	5489.728333	630.285156	-85.829346
-174.257447	5489.728333	629.059570	131.568420
-174.257447	5489.728333	627.833984	136.965332
-174.257447	5489.728333	626.607422	204.649139
-174.257447	5489.728333	625.380859	105.338051
-174.257447	5489.728333	624.154297	1.070723
-174.257447	5489.728333	622.927734	88.622116
-174.257447	5489.728333	621.700195	168.647095
-174.257447	5489.728333	620.472656	223.728241
-174.257447	5489.728333	619.245117	47.282104
-174.257447	5489.728333	618.016602	-14.628227
-174.257447	5489.728333	616.788086	90.178467
-174.257447	5489.728333	615.559570	-158.305054
-174.257447	5489.728333	614.331055	108.124901
-174.257447	5489.728333	613.101563	195.398605
-174.257447	5489.728333	611.872070	-5.749001
-174.257447	5489.728333	610.642578	153.573318
-174.257447	5489.728333	609.413086	74.265549
-174.257447	5489.728333	608.182617	-136.694199
-174.257447	5489.728333	606.952148	-49.504547
-174.257447	5489.728333	605.721680	-46.792805
-174.257447	5489.728333	604.491211	75.088097
-174.257447	5489.728333	603.259766	5.771527
-174.257447	5489.728333	602.028320	117.648750
-174.257447	5489.728333	600.796875	-120.380219
-174.257447	5489.728333	599.564453	-77.995491
-174.257447	5489.728333	598.332031	-85.234497
-174.257447	5489.728333	597.099609	-107.349564
-174.257447	5489.728333	595.867188	-0.543209
-174.257447	5489.728333	594.633789	-22.674255
-174.257447	5489.728333	593.400391	-37.361187
-174.257447	5489.728333	592.166992	71.835083
-174.257447	5489.728333	590.933594	-61.761612
-174.257447	5489.728333	589.699219	-168.061829
-174.257447	5489.728333	588.464844	-135.661591
-174.257447	5489.728333	587.230469	-29.008558
-174.257447	5489.728333	585.995117	92.447662
-174.257447	5489.728333	584.760742	-130.079391
-174.257447	5489.728333	583.525391	-97.703423
-174.257447	5489.728333	582.289063	60.799828
-174.257447	5489.728333	581.053711	206.880173
-174.257447	5489.728333	579.817383	-131.662979
-174.257447	5489.728333	578.581055	-67.161034
-174.257447	5489.728333	577.343750	91.222527
-174.257447	5489.728333	576.107422	-22.224638
-174.257447	5489.728333	574.870117	141.040100
-174.257447	5489.728333	573.631836	-85.962143
-174.257447	5489.728333	572.394531	143.931198
-174.257447	5489.728333	571.156250	-31.114128
-174.257447	5489.728333	569.917969	-265.306610
-174.257447	5489.728333	568.679688	-97.180870
-174.257447	5489.728333	567.440430	127.622177
-174.257447	5489.728333	566.202148	-185.345383
-174.257447	5489.728333	564.961914	167.632202
-174.257447	5489.728333	563.722656	69.305099
-174.257447	5489.728333	562.482422	-14.180378
-174.257447	5489.728333	561.243164	210.434769
-174.257447	5489.728333	560.001953	3.789278
-174.257447	5489.728333	558.761719	48.510075
-174.257447	5489.728333	557.520508	19.341219
-174.257447	5489.728333	556.279297	71.455856
-174.257447	5489.728333	555.038086	2.941387
-174.257447	5489.728333	553.795898	160.901093
-174.257447	5489.728333	552.554688	279.445251
-174.257447	5489.728333	551.311523	14.165011
-174.257447	5489.728333	550.069336	-51.747646
-174.257447	5489.728333	548.826172	37.306969
-174.257447	5489.728333	547.583984	-1.498548
-174.257447	5489.728333	546.339844	139.163467
-174.257447	5489.728333	545.096680	166.743515
-174.257447	5489.728333	543.852539	88.679260
-174.257447	5489.728333	542.608398	113.842781
-174.257447	5489.728333	541.364258	-150.784119
-174.257447	5489.728333	540.119141	-71.519966
-174.257447	5489.728333	538.875000	61.744022
-174.257447	5489.728333	537.628906	45.251850
-174.257447	5489.728333	536.383789	146.577515
-174.257447	5489.728333	535.137695	22.175484
-174.257447	5489.728333	533.892578	0.872086
-174.257447	5489.728333	532.645508	205.203506
-174.257447	5489.728333	531.399414	213.336197
-174.257447	5489.728333	530.152344	125.889778
-174.257447	5489.728333	528.905273	190.449783
-174.257447	5489.728333	527.658203	85.945137
-174.257447	5489.728333	526.410156	40.300522
-174.257447	5489.728333	525.163086	21.643600
-174.257447	5489.728333	523.914063	7.912258
-174.257447	5489.728333	522.666016	153.338776
-174.257447	5489.728333	521.416992	129.847626
-174.257447	5489.728333	520.167969	-219.059906
-174.257447	5489.728333	518.918945	-27.118166
-174.257447	5489.728333	517.669922	81.604523
-174.257447	5489.728333	516.419922	-68.910477
-174.257447	5489.728333	515.169922	64.273468
-174.257447	5489.728333	513.919922	48.320381
-174.257447	5489.728333	512.668945	130.151077
-174.257447	5489.728333	511.417969	60.487206
-174.257447	5489.728333	510.166992	37.292515
-174.257447	5489.728333	508.916016	38.557102
-174.257447	5489.728333	507.664063	96.004501
-174.257447	5489.728333	506.412109	151.011444
-174.257447	5489.728333	505.160156	-86.863701
-174.257447	5489.728333	503.907227	24.332077
-174.257447	5489.728333	502.655273	-101.139061
-174.257447	5489.728333	501.402344	-141.163849
-174.257447	5489.728333	500.148438	-98.237663
-174.257447	5489.728333	498.895508	-77.246040
-174.257447	5489.728333	497.641602	-7.490705
-174.257447	5489.728333	496.387695	-152.199844
-174.257447	5489.728333	495.132813	-138.454681
-174.257447	5489.728333	493.878906	-336.619537
-174.257447	5489.728333	492.624023	-57.331104
-174.257447	5489.728333	491.368164	-94.684601
-174.257447	5489.728333	490.113281	74.926132
-174.257447	5489.728333	488.857422	86.279465
-174.257447	5489.728333	487.601563	14.912475
-174.257447	5489.728333	486.344727	77.399078
-174.257447	5489.728333	485.088867	64.476974
-174.257447	5489.728333	483.832031	122.098373
-174.257447	5489.728333	482.575195	-39.102238
-174.257447	5489.728333	481.317383	-64.099861
-174.257447	5489.728333	480.059570	-11.304045
-174.257447	5489.728333	478.801758	-206.345627
-174.257447	5489.728333	477.543945	52.963863
-174.257447	5489.728333	476.285156	-3.551883
-174.257447	5489.728333	475.027344	88.084534
-174.257447	5489.728333	473.767578	-182.024872
-174.257447	5489.728333	472.508789	-155.904343
-174.257447	5489.728333	471.249023	15.803434
-174.257447	5489.728333	469.989258	-176.460968
-174.257447	5489.728333	468.729492	-152.768204
-174.257447	5489.728333	467.469727	-51.481907
-174.257447	5489.728333	466.208984	120.068939
-174.257447	5489.728333	464.948242	-55.075672
-174.257447	5489.728333	463.686523	26.732723
-174.257447	5489.728333	462.425781	16.436758
-174.257447	5489.728333	461.164063	27.940248
-174.257447	5489.728333	459.901367	133.882156
-174.257447	5489.728333	458.639648	169.555542
-174.257447	5489.728333	457.376953	-131.288300
-174.257447	5489.728333	456.114258	15.736909
-174.257447	5489.728333	454.851563	58.636143
-174.257447	5489.728333	453.587891	38.599380
-174.257447	5489.728333	452.324219	134.652405
-174.257447	5489.728333	451.060547	-88.554489
-174.257447	5489.728333	449.796875	106.568382
-174.257447	5489.728333	448.532227	105.793716
-174.257447	5489.728333	447.267578	211.324844
-174.257447	5489.728333	446.002930	210.473907
-174.257447	5489.728333	444.737305	13.931336
-174.257447	5489.728333	443.471680	206.261642
-174.257447	5489.728333	442.206055	231.871536
-174.257447	5489.728333	440.940430	156.045532
-174.257447	5489.728333	439.673828	-4.262617
-174.257447	5489.728333	438.407227	281.851257
-174.257447	5489.728333	437.140625	157.683258
-174.257447	5489.728333	435.873047	376.008057
-174.257447	5489.728333	434.605469	278.294159
-174.257447	5489.728333	433.337891	175.747635
-174.257447	5489.728333	432.070313	-81.075027
-174.257447	5489.728333	430.801758	71.819183
-174.257447	5489.728333	429.533203	-105.491005
-174.257447	5489.728333	428.264648	92.976494
-174.257447	5489.728333	426.996094	402.066986
-174.257447	5489.728333	425.726563	41.598145
-174.257447	5489.728333	424.457031	92.839027
-174.257447	5489.728333	423.186523	317.254486
-174.257447	5489.728333	421.916992	175.753555
-174.257447	5489.728333	420.646484	118.418716
-174.257447	5489.728333	419.375977	48.990608
-174.257447	5489.728333	418.104492	121.363190
-174.257447	5489.728333	416.833008	292.170593
-174.257447	5489.728333	415.561523	342.620697
-174.257447	5489.728333	414.290039	150.233765
-174.257447	5489.728333	413.017578	118.780006
-174.257447	5489.728333	411.746094	204.923859
-174.257447	5489.728333	410.472656	-35.700520
-174.257447	5489.728333	409.200195	57.387817
-174.257447	5489.728333	407.926758	99.890953
-174.257447	5489.728333	406.653320	166.237930
-174.257447	5489.728333	405.379883	155.633926
-174.257447	5489.728333	404.105469	195.259933
-174.257447	5489.728333	402.831055	174.756943
-174.257447	5489.728333	401.556641	-8.944568
-174.257447	5489.728333	400.282227	178.852386
-174.257447	5489.728333	399.006836	-43.454285
-174.257447	5489.728333	397.731445	-153.213776
-174.257447	5489.728333	396.456055	218.440536
-174.257447	5489.728333	395.179688	261.597229
-174.257447	5489.728333	393.903320	168.047852
-174.257447	5489.728333	392.626953	91.102043
-174.257447	5489.728333	391.350586	138.457077
-174.257447	5489.728333	390.073242	257.371429
-174.257447	5489.728333	388.795898	64.979561
-174.257447	5489.728333	387.518555	78.170769
-174.257447	5489.728333	386.240234	213.092377
-174.257447	5489.728333	384.961914	173.173904
-174.257447	5489.728333	383.683594	104.345329
-174.257447	5489.728333	382.405273	75.929169
-174.257447	5489.728333	381.125977	166.739517
-174.257447	5489.728333	379.846680	159.299866
-174.257447	5489.728333	378.567383	125.322021
-174.257447	5489.728333	377.287109	124.505844
-174.257447	5489.728333	376.006836	99.532303
-174.257447	5489.728333	374.726563	203.171432
-174.257447	5489.728333	373.446289	337.489044
-174.257447	5489.728333	372.165039	41.978584
-174.257447	5489.728333	370.883789	82.614342
-174.257447	5489.728333	369.602539	-70.259903
-174.257447	5489.728333	368.320313	-89.887177
-174.257447	5489.728333	367.039063	119.008957
-174.257447	5489.728333	365.755859	10.471988
-174.257447	5489.728333	364.473633	-105.512108
-174.257447	5489.728333	363.190430	87.868668
-174.257447	5489.728333	361.907227	-66.937866
-174.257447	5489.728333	360.624023	-200.628845
-174.257447	5489.728333	359.340820	74.822105
-174.257447	5489.728333	358.056641	104.584702
-174.257447	5489.728333	356.772461	-96.900436
-174.257447	5489.728333	355.487305	172.335327
-174.257447	5489.728333	354.202148	-120.325684
-174.257447	5489.728333	352.916992	31.401999
-174.257447	5489.728333	351.631836	-59.896484
-174.257447	5489.728333	350.346680	-73.172264
-174.257447	5489.728333	349.060547	-44.148521
-174.257447	5489.728333	347.774414	-67.890205
-174.257447	5489.728333	346.487305	-125.383240
-174.257447	5489.728333	345.200195	44.643768
-174.257447	5489.728333	343.913086	-120.713165
-174.257447	5489.728333	342.625977	-106.102303
-174.257447	5489.728333	341.338867	-30.323404
-174.257447	5489.728333	340.050781	-40.564274
-174.257447	5489.728333	338.762695	74.378319
-174.257447	5489.728333	337.473633	-67.477531
-174.257447	5489.728333	336.184570	-98.397820
-174.257447	5489.728333	334.895508	-137.011169
-174.257447	5489.728333	333.606445	-211.766663
-174.257447	5489.728333	332.317383	-2.730730
-174.257447	5489.728333	331.027344	1.807034
-174.257447	5489.728333	329.736328	126.487465
-174.257447	5489.728333	328.446289	-50.288246
-174.257447	5489.728333	327.155273	35.143036
-174.257447	5489.728333	325.864258	39.370277
-174.257447	5489.728333	324.573242	52.369106
-174.257447	5489.728333	323.281250	38.603771
-174.257447	5489.728333	321.989258	142.406448
-174.257447	5489.728333	320.697266	-208.678360
-174.257447	5489.728333	319.405273	-47.234245
-174.257447	5489.728333	318.112305	-2.489252
-174.257447	5489.728333	316.819336	-64.902657
-174.257447	5489.728333	315.526367	160.214905
-174.257447	5489.728333	314.232422	37.105789
-174.257447	5489.728333	312.938477	-37.167553
-174.257447	5489.728333	311.644531	76.677513
-174.257447	5489.728333	310.349609	-136.225464
-174.257447	5489.728333	309.054688	58.463646
-174.257447	5489.728333	307.759766	209.705688
-174.257447	5489.728333	306.464844	116.960396
-174.257447	5489.728333	305.168945	216.745697
-174.257447	5489.728333	303.873047	150.467117
-174.257447	5489.728333	302.577148	260.116089
-174.257447	5489.728333	301.281250	201.380203
-174.257447	5489.728333	299.984375	250.074677
