#X		#Y		#Wave		#Intensity
11924.487766	1417.915000	1999.980469	57.557907
11924.487766	1417.915000	1999.016602	136.797806
11924.487766	1417.915000	1998.052734	157.224625
11924.487766	1417.915000	1997.087891	41.191906
11924.487766	1417.915000	1996.123047	91.052658
11924.487766	1417.915000	1995.158203	-139.177719
11924.487766	1417.915000	1994.193359	153.127411
11924.487766	1417.915000	1993.228516	53.931507
11924.487766	1417.915000	1992.262695	66.049835
11924.487766	1417.915000	1991.297852	-55.638115
11924.487766	1417.915000	1990.332031	-70.986008
11924.487766	1417.915000	1989.366211	-7.268344
11924.487766	1417.915000	1988.399414	-30.282040
11924.487766	1417.915000	1987.433594	240.947815
11924.487766	1417.915000	1986.466797	165.735184
11924.487766	1417.915000	1985.500977	122.586525
11924.487766	1417.915000	1984.534180	202.958740
11924.487766	1417.915000	1983.567383	-15.874577
11924.487766	1417.915000	1982.599609	-130.932159
11924.487766	1417.915000	1981.632813	-26.139645
11924.487766	1417.915000	1980.665039	80.992950
11924.487766	1417.915000	1979.697266	0.290090
11924.487766	1417.915000	1978.729492	-26.139479
11924.487766	1417.915000	1977.761719	233.758224
11924.487766	1417.915000	1976.792969	-12.558946
11924.487766	1417.915000	1975.825195	29.900953
11924.487766	1417.915000	1974.856445	55.000515
11924.487766	1417.915000	1973.887695	1.074046
11924.487766	1417.915000	1972.918945	40.835335
11924.487766	1417.915000	1971.949219	196.430054
11924.487766	1417.915000	1970.980469	277.934448
11924.487766	1417.915000	1970.010742	162.127136
11924.487766	1417.915000	1969.041016	-104.046242
11924.487766	1417.915000	1968.071289	-22.698406
11924.487766	1417.915000	1967.101563	-35.059307
11924.487766	1417.915000	1966.130859	275.248444
11924.487766	1417.915000	1965.161133	43.536732
11924.487766	1417.915000	1964.190430	343.774567
11924.487766	1417.915000	1963.219727	257.313812
11924.487766	1417.915000	1962.249023	28.071650
11924.487766	1417.915000	1961.277344	202.507019
11924.487766	1417.915000	1960.306641	-48.858116
11924.487766	1417.915000	1959.334961	189.426025
11924.487766	1417.915000	1958.363281	21.724899
11924.487766	1417.915000	1957.391602	90.152679
11924.487766	1417.915000	1956.419922	8.535421
11924.487766	1417.915000	1955.447266	17.884302
11924.487766	1417.915000	1954.474609	-12.122839
11924.487766	1417.915000	1953.501953	29.127987
11924.487766	1417.915000	1952.529297	-57.425064
11924.487766	1417.915000	1951.556641	199.958847
11924.487766	1417.915000	1950.583984	194.422852
11924.487766	1417.915000	1949.610352	117.656441
11924.487766	1417.915000	1948.636719	28.628292
11924.487766	1417.915000	1947.663086	-45.652378
11924.487766	1417.915000	1946.689453	142.694687
11924.487766	1417.915000	1945.715820	235.259644
11924.487766	1417.915000	1944.741211	129.054947
11924.487766	1417.915000	1943.767578	15.525270
11924.487766	1417.915000	1942.792969	149.728302
11924.487766	1417.915000	1941.818359	151.467499
11924.487766	1417.915000	1940.842773	50.233612
11924.487766	1417.915000	1939.868164	137.770020
11924.487766	1417.915000	1938.892578	90.483841
11924.487766	1417.915000	1937.916992	-30.291355
11924.487766	1417.915000	1936.941406	194.389709
11924.487766	1417.915000	1935.965820	245.088455
11924.487766	1417.915000	1934.990234	31.296009
11924.487766	1417.915000	1934.013672	-45.307690
11924.487766	1417.915000	1933.037109	118.015038
11924.487766	1417.915000	1932.060547	178.487610
11924.487766	1417.915000	1931.083984	48.074596
11924.487766	1417.915000	1930.107422	30.257170
11924.487766	1417.915000	1929.129883	44.248337
11924.487766	1417.915000	1928.153320	-103.169945
11924.487766	1417.915000	1927.175781	86.907135
11924.487766	1417.915000	1926.198242	59.340038
11924.487766	1417.915000	1925.219727	166.223526
11924.487766	1417.915000	1924.242188	197.318848
11924.487766	1417.915000	1923.263672	40.271980
11924.487766	1417.915000	1922.285156	193.540894
11924.487766	1417.915000	1921.306641	151.366226
11924.487766	1417.915000	1920.328125	4.211243
11924.487766	1417.915000	1919.349609	86.626106
11924.487766	1417.915000	1918.370117	-77.528915
11924.487766	1417.915000	1917.391602	-39.038818
11924.487766	1417.915000	1916.412109	-42.036961
11924.487766	1417.915000	1915.431641	-64.540634
11924.487766	1417.915000	1914.452148	100.798820
11924.487766	1417.915000	1913.472656	29.525156
11924.487766	1417.915000	1912.492188	-158.751450
11924.487766	1417.915000	1911.511719	-47.085148
11924.487766	1417.915000	1910.531250	186.424576
11924.487766	1417.915000	1909.550781	-74.849136
11924.487766	1417.915000	1908.569336	29.466589
11924.487766	1417.915000	1907.588867	29.005207
11924.487766	1417.915000	1906.607422	79.703705
11924.487766	1417.915000	1905.625977	69.516495
11924.487766	1417.915000	1904.644531	-16.129662
11924.487766	1417.915000	1903.662109	68.665398
11924.487766	1417.915000	1902.680664	-119.141846
11924.487766	1417.915000	1901.698242	-85.434685
11924.487766	1417.915000	1900.715820	150.203049
11924.487766	1417.915000	1899.733398	120.630638
11924.487766	1417.915000	1898.750000	-139.957825
11924.487766	1417.915000	1897.767578	-162.146133
11924.487766	1417.915000	1896.784180	80.671745
11924.487766	1417.915000	1895.800781	68.195992
11924.487766	1417.915000	1894.817383	-87.641907
11924.487766	1417.915000	1893.833984	72.451805
11924.487766	1417.915000	1892.850586	125.609749
11924.487766	1417.915000	1891.866211	37.888298
11924.487766	1417.915000	1890.881836	219.756058
11924.487766	1417.915000	1889.897461	10.677649
11924.487766	1417.915000	1888.913086	117.254379
11924.487766	1417.915000	1887.927734	70.901001
11924.487766	1417.915000	1886.943359	41.561638
11924.487766	1417.915000	1885.958008	-196.398788
11924.487766	1417.915000	1884.972656	-24.333105
11924.487766	1417.915000	1883.987305	-63.309971
11924.487766	1417.915000	1883.001953	84.437881
11924.487766	1417.915000	1882.015625	1.834955
11924.487766	1417.915000	1881.029297	-54.067341
11924.487766	1417.915000	1880.042969	168.745285
11924.487766	1417.915000	1879.056641	270.335968
11924.487766	1417.915000	1878.070313	-52.030045
11924.487766	1417.915000	1877.083984	68.954491
11924.487766	1417.915000	1876.096680	192.321518
11924.487766	1417.915000	1875.109375	114.698494
11924.487766	1417.915000	1874.122070	-120.229431
11924.487766	1417.915000	1873.134766	32.162338
11924.487766	1417.915000	1872.146484	-4.235870
11924.487766	1417.915000	1871.159180	240.018661
11924.487766	1417.915000	1870.170898	-16.507845
11924.487766	1417.915000	1869.182617	22.103979
11924.487766	1417.915000	1868.194336	58.287296
11924.487766	1417.915000	1867.205078	84.788864
11924.487766	1417.915000	1866.216797	19.439034
11924.487766	1417.915000	1865.227539	-50.719410
11924.487766	1417.915000	1864.238281	101.430122
11924.487766	1417.915000	1863.249023	-53.261257
11924.487766	1417.915000	1862.259766	23.962820
11924.487766	1417.915000	1861.269531	-14.749533
11924.487766	1417.915000	1860.279297	47.952633
11924.487766	1417.915000	1859.290039	59.939785
11924.487766	1417.915000	1858.298828	83.986305
11924.487766	1417.915000	1857.308594	4.268020
11924.487766	1417.915000	1856.318359	-82.659729
11924.487766	1417.915000	1855.327148	-10.366635
11924.487766	1417.915000	1854.335938	30.546091
11924.487766	1417.915000	1853.344727	-49.115402
11924.487766	1417.915000	1852.353516	-172.142624
11924.487766	1417.915000	1851.362305	117.014732
11924.487766	1417.915000	1850.370117	131.347488
11924.487766	1417.915000	1849.377930	-18.163542
11924.487766	1417.915000	1848.385742	0.994836
11924.487766	1417.915000	1847.393555	61.080906
11924.487766	1417.915000	1846.401367	-11.298400
11924.487766	1417.915000	1845.408203	68.011787
11924.487766	1417.915000	1844.415039	12.490352
11924.487766	1417.915000	1843.421875	7.518641
11924.487766	1417.915000	1842.428711	156.531708
11924.487766	1417.915000	1841.435547	105.808350
11924.487766	1417.915000	1840.441406	79.145973
11924.487766	1417.915000	1839.448242	-19.660110
11924.487766	1417.915000	1838.454102	-29.481405
11924.487766	1417.915000	1837.459961	-159.503021
11924.487766	1417.915000	1836.464844	37.373203
11924.487766	1417.915000	1835.470703	-66.204811
11924.487766	1417.915000	1834.475586	-100.086182
11924.487766	1417.915000	1833.480469	63.000088
11924.487766	1417.915000	1832.485352	103.529114
11924.487766	1417.915000	1831.490234	11.965250
11924.487766	1417.915000	1830.495117	-50.771069
11924.487766	1417.915000	1829.499023	167.327408
11924.487766	1417.915000	1828.502930	-17.836401
11924.487766	1417.915000	1827.506836	101.768280
11924.487766	1417.915000	1826.510742	-37.768188
11924.487766	1417.915000	1825.513672	48.181519
11924.487766	1417.915000	1824.517578	50.152382
11924.487766	1417.915000	1823.520508	30.525473
11924.487766	1417.915000	1822.523438	92.387405
11924.487766	1417.915000	1821.526367	103.877388
11924.487766	1417.915000	1820.529297	-117.085098
11924.487766	1417.915000	1819.531250	-96.018326
11924.487766	1417.915000	1818.533203	71.131210
11924.487766	1417.915000	1817.535156	17.872849
11924.487766	1417.915000	1816.537109	172.922958
11924.487766	1417.915000	1815.539063	71.744019
11924.487766	1417.915000	1814.540039	-15.059277
11924.487766	1417.915000	1813.541992	-15.704409
11924.487766	1417.915000	1812.542969	53.011581
11924.487766	1417.915000	1811.543945	-146.238495
11924.487766	1417.915000	1810.543945	75.491791
11924.487766	1417.915000	1809.544922	122.557419
11924.487766	1417.915000	1808.544922	42.869190
11924.487766	1417.915000	1807.544922	6.211360
11924.487766	1417.915000	1806.544922	124.880432
11924.487766	1417.915000	1805.544922	37.992256
11924.487766	1417.915000	1804.544922	87.278893
11924.487766	1417.915000	1803.543945	-33.063366
11924.487766	1417.915000	1802.542969	35.267460
11924.487766	1417.915000	1801.541992	-1.510220
11924.487766	1417.915000	1800.541016	178.928452
11924.487766	1417.915000	1799.539063	-24.986914
11924.487766	1417.915000	1798.538086	179.192047
11924.487766	1417.915000	1797.536133	159.000656
11924.487766	1417.915000	1796.534180	98.237167
11924.487766	1417.915000	1795.532227	49.391521
11924.487766	1417.915000	1794.529297	181.747711
11924.487766	1417.915000	1793.527344	-38.802235
11924.487766	1417.915000	1792.524414	29.105856
11924.487766	1417.915000	1791.521484	111.254799
11924.487766	1417.915000	1790.518555	179.045685
11924.487766	1417.915000	1789.514648	-20.024719
11924.487766	1417.915000	1788.511719	-126.163658
11924.487766	1417.915000	1787.507813	-15.600970
11924.487766	1417.915000	1786.503906	75.841843
11924.487766	1417.915000	1785.500000	-70.819839
11924.487766	1417.915000	1784.496094	137.148132
11924.487766	1417.915000	1783.491211	11.878134
11924.487766	1417.915000	1782.486328	79.321274
11924.487766	1417.915000	1781.481445	-79.257042
11924.487766	1417.915000	1780.476563	-140.307205
11924.487766	1417.915000	1779.471680	-51.575497
11924.487766	1417.915000	1778.465820	29.954111
11924.487766	1417.915000	1777.460938	30.611254
11924.487766	1417.915000	1776.455078	21.726036
11924.487766	1417.915000	1775.449219	-44.212078
11924.487766	1417.915000	1774.442383	82.245468
11924.487766	1417.915000	1773.436523	-119.120232
11924.487766	1417.915000	1772.429688	185.319519
11924.487766	1417.915000	1771.422852	197.601227
11924.487766	1417.915000	1770.416016	65.052864
11924.487766	1417.915000	1769.409180	74.908699
11924.487766	1417.915000	1768.402344	32.524078
11924.487766	1417.915000	1767.394531	82.635468
11924.487766	1417.915000	1766.386719	137.433868
11924.487766	1417.915000	1765.378906	78.351784
11924.487766	1417.915000	1764.371094	149.653793
11924.487766	1417.915000	1763.362305	69.181709
11924.487766	1417.915000	1762.354492	-61.063808
11924.487766	1417.915000	1761.345703	-60.975216
11924.487766	1417.915000	1760.336914	140.449265
11924.487766	1417.915000	1759.328125	171.218384
11924.487766	1417.915000	1758.318359	-63.300797
11924.487766	1417.915000	1757.308594	0.566506
11924.487766	1417.915000	1756.299805	-23.213797
11924.487766	1417.915000	1755.290039	94.984032
11924.487766	1417.915000	1754.279297	-92.166306
11924.487766	1417.915000	1753.269531	-239.058990
11924.487766	1417.915000	1752.258789	25.657137
11924.487766	1417.915000	1751.249023	-26.674671
11924.487766	1417.915000	1750.238281	-41.194603
11924.487766	1417.915000	1749.226563	3.353118
11924.487766	1417.915000	1748.215820	-30.150894
11924.487766	1417.915000	1747.204102	49.751614
11924.487766	1417.915000	1746.193359	20.902340
11924.487766	1417.915000	1745.181641	-59.947617
11924.487766	1417.915000	1744.168945	26.885294
11924.487766	1417.915000	1743.157227	47.532063
11924.487766	1417.915000	1742.144531	-5.061086
11924.487766	1417.915000	1741.132813	-57.666328
11924.487766	1417.915000	1740.120117	0.630213
11924.487766	1417.915000	1739.106445	113.135170
11924.487766	1417.915000	1738.093750	-104.720291
11924.487766	1417.915000	1737.080078	-70.149429
11924.487766	1417.915000	1736.067383	-16.758999
11924.487766	1417.915000	1735.053711	3.561829
11924.487766	1417.915000	1734.040039	-30.382328
11924.487766	1417.915000	1733.025391	-328.328583
11924.487766	1417.915000	1732.011719	54.827557
11924.487766	1417.915000	1730.997070	46.696663
11924.487766	1417.915000	1729.982422	5.554227
11924.487766	1417.915000	1728.967773	11.495132
11924.487766	1417.915000	1727.952148	5.620037
11924.487766	1417.915000	1726.937500	-85.036545
11924.487766	1417.915000	1725.921875	134.999954
11924.487766	1417.915000	1724.906250	-56.914726
11924.487766	1417.915000	1723.890625	-39.384869
11924.487766	1417.915000	1722.875000	-203.034302
11924.487766	1417.915000	1721.858398	35.527504
11924.487766	1417.915000	1720.841797	-130.497818
11924.487766	1417.915000	1719.825195	72.623322
11924.487766	1417.915000	1718.808594	0.609923
11924.487766	1417.915000	1717.791992	-19.706743
11924.487766	1417.915000	1716.774414	-21.255590
11924.487766	1417.915000	1715.756836	-39.282085
11924.487766	1417.915000	1714.739258	111.779442
11924.487766	1417.915000	1713.721680	107.758362
11924.487766	1417.915000	1712.704102	19.179335
11924.487766	1417.915000	1711.685547	97.268608
11924.487766	1417.915000	1710.667969	88.459236
11924.487766	1417.915000	1709.649414	159.400696
11924.487766	1417.915000	1708.630859	164.590912
11924.487766	1417.915000	1707.611328	-10.873848
11924.487766	1417.915000	1706.592773	59.950481
11924.487766	1417.915000	1705.573242	210.433853
11924.487766	1417.915000	1704.553711	159.216934
11924.487766	1417.915000	1703.534180	37.673061
11924.487766	1417.915000	1702.513672	-44.020535
11924.487766	1417.915000	1701.494141	47.671314
11924.487766	1417.915000	1700.473633	97.128090
11924.487766	1417.915000	1699.453125	-82.986923
11924.487766	1417.915000	1698.432617	139.697693
11924.487766	1417.915000	1697.412109	102.397141
11924.487766	1417.915000	1696.390625	46.352947
11924.487766	1417.915000	1695.369141	86.251961
11924.487766	1417.915000	1694.347656	44.214657
11924.487766	1417.915000	1693.326172	16.203302
11924.487766	1417.915000	1692.304688	27.936041
11924.487766	1417.915000	1691.282227	-60.921848
11924.487766	1417.915000	1690.260742	37.275749
11924.487766	1417.915000	1689.238281	67.614868
11924.487766	1417.915000	1688.214844	9.100719
11924.487766	1417.915000	1687.192383	-93.808922
11924.487766	1417.915000	1686.168945	-91.577934
11924.487766	1417.915000	1685.146484	92.823830
11924.487766	1417.915000	1684.123047	45.927521
11924.487766	1417.915000	1683.099609	-21.988874
11924.487766	1417.915000	1682.075195	-31.547335
11924.487766	1417.915000	1681.051758	61.576408
11924.487766	1417.915000	1680.027344	89.297157
11924.487766	1417.915000	1679.002930	317.630310
11924.487766	1417.915000	1677.978516	130.644623
11924.487766	1417.915000	1676.953125	118.618462
11924.487766	1417.915000	1675.928711	108.912422
11924.487766	1417.915000	1674.903320	162.129623
11924.487766	1417.915000	1673.877930	238.613678
11924.487766	1417.915000	1672.852539	-22.856653
11924.487766	1417.915000	1671.826172	249.304535
11924.487766	1417.915000	1670.800781	481.746124
11924.487766	1417.915000	1669.774414	131.814209
11924.487766	1417.915000	1668.748047	17.187510
11924.487766	1417.915000	1667.721680	151.698502
11924.487766	1417.915000	1666.694336	32.416420
11924.487766	1417.915000	1665.667969	15.567451
11924.487766	1417.915000	1664.640625	201.135300
11924.487766	1417.915000	1663.613281	188.875870
11924.487766	1417.915000	1662.585938	288.248627
11924.487766	1417.915000	1661.557617	189.900879
11924.487766	1417.915000	1660.530273	42.757191
11924.487766	1417.915000	1659.501953	-129.919540
11924.487766	1417.915000	1658.473633	155.304413
11924.487766	1417.915000	1657.444336	-28.977394
11924.487766	1417.915000	1656.416016	279.323761
11924.487766	1417.915000	1655.386719	69.515656
11924.487766	1417.915000	1654.358398	40.921379
11924.487766	1417.915000	1653.328125	51.787430
11924.487766	1417.915000	1652.298828	246.035309
11924.487766	1417.915000	1651.269531	245.238052
11924.487766	1417.915000	1650.239258	116.798798
11924.487766	1417.915000	1649.208984	171.683563
11924.487766	1417.915000	1648.178711	323.963165
11924.487766	1417.915000	1647.148438	420.515076
11924.487766	1417.915000	1646.117188	308.333191
11924.487766	1417.915000	1645.086914	393.245667
11924.487766	1417.915000	1644.055664	385.399994
11924.487766	1417.915000	1643.024414	502.688965
11924.487766	1417.915000	1641.992188	524.928772
11924.487766	1417.915000	1640.960938	482.298218
11924.487766	1417.915000	1639.928711	536.947632
11924.487766	1417.915000	1638.896484	450.322662
11924.487766	1417.915000	1637.864258	511.894470
11924.487766	1417.915000	1636.832031	575.754456
11924.487766	1417.915000	1635.798828	644.209961
11924.487766	1417.915000	1634.766602	696.446594
11924.487766	1417.915000	1633.733398	771.788574
11924.487766	1417.915000	1632.699219	687.506958
11924.487766	1417.915000	1631.666016	563.952393
11924.487766	1417.915000	1630.632813	828.857056
11924.487766	1417.915000	1629.598633	675.268555
11924.487766	1417.915000	1628.564453	745.914795
11924.487766	1417.915000	1627.530273	851.193665
11924.487766	1417.915000	1626.495117	720.791504
11924.487766	1417.915000	1625.460938	823.730896
11924.487766	1417.915000	1624.425781	924.318420
11924.487766	1417.915000	1623.390625	692.399109
11924.487766	1417.915000	1622.355469	963.800720
11924.487766	1417.915000	1621.319336	847.363770
11924.487766	1417.915000	1620.284180	786.363647
11924.487766	1417.915000	1619.248047	711.544617
11924.487766	1417.915000	1618.211914	862.806396
11924.487766	1417.915000	1617.174805	894.092163
11924.487766	1417.915000	1616.138672	817.010193
11924.487766	1417.915000	1615.101563	760.709106
11924.487766	1417.915000	1614.065430	745.929993
11924.487766	1417.915000	1613.027344	862.501587
11924.487766	1417.915000	1611.990234	790.124512
11924.487766	1417.915000	1610.953125	692.447021
11924.487766	1417.915000	1609.915039	1009.352966
11924.487766	1417.915000	1608.876953	932.409851
11924.487766	1417.915000	1607.838867	830.186462
11924.487766	1417.915000	1606.800781	608.328918
11924.487766	1417.915000	1605.761719	814.588074
11924.487766	1417.915000	1604.723633	714.785950
11924.487766	1417.915000	1603.684570	861.164124
11924.487766	1417.915000	1602.644531	805.106018
11924.487766	1417.915000	1601.605469	778.982178
11924.487766	1417.915000	1600.566406	860.935303
11924.487766	1417.915000	1599.526367	986.538574
11924.487766	1417.915000	1598.486328	703.054810
11924.487766	1417.915000	1597.446289	752.852600
11924.487766	1417.915000	1596.405273	906.014160
11924.487766	1417.915000	1595.365234	753.677368
11924.487766	1417.915000	1594.324219	778.224915
11924.487766	1417.915000	1593.283203	724.724060
11924.487766	1417.915000	1592.242188	845.712402
11924.487766	1417.915000	1591.200195	594.890320
11924.487766	1417.915000	1590.159180	839.797913
11924.487766	1417.915000	1589.117188	855.223328
11924.487766	1417.915000	1588.075195	845.434814
11924.487766	1417.915000	1587.032227	592.595825
11924.487766	1417.915000	1585.990234	825.931763
11924.487766	1417.915000	1584.947266	903.321716
11924.487766	1417.915000	1583.904297	769.861145
11924.487766	1417.915000	1582.861328	867.901917
11924.487766	1417.915000	1581.818359	794.112610
11924.487766	1417.915000	1580.775391	736.409729
11924.487766	1417.915000	1579.731445	887.138367
11924.487766	1417.915000	1578.687500	802.011963
11924.487766	1417.915000	1577.643555	856.579834
11924.487766	1417.915000	1576.598633	879.107178
11924.487766	1417.915000	1575.554688	812.418457
11924.487766	1417.915000	1574.509766	949.388489
11924.487766	1417.915000	1573.464844	953.669800
11924.487766	1417.915000	1572.419922	923.675110
11924.487766	1417.915000	1571.374023	909.722412
11924.487766	1417.915000	1570.329102	827.229675
11924.487766	1417.915000	1569.283203	1014.485962
11924.487766	1417.915000	1568.237305	776.677979
11924.487766	1417.915000	1567.191406	701.201660
11924.487766	1417.915000	1566.144531	703.443542
11924.487766	1417.915000	1565.098633	870.148499
11924.487766	1417.915000	1564.051758	728.575500
11924.487766	1417.915000	1563.004883	865.594727
11924.487766	1417.915000	1561.957031	1146.377075
11924.487766	1417.915000	1560.910156	799.560608
11924.487766	1417.915000	1559.862305	993.619446
11924.487766	1417.915000	1558.814453	991.467529
11924.487766	1417.915000	1557.766602	708.841675
11924.487766	1417.915000	1556.718750	827.664978
11924.487766	1417.915000	1555.669922	677.470947
11924.487766	1417.915000	1554.621094	645.892090
11924.487766	1417.915000	1553.573242	817.177979
11924.487766	1417.915000	1552.523438	797.046204
11924.487766	1417.915000	1551.474609	868.078857
11924.487766	1417.915000	1550.424805	961.893127
11924.487766	1417.915000	1549.375000	953.243530
11924.487766	1417.915000	1548.325195	983.337402
11924.487766	1417.915000	1547.275391	863.236694
11924.487766	1417.915000	1546.225586	868.384155
11924.487766	1417.915000	1545.174805	878.115173
11924.487766	1417.915000	1544.124023	696.805115
11924.487766	1417.915000	1543.073242	815.813721
11924.487766	1417.915000	1542.022461	900.709595
11924.487766	1417.915000	1540.970703	701.434937
11924.487766	1417.915000	1539.919922	722.759949
11924.487766	1417.915000	1538.868164	796.383850
11924.487766	1417.915000	1537.815430	865.473083
11924.487766	1417.915000	1536.763672	848.261658
11924.487766	1417.915000	1535.710938	592.624756
11924.487766	1417.915000	1534.659180	834.421021
11924.487766	1417.915000	1533.606445	408.705658
11924.487766	1417.915000	1532.552734	652.795471
11924.487766	1417.915000	1531.500000	381.690491
11924.487766	1417.915000	1530.446289	795.948059
11924.487766	1417.915000	1529.393555	679.269104
11924.487766	1417.915000	1528.338867	555.871216
11924.487766	1417.915000	1527.285156	516.471069
11924.487766	1417.915000	1526.231445	517.942688
11924.487766	1417.915000	1525.176758	372.122406
11924.487766	1417.915000	1524.122070	319.322052
11924.487766	1417.915000	1523.067383	538.485291
11924.487766	1417.915000	1522.012695	567.321350
11924.487766	1417.915000	1520.957031	331.198853
11924.487766	1417.915000	1519.901367	314.868927
11924.487766	1417.915000	1518.845703	300.858246
11924.487766	1417.915000	1517.790039	19.803719
11924.487766	1417.915000	1516.734375	168.898010
11924.487766	1417.915000	1515.677734	168.645691
11924.487766	1417.915000	1514.621094	247.619888
11924.487766	1417.915000	1513.564453	213.525940
11924.487766	1417.915000	1512.507813	-3.670123
11924.487766	1417.915000	1511.450195	3.093089
11924.487766	1417.915000	1510.393555	150.052902
11924.487766	1417.915000	1509.335938	179.484253
11924.487766	1417.915000	1508.278320	12.377915
11924.487766	1417.915000	1507.219727	-28.104919
11924.487766	1417.915000	1506.162109	164.120331
11924.487766	1417.915000	1505.103516	10.819172
11924.487766	1417.915000	1504.044922	151.135529
11924.487766	1417.915000	1502.986328	65.720970
11924.487766	1417.915000	1501.926758	-3.810982
11924.487766	1417.915000	1500.868164	-39.415325
11924.487766	1417.915000	1499.808594	-41.114155
11924.487766	1417.915000	1498.749023	-15.693502
11924.487766	1417.915000	1497.688477	84.185936
11924.487766	1417.915000	1496.628906	127.715210
11924.487766	1417.915000	1495.568359	234.397049
11924.487766	1417.915000	1494.507813	84.168808
11924.487766	1417.915000	1493.447266	175.151733
11924.487766	1417.915000	1492.386719	-31.215570
11924.487766	1417.915000	1491.325195	82.386955
11924.487766	1417.915000	1490.263672	-13.428730
11924.487766	1417.915000	1489.202148	21.433189
11924.487766	1417.915000	1488.140625	-76.472473
11924.487766	1417.915000	1487.079102	-23.496201
11924.487766	1417.915000	1486.016602	25.013361
11924.487766	1417.915000	1484.954102	-203.149506
11924.487766	1417.915000	1483.891602	61.412762
11924.487766	1417.915000	1482.829102	-74.354431
11924.487766	1417.915000	1481.765625	-81.854240
11924.487766	1417.915000	1480.702148	-19.617804
11924.487766	1417.915000	1479.638672	92.103012
11924.487766	1417.915000	1478.575195	-18.615555
11924.487766	1417.915000	1477.511719	-64.066399
11924.487766	1417.915000	1476.447266	-44.337002
11924.487766	1417.915000	1475.382813	-141.320114
11924.487766	1417.915000	1474.318359	-159.585037
11924.487766	1417.915000	1473.253906	176.761871
11924.487766	1417.915000	1472.189453	-186.997162
11924.487766	1417.915000	1471.124023	97.621956
11924.487766	1417.915000	1470.058594	14.487877
11924.487766	1417.915000	1468.993164	52.720749
11924.487766	1417.915000	1467.927734	-7.973342
11924.487766	1417.915000	1466.861328	-73.024216
11924.487766	1417.915000	1465.794922	-12.078079
11924.487766	1417.915000	1464.728516	84.376801
11924.487766	1417.915000	1463.662109	171.945892
11924.487766	1417.915000	1462.594727	138.288452
11924.487766	1417.915000	1461.528320	85.104584
11924.487766	1417.915000	1460.460938	334.007751
11924.487766	1417.915000	1459.393555	318.397308
11924.487766	1417.915000	1458.326172	381.321075
11924.487766	1417.915000	1457.257813	317.419983
11924.487766	1417.915000	1456.189453	210.822708
11924.487766	1417.915000	1455.121094	114.812401
11924.487766	1417.915000	1454.052734	274.448608
11924.487766	1417.915000	1452.984375	397.912933
11924.487766	1417.915000	1451.915039	255.978378
11924.487766	1417.915000	1450.845703	479.986206
11924.487766	1417.915000	1449.776367	298.164886
11924.487766	1417.915000	1448.707031	272.911835
11924.487766	1417.915000	1447.636719	342.749237
11924.487766	1417.915000	1446.567383	417.288788
11924.487766	1417.915000	1445.497070	535.834839
11924.487766	1417.915000	1444.425781	266.085632
11924.487766	1417.915000	1443.355469	338.817566
11924.487766	1417.915000	1442.285156	514.934814
11924.487766	1417.915000	1441.213867	495.767517
11924.487766	1417.915000	1440.142578	420.482483
11924.487766	1417.915000	1439.070313	613.691223
11924.487766	1417.915000	1437.999023	487.279938
11924.487766	1417.915000	1436.926758	345.301727
11924.487766	1417.915000	1435.854492	532.601990
11924.487766	1417.915000	1434.782227	512.482361
11924.487766	1417.915000	1433.709961	564.778687
11924.487766	1417.915000	1432.636719	354.748169
11924.487766	1417.915000	1431.563477	545.975220
11924.487766	1417.915000	1430.490234	486.005615
11924.487766	1417.915000	1429.416992	407.531586
11924.487766	1417.915000	1428.343750	390.010010
11924.487766	1417.915000	1427.269531	415.701385
11924.487766	1417.915000	1426.195313	227.327423
11924.487766	1417.915000	1425.121094	425.047211
11924.487766	1417.915000	1424.046875	226.549988
11924.487766	1417.915000	1422.971680	365.681396
11924.487766	1417.915000	1421.896484	372.534058
11924.487766	1417.915000	1420.821289	87.392021
11924.487766	1417.915000	1419.746094	410.992371
11924.487766	1417.915000	1418.669922	505.993439
11924.487766	1417.915000	1417.594727	448.947266
11924.487766	1417.915000	1416.518555	670.656006
11924.487766	1417.915000	1415.442383	385.543030
11924.487766	1417.915000	1414.365234	388.256104
11924.487766	1417.915000	1413.289063	198.929855
11924.487766	1417.915000	1412.211914	382.951813
11924.487766	1417.915000	1411.134766	364.392548
11924.487766	1417.915000	1410.057617	184.454041
11924.487766	1417.915000	1408.979492	289.667053
11924.487766	1417.915000	1407.902344	181.455780
11924.487766	1417.915000	1406.824219	320.300964
11924.487766	1417.915000	1405.746094	368.020966
11924.487766	1417.915000	1404.666992	569.874329
11924.487766	1417.915000	1403.588867	521.649109
11924.487766	1417.915000	1402.509766	369.800995
11924.487766	1417.915000	1401.430664	329.364960
11924.487766	1417.915000	1400.351563	307.412109
11924.487766	1417.915000	1399.271484	410.648376
11924.487766	1417.915000	1398.192383	335.675751
11924.487766	1417.915000	1397.112305	387.977814
11924.487766	1417.915000	1396.031250	556.112061
11924.487766	1417.915000	1394.951172	533.008240
11924.487766	1417.915000	1393.871094	366.322723
11924.487766	1417.915000	1392.790039	404.933563
11924.487766	1417.915000	1391.708984	464.364563
11924.487766	1417.915000	1390.626953	479.309326
11924.487766	1417.915000	1389.545898	498.269501
11924.487766	1417.915000	1388.463867	362.394379
11924.487766	1417.915000	1387.381836	635.026855
11924.487766	1417.915000	1386.299805	519.517273
11924.487766	1417.915000	1385.217773	597.500061
11924.487766	1417.915000	1384.134766	390.246277
11924.487766	1417.915000	1383.051758	567.113342
11924.487766	1417.915000	1381.968750	533.559875
11924.487766	1417.915000	1380.885742	370.134460
11924.487766	1417.915000	1379.802734	235.970566
11924.487766	1417.915000	1378.718750	383.731995
11924.487766	1417.915000	1377.634766	529.177246
11924.487766	1417.915000	1376.550781	571.162537
11924.487766	1417.915000	1375.465820	505.820465
11924.487766	1417.915000	1374.381836	376.407257
11924.487766	1417.915000	1373.296875	354.791168
11924.487766	1417.915000	1372.211914	314.222687
11924.487766	1417.915000	1371.126953	409.678040
11924.487766	1417.915000	1370.041016	358.178772
11924.487766	1417.915000	1368.955078	177.477188
11924.487766	1417.915000	1367.869141	387.925507
11924.487766	1417.915000	1366.783203	341.066345
11924.487766	1417.915000	1365.697266	295.360321
11924.487766	1417.915000	1364.610352	101.315468
11924.487766	1417.915000	1363.523438	255.217117
11924.487766	1417.915000	1362.436523	341.469208
11924.487766	1417.915000	1361.349609	320.313599
11924.487766	1417.915000	1360.261719	317.610992
11924.487766	1417.915000	1359.174805	463.534485
11924.487766	1417.915000	1358.086914	321.157410
11924.487766	1417.915000	1356.998047	433.713013
11924.487766	1417.915000	1355.910156	380.059570
11924.487766	1417.915000	1354.821289	428.714142
11924.487766	1417.915000	1353.732422	569.790710
11924.487766	1417.915000	1352.643555	591.220581
11924.487766	1417.915000	1351.554688	450.491669
11924.487766	1417.915000	1350.464844	540.680847
11924.487766	1417.915000	1349.375000	492.971344
11924.487766	1417.915000	1348.285156	600.914551
11924.487766	1417.915000	1347.195313	570.304016
11924.487766	1417.915000	1346.105469	814.530090
11924.487766	1417.915000	1345.014648	729.396240
11924.487766	1417.915000	1343.923828	708.709595
11924.487766	1417.915000	1342.833008	852.109436
11924.487766	1417.915000	1341.741211	781.374023
11924.487766	1417.915000	1340.650391	715.454529
11924.487766	1417.915000	1339.558594	688.907837
11924.487766	1417.915000	1338.466797	675.323181
11924.487766	1417.915000	1337.374023	474.478943
11924.487766	1417.915000	1336.282227	632.049561
11924.487766	1417.915000	1335.189453	547.105042
11924.487766	1417.915000	1334.096680	549.567322
11924.487766	1417.915000	1333.003906	476.574707
11924.487766	1417.915000	1331.910156	571.802246
11924.487766	1417.915000	1330.817383	679.954407
11924.487766	1417.915000	1329.723633	546.445129
11924.487766	1417.915000	1328.629883	532.489258
11924.487766	1417.915000	1327.535156	511.759003
11924.487766	1417.915000	1326.441406	624.367737
11924.487766	1417.915000	1325.346680	580.062744
11924.487766	1417.915000	1324.251953	552.776428
11924.487766	1417.915000	1323.156250	542.886169
11924.487766	1417.915000	1322.061523	598.783508
11924.487766	1417.915000	1320.965820	659.990356
11924.487766	1417.915000	1319.870117	536.808044
11924.487766	1417.915000	1318.774414	532.904297
11924.487766	1417.915000	1317.678711	654.360657
11924.487766	1417.915000	1316.582031	646.267578
11924.487766	1417.915000	1315.485352	748.849365
11924.487766	1417.915000	1314.388672	524.630005
11924.487766	1417.915000	1313.291016	415.046692
11924.487766	1417.915000	1312.194336	554.634033
11924.487766	1417.915000	1311.096680	587.393738
11924.487766	1417.915000	1309.999023	577.538330
11924.487766	1417.915000	1308.901367	357.267517
11924.487766	1417.915000	1307.802734	372.707092
11924.487766	1417.915000	1306.705078	466.220551
11924.487766	1417.915000	1305.606445	410.338196
11924.487766	1417.915000	1304.506836	285.126099
11924.487766	1417.915000	1303.408203	345.128296
11924.487766	1417.915000	1302.308594	317.726746
11924.487766	1417.915000	1301.208984	276.199097
11924.487766	1417.915000	1300.109375	302.949280
11924.487766	1417.915000	1299.009766	184.202499
11924.487766	1417.915000	1297.909180	281.964569
11924.487766	1417.915000	1296.808594	265.810913
11924.487766	1417.915000	1295.708008	200.338852
11924.487766	1417.915000	1294.607422	189.266678
11924.487766	1417.915000	1293.506836	212.845993
11924.487766	1417.915000	1292.405273	166.838562
11924.487766	1417.915000	1291.303711	217.006287
11924.487766	1417.915000	1290.202148	91.118271
11924.487766	1417.915000	1289.099609	96.755714
11924.487766	1417.915000	1287.998047	210.117401
11924.487766	1417.915000	1286.895508	25.309454
11924.487766	1417.915000	1285.792969	248.131760
11924.487766	1417.915000	1284.689453	68.591324
11924.487766	1417.915000	1283.586914	152.450302
11924.487766	1417.915000	1282.483398	200.637222
11924.487766	1417.915000	1281.379883	217.795624
11924.487766	1417.915000	1280.276367	204.839203
11924.487766	1417.915000	1279.171875	166.538727
11924.487766	1417.915000	1278.067383	71.616806
11924.487766	1417.915000	1276.962891	138.557465
11924.487766	1417.915000	1275.858398	159.134705
11924.487766	1417.915000	1274.753906	156.035660
11924.487766	1417.915000	1273.648438	18.728432
11924.487766	1417.915000	1272.542969	165.576202
11924.487766	1417.915000	1271.437500	93.015144
11924.487766	1417.915000	1270.331055	134.123718
11924.487766	1417.915000	1269.225586	62.709656
11924.487766	1417.915000	1268.119141	144.626617
11924.487766	1417.915000	1267.012695	116.417435
11924.487766	1417.915000	1265.906250	10.780959
11924.487766	1417.915000	1264.798828	36.726387
11924.487766	1417.915000	1263.691406	114.507462
11924.487766	1417.915000	1262.583984	-58.830273
11924.487766	1417.915000	1261.476563	51.089760
11924.487766	1417.915000	1260.368164	169.889114
11924.487766	1417.915000	1259.260742	10.898798
11924.487766	1417.915000	1258.152344	63.100567
11924.487766	1417.915000	1257.043945	24.457111
11924.487766	1417.915000	1255.934570	86.937660
11924.487766	1417.915000	1254.825195	74.560562
11924.487766	1417.915000	1253.716797	103.565826
11924.487766	1417.915000	1252.606445	51.117752
11924.487766	1417.915000	1251.497070	135.417542
11924.487766	1417.915000	1250.387695	128.513550
11924.487766	1417.915000	1249.277344	58.465862
11924.487766	1417.915000	1248.166992	133.122894
11924.487766	1417.915000	1247.055664	75.823051
11924.487766	1417.915000	1245.945313	-50.402546
11924.487766	1417.915000	1244.833984	-108.212639
11924.487766	1417.915000	1243.722656	-159.705124
11924.487766	1417.915000	1242.611328	98.211464
11924.487766	1417.915000	1241.499023	52.855053
11924.487766	1417.915000	1240.387695	-72.660248
11924.487766	1417.915000	1239.275391	-8.951157
11924.487766	1417.915000	1238.162109	66.886299
11924.487766	1417.915000	1237.049805	75.886139
11924.487766	1417.915000	1235.936523	120.771507
11924.487766	1417.915000	1234.823242	204.591965
11924.487766	1417.915000	1233.709961	202.493683
11924.487766	1417.915000	1232.596680	76.029076
11924.487766	1417.915000	1231.482422	113.624496
11924.487766	1417.915000	1230.369141	-27.149889
11924.487766	1417.915000	1229.253906	76.306923
11924.487766	1417.915000	1228.139648	-4.328372
11924.487766	1417.915000	1227.025391	96.020981
11924.487766	1417.915000	1225.910156	-89.009659
11924.487766	1417.915000	1224.794922	-43.932236
11924.487766	1417.915000	1223.679688	-43.295876
11924.487766	1417.915000	1222.563477	62.258400
11924.487766	1417.915000	1221.447266	24.815350
11924.487766	1417.915000	1220.331055	-137.216141
11924.487766	1417.915000	1219.214844	-49.151791
11924.487766	1417.915000	1218.098633	-69.540718
11924.487766	1417.915000	1216.981445	-2.917504
11924.487766	1417.915000	1215.864258	6.537992
11924.487766	1417.915000	1214.747070	59.831345
11924.487766	1417.915000	1213.629883	-26.464481
11924.487766	1417.915000	1212.511719	97.555382
11924.487766	1417.915000	1211.393555	-5.575043
11924.487766	1417.915000	1210.275391	74.691833
11924.487766	1417.915000	1209.157227	110.633080
11924.487766	1417.915000	1208.038086	13.968002
11924.487766	1417.915000	1206.918945	118.283401
11924.487766	1417.915000	1205.799805	30.896391
11924.487766	1417.915000	1204.680664	24.045979
11924.487766	1417.915000	1203.560547	53.166294
11924.487766	1417.915000	1202.441406	5.006466
11924.487766	1417.915000	1201.321289	23.649858
11924.487766	1417.915000	1200.200195	-95.820786
11924.487766	1417.915000	1199.080078	29.331987
11924.487766	1417.915000	1197.958984	-83.270409
11924.487766	1417.915000	1196.837891	-15.516674
11924.487766	1417.915000	1195.716797	-34.089672
11924.487766	1417.915000	1194.594727	55.406612
11924.487766	1417.915000	1193.473633	-3.386953
11924.487766	1417.915000	1192.351563	105.754494
11924.487766	1417.915000	1191.229492	-116.905350
11924.487766	1417.915000	1190.106445	-48.168747
11924.487766	1417.915000	1188.984375	-66.870338
11924.487766	1417.915000	1187.861328	28.584808
11924.487766	1417.915000	1186.738281	-62.484894
11924.487766	1417.915000	1185.614258	-89.482307
11924.487766	1417.915000	1184.491211	15.277546
11924.487766	1417.915000	1183.367188	-55.583134
11924.487766	1417.915000	1182.243164	31.904516
11924.487766	1417.915000	1181.119141	-6.855408
11924.487766	1417.915000	1179.994141	57.656063
11924.487766	1417.915000	1178.869141	54.252552
11924.487766	1417.915000	1177.744141	-59.109097
11924.487766	1417.915000	1176.619141	-106.925163
11924.487766	1417.915000	1175.493164	-148.823212
11924.487766	1417.915000	1174.368164	-74.297714
11924.487766	1417.915000	1173.242188	-117.639732
11924.487766	1417.915000	1172.115234	-147.811401
11924.487766	1417.915000	1170.989258	-68.268051
11924.487766	1417.915000	1169.862305	-57.366238
11924.487766	1417.915000	1168.735352	4.647246
11924.487766	1417.915000	1167.608398	-38.446514
11924.487766	1417.915000	1166.481445	-40.261940
11924.487766	1417.915000	1165.353516	-134.059479
11924.487766	1417.915000	1164.225586	-6.829029
11924.487766	1417.915000	1163.097656	0.777893
11924.487766	1417.915000	1161.968750	-84.697433
11924.487766	1417.915000	1160.840820	-47.200344
11924.487766	1417.915000	1159.711914	-83.353210
11924.487766	1417.915000	1158.583008	-184.694672
11924.487766	1417.915000	1157.453125	19.077240
11924.487766	1417.915000	1156.324219	-16.472908
11924.487766	1417.915000	1155.194336	20.717949
11924.487766	1417.915000	1154.064453	41.448151
11924.487766	1417.915000	1152.933594	5.563574
11924.487766	1417.915000	1151.803711	-165.541016
11924.487766	1417.915000	1150.672852	-122.895439
11924.487766	1417.915000	1149.541992	-18.716898
11924.487766	1417.915000	1148.411133	-160.126617
11924.487766	1417.915000	1147.279297	-151.582474
11924.487766	1417.915000	1146.147461	-126.625870
11924.487766	1417.915000	1145.015625	-66.540115
11924.487766	1417.915000	1143.883789	-166.539185
11924.487766	1417.915000	1142.750977	-114.762657
11924.487766	1417.915000	1141.619141	-107.572319
11924.487766	1417.915000	1140.486328	-54.070477
11924.487766	1417.915000	1139.352539	42.493694
11924.487766	1417.915000	1138.219727	-65.629181
11924.487766	1417.915000	1137.085938	-3.622552
11924.487766	1417.915000	1135.952148	55.858093
11924.487766	1417.915000	1134.818359	90.200363
11924.487766	1417.915000	1133.683594	109.237228
11924.487766	1417.915000	1132.549805	62.147221
11924.487766	1417.915000	1131.415039	26.514317
11924.487766	1417.915000	1130.279297	120.712418
11924.487766	1417.915000	1129.144531	40.465073
11924.487766	1417.915000	1128.008789	185.033905
11924.487766	1417.915000	1126.873047	260.677673
11924.487766	1417.915000	1125.737305	300.489014
11924.487766	1417.915000	1124.601563	239.787277
11924.487766	1417.915000	1123.464844	150.666016
11924.487766	1417.915000	1122.328125	91.345963
11924.487766	1417.915000	1121.191406	266.948120
11924.487766	1417.915000	1120.054688	176.138504
11924.487766	1417.915000	1118.916992	187.645386
11924.487766	1417.915000	1117.779297	96.857521
11924.487766	1417.915000	1116.641602	243.697723
11924.487766	1417.915000	1115.503906	235.361267
11924.487766	1417.915000	1114.365234	50.533413
11924.487766	1417.915000	1113.226563	-21.107927
11924.487766	1417.915000	1112.087891	96.348335
11924.487766	1417.915000	1110.949219	-15.624189
11924.487766	1417.915000	1109.809570	201.109909
11924.487766	1417.915000	1108.669922	208.151443
11924.487766	1417.915000	1107.530273	205.298248
11924.487766	1417.915000	1106.390625	79.572754
11924.487766	1417.915000	1105.250000	106.062477
11924.487766	1417.915000	1104.109375	210.562637
11924.487766	1417.915000	1102.968750	76.475578
11924.487766	1417.915000	1101.828125	-19.030756
11924.487766	1417.915000	1100.686523	39.512917
11924.487766	1417.915000	1099.544922	22.759327
11924.487766	1417.915000	1098.403320	131.327606
11924.487766	1417.915000	1097.261719	333.015625
11924.487766	1417.915000	1096.120117	211.439545
11924.487766	1417.915000	1094.977539	101.052971
11924.487766	1417.915000	1093.834961	293.417908
11924.487766	1417.915000	1092.691406	144.398087
11924.487766	1417.915000	1091.548828	237.277756
11924.487766	1417.915000	1090.405273	131.581238
11924.487766	1417.915000	1089.261719	254.845184
11924.487766	1417.915000	1088.118164	201.322556
11924.487766	1417.915000	1086.973633	66.319366
11924.487766	1417.915000	1085.829102	241.024704
11924.487766	1417.915000	1084.684570	135.046005
11924.487766	1417.915000	1083.540039	2.731921
11924.487766	1417.915000	1082.395508	43.171341
11924.487766	1417.915000	1081.250000	124.112579
11924.487766	1417.915000	1080.104492	176.434280
11924.487766	1417.915000	1078.958984	-50.277599
11924.487766	1417.915000	1077.812500	56.003048
11924.487766	1417.915000	1076.666016	113.186661
11924.487766	1417.915000	1075.519531	71.767899
11924.487766	1417.915000	1074.373047	-27.414843
11924.487766	1417.915000	1073.226563	195.040817
11924.487766	1417.915000	1072.079102	48.474884
11924.487766	1417.915000	1070.931641	81.806656
11924.487766	1417.915000	1069.784180	80.517143
11924.487766	1417.915000	1068.635742	270.718262
11924.487766	1417.915000	1067.487305	105.768318
11924.487766	1417.915000	1066.338867	30.421293
11924.487766	1417.915000	1065.190430	-3.080594
11924.487766	1417.915000	1064.041992	112.541016
11924.487766	1417.915000	1062.892578	120.781754
11924.487766	1417.915000	1061.743164	46.317436
11924.487766	1417.915000	1060.593750	192.169586
11924.487766	1417.915000	1059.443359	41.928513
11924.487766	1417.915000	1058.292969	270.554749
11924.487766	1417.915000	1057.142578	-27.126450
11924.487766	1417.915000	1055.992188	147.552917
11924.487766	1417.915000	1054.841797	68.433731
11924.487766	1417.915000	1053.690430	15.677517
11924.487766	1417.915000	1052.539063	34.414322
11924.487766	1417.915000	1051.387695	92.313141
11924.487766	1417.915000	1050.235352	-154.550964
11924.487766	1417.915000	1049.083984	33.324390
11924.487766	1417.915000	1047.931641	102.224983
11924.487766	1417.915000	1046.778320	59.158138
11924.487766	1417.915000	1045.625977	-35.531853
11924.487766	1417.915000	1044.472656	75.316666
11924.487766	1417.915000	1043.319336	216.746002
11924.487766	1417.915000	1042.166016	90.125336
11924.487766	1417.915000	1041.012695	-16.889009
11924.487766	1417.915000	1039.858398	-224.658157
11924.487766	1417.915000	1038.704102	28.704498
11924.487766	1417.915000	1037.549805	-56.153526
11924.487766	1417.915000	1036.394531	26.143421
11924.487766	1417.915000	1035.239258	127.436096
11924.487766	1417.915000	1034.083984	77.267029
11924.487766	1417.915000	1032.928711	38.814522
11924.487766	1417.915000	1031.773438	38.331070
11924.487766	1417.915000	1030.617188	177.015976
11924.487766	1417.915000	1029.460938	138.459595
11924.487766	1417.915000	1028.304688	77.180046
11924.487766	1417.915000	1027.147461	126.769661
11924.487766	1417.915000	1025.991211	154.916031
11924.487766	1417.915000	1024.833984	231.283234
11924.487766	1417.915000	1023.675781	142.774597
11924.487766	1417.915000	1022.518555	85.225266
11924.487766	1417.915000	1021.360352	132.380280
11924.487766	1417.915000	1020.202148	17.568863
11924.487766	1417.915000	1019.043945	-77.959396
11924.487766	1417.915000	1017.884766	26.507818
11924.487766	1417.915000	1016.726563	47.734032
11924.487766	1417.915000	1015.567383	188.311279
11924.487766	1417.915000	1014.407227	-76.385880
11924.487766	1417.915000	1013.248047	9.115607
11924.487766	1417.915000	1012.087891	-40.603031
11924.487766	1417.915000	1010.927734	55.001911
11924.487766	1417.915000	1009.767578	84.967606
11924.487766	1417.915000	1008.606445	-90.076256
11924.487766	1417.915000	1007.446289	64.768349
11924.487766	1417.915000	1006.285156	82.655731
11924.487766	1417.915000	1005.123047	-20.893091
11924.487766	1417.915000	1003.961914	131.457489
11924.487766	1417.915000	1002.799805	122.867577
11924.487766	1417.915000	1001.637695	-46.913464
11924.487766	1417.915000	1000.475586	38.929375
11924.487766	1417.915000	999.312500	213.629181
11924.487766	1417.915000	998.149414	-92.621758
11924.487766	1417.915000	996.986328	84.641960
11924.487766	1417.915000	995.823242	-15.385772
11924.487766	1417.915000	994.659180	-92.188232
11924.487766	1417.915000	993.496094	-40.879265
11924.487766	1417.915000	992.332031	-40.829811
11924.487766	1417.915000	991.166992	59.338078
11924.487766	1417.915000	990.002930	-52.103630
11924.487766	1417.915000	988.837891	-58.190014
11924.487766	1417.915000	987.672852	39.754742
11924.487766	1417.915000	986.506836	-115.550598
11924.487766	1417.915000	985.341797	-10.740703
11924.487766	1417.915000	984.175781	12.597489
11924.487766	1417.915000	983.009766	68.198425
11924.487766	1417.915000	981.843750	99.940582
11924.487766	1417.915000	980.676758	-3.461270
11924.487766	1417.915000	979.509766	-34.993820
11924.487766	1417.915000	978.342773	-11.245408
11924.487766	1417.915000	977.175781	111.827957
11924.487766	1417.915000	976.007813	45.783279
11924.487766	1417.915000	974.839844	243.161255
11924.487766	1417.915000	973.671875	-48.640602
11924.487766	1417.915000	972.503906	-39.805866
11924.487766	1417.915000	971.334961	22.962168
11924.487766	1417.915000	970.166016	-119.036972
11924.487766	1417.915000	968.997070	48.355450
11924.487766	1417.915000	967.828125	-93.632523
11924.487766	1417.915000	966.658203	-49.211075
11924.487766	1417.915000	965.488281	52.584896
11924.487766	1417.915000	964.318359	143.039108
11924.487766	1417.915000	963.148438	25.765844
11924.487766	1417.915000	961.977539	65.090988
11924.487766	1417.915000	960.806641	75.182327
11924.487766	1417.915000	959.635742	-151.248688
11924.487766	1417.915000	958.463867	160.161850
11924.487766	1417.915000	957.292969	28.771599
11924.487766	1417.915000	956.121094	99.980736
11924.487766	1417.915000	954.948242	52.213051
11924.487766	1417.915000	953.776367	79.952248
11924.487766	1417.915000	952.603516	62.494411
11924.487766	1417.915000	951.430664	7.105567
11924.487766	1417.915000	950.257813	-73.740158
11924.487766	1417.915000	949.084961	-49.924110
11924.487766	1417.915000	947.911133	5.770538
11924.487766	1417.915000	946.737305	96.448227
11924.487766	1417.915000	945.563477	73.486404
11924.487766	1417.915000	944.388672	-35.281944
11924.487766	1417.915000	943.213867	161.795013
11924.487766	1417.915000	942.039063	-9.437489
11924.487766	1417.915000	940.864258	155.211441
11924.487766	1417.915000	939.688477	118.363304
11924.487766	1417.915000	938.513672	-18.177094
11924.487766	1417.915000	937.337891	220.468994
11924.487766	1417.915000	936.161133	83.970451
11924.487766	1417.915000	934.985352	139.557449
11924.487766	1417.915000	933.808594	40.104736
11924.487766	1417.915000	932.631836	79.568947
11924.487766	1417.915000	931.454102	74.981628
11924.487766	1417.915000	930.277344	139.943176
11924.487766	1417.915000	929.099609	-1.219643
11924.487766	1417.915000	927.921875	283.367340
11924.487766	1417.915000	926.743164	63.599873
11924.487766	1417.915000	925.565430	47.406559
11924.487766	1417.915000	924.386719	82.084778
11924.487766	1417.915000	923.208008	213.852478
11924.487766	1417.915000	922.028320	176.808472
11924.487766	1417.915000	920.849609	56.555286
11924.487766	1417.915000	919.669922	60.337456
11924.487766	1417.915000	919.474609	244.293304
11924.487766	1417.915000	918.309570	-95.478317
11924.487766	1417.915000	917.143555	250.892105
11924.487766	1417.915000	915.977539	98.287643
11924.487766	1417.915000	914.810547	95.810417
11924.487766	1417.915000	913.644531	139.484024
11924.487766	1417.915000	912.477539	291.601166
11924.487766	1417.915000	911.310547	32.911114
11924.487766	1417.915000	910.143555	81.142372
11924.487766	1417.915000	908.975586	27.854025
11924.487766	1417.915000	907.807617	-53.100578
11924.487766	1417.915000	906.639648	89.604675
11924.487766	1417.915000	905.471680	57.046375
11924.487766	1417.915000	904.303711	-5.474268
11924.487766	1417.915000	903.134766	10.359571
11924.487766	1417.915000	901.965820	23.867613
11924.487766	1417.915000	900.796875	-73.201675
11924.487766	1417.915000	899.626953	-34.380634
11924.487766	1417.915000	898.457031	-60.056049
11924.487766	1417.915000	897.287109	105.314964
11924.487766	1417.915000	896.117188	111.808022
11924.487766	1417.915000	894.947266	-84.197075
11924.487766	1417.915000	893.776367	-43.191257
11924.487766	1417.915000	892.605469	85.178993
11924.487766	1417.915000	891.434570	-9.569800
11924.487766	1417.915000	890.262695	132.504974
11924.487766	1417.915000	889.091797	12.467019
11924.487766	1417.915000	887.919922	-47.786152
11924.487766	1417.915000	886.748047	39.016037
11924.487766	1417.915000	885.575195	-35.032490
11924.487766	1417.915000	884.403320	-118.257095
11924.487766	1417.915000	883.230469	28.158075
11924.487766	1417.915000	882.057617	-66.556389
11924.487766	1417.915000	880.883789	-154.361801
11924.487766	1417.915000	879.710938	-37.914467
11924.487766	1417.915000	878.537109	-114.253647
11924.487766	1417.915000	877.362305	-169.932220
11924.487766	1417.915000	876.188477	-172.860794
11924.487766	1417.915000	875.013672	-3.835065
11924.487766	1417.915000	873.839844	105.497101
11924.487766	1417.915000	872.664063	-220.705841
11924.487766	1417.915000	871.489258	103.993622
11924.487766	1417.915000	870.313477	130.707855
11924.487766	1417.915000	869.138672	24.536222
11924.487766	1417.915000	867.962891	149.692566
11924.487766	1417.915000	866.786133	-18.292986
11924.487766	1417.915000	865.610352	-19.121803
11924.487766	1417.915000	864.433594	179.148895
11924.487766	1417.915000	863.256836	-59.732994
11924.487766	1417.915000	862.079102	-85.772522
11924.487766	1417.915000	860.902344	-118.685570
11924.487766	1417.915000	859.724609	-233.928421
11924.487766	1417.915000	858.546875	-122.795097
11924.487766	1417.915000	857.368164	-43.727749
11924.487766	1417.915000	856.190430	10.144313
11924.487766	1417.915000	855.011719	-36.561131
11924.487766	1417.915000	853.833008	35.524555
11924.487766	1417.915000	852.654297	-6.641241
11924.487766	1417.915000	851.474609	-108.180443
11924.487766	1417.915000	850.294922	-95.545174
11924.487766	1417.915000	849.115234	6.084757
11924.487766	1417.915000	847.935547	-58.944611
11924.487766	1417.915000	846.754883	-71.488670
11924.487766	1417.915000	845.575195	-63.520653
11924.487766	1417.915000	844.393555	174.780182
11924.487766	1417.915000	843.212891	-2.048787
11924.487766	1417.915000	842.032227	106.146294
11924.487766	1417.915000	840.850586	0.020670
11924.487766	1417.915000	839.668945	-5.815111
11924.487766	1417.915000	838.486328	-61.793243
11924.487766	1417.915000	837.304688	46.236343
11924.487766	1417.915000	836.122070	-75.821571
11924.487766	1417.915000	834.939453	-27.079519
11924.487766	1417.915000	833.756836	76.255333
11924.487766	1417.915000	832.573242	8.822948
11924.487766	1417.915000	831.389648	125.715454
11924.487766	1417.915000	830.206055	-94.179115
11924.487766	1417.915000	829.022461	-61.523010
11924.487766	1417.915000	827.838867	37.046417
11924.487766	1417.915000	826.654297	-0.869537
11924.487766	1417.915000	825.469727	261.272034
11924.487766	1417.915000	824.284180	266.460083
11924.487766	1417.915000	823.099609	128.465256
11924.487766	1417.915000	821.914063	-9.496119
11924.487766	1417.915000	820.728516	9.297657
11924.487766	1417.915000	819.542969	48.495850
11924.487766	1417.915000	818.356445	103.547272
11924.487766	1417.915000	817.169922	-179.672516
11924.487766	1417.915000	815.983398	-49.755928
11924.487766	1417.915000	814.796875	102.771500
11924.487766	1417.915000	813.609375	96.412682
11924.487766	1417.915000	812.422852	164.875214
11924.487766	1417.915000	811.235352	108.565926
11924.487766	1417.915000	810.046875	-38.430912
11924.487766	1417.915000	808.859375	127.404922
11924.487766	1417.915000	807.670898	-173.690262
11924.487766	1417.915000	806.482422	-53.262585
11924.487766	1417.915000	805.293945	48.966156
11924.487766	1417.915000	804.104492	-27.792311
11924.487766	1417.915000	802.915039	40.370090
11924.487766	1417.915000	801.725586	45.087997
11924.487766	1417.915000	800.536133	212.740677
11924.487766	1417.915000	799.345703	135.901093
11924.487766	1417.915000	798.155273	40.965714
11924.487766	1417.915000	796.964844	11.638507
11924.487766	1417.915000	795.774414	-56.150471
11924.487766	1417.915000	794.583008	124.776161
11924.487766	1417.915000	793.392578	-114.870331
11924.487766	1417.915000	792.200195	169.901840
11924.487766	1417.915000	791.008789	95.242737
11924.487766	1417.915000	789.816406	196.801575
11924.487766	1417.915000	788.625000	81.452400
11924.487766	1417.915000	787.432617	-20.328516
11924.487766	1417.915000	786.239258	114.970360
11924.487766	1417.915000	785.046875	13.165630
11924.487766	1417.915000	783.853516	12.931652
11924.487766	1417.915000	782.660156	-39.228828
11924.487766	1417.915000	781.465820	14.630368
11924.487766	1417.915000	780.272461	147.375854
11924.487766	1417.915000	779.078125	101.894684
11924.487766	1417.915000	777.883789	178.144806
11924.487766	1417.915000	776.688477	-135.612762
11924.487766	1417.915000	775.494141	127.638710
11924.487766	1417.915000	774.298828	18.991175
11924.487766	1417.915000	773.103516	4.968107
11924.487766	1417.915000	771.907227	40.467659
11924.487766	1417.915000	770.711914	21.880301
11924.487766	1417.915000	769.515625	93.318794
11924.487766	1417.915000	768.318359	-37.870323
11924.487766	1417.915000	767.122070	148.252411
11924.487766	1417.915000	765.924805	125.034485
11924.487766	1417.915000	764.727539	29.815491
11924.487766	1417.915000	763.530273	179.732101
11924.487766	1417.915000	762.333008	35.012768
11924.487766	1417.915000	761.134766	157.827438
11924.487766	1417.915000	759.936523	145.711136
11924.487766	1417.915000	758.738281	61.663830
11924.487766	1417.915000	757.540039	69.726982
11924.487766	1417.915000	756.340820	232.734497
11924.487766	1417.915000	755.141602	74.520851
11924.487766	1417.915000	753.942383	57.784748
11924.487766	1417.915000	752.742188	7.353675
11924.487766	1417.915000	751.541992	122.982109
11924.487766	1417.915000	750.341797	99.418579
11924.487766	1417.915000	749.141602	181.266617
11924.487766	1417.915000	747.941406	45.496422
11924.487766	1417.915000	746.740234	228.161957
11924.487766	1417.915000	745.539063	242.579376
11924.487766	1417.915000	744.337891	131.440109
11924.487766	1417.915000	743.135742	168.216965
11924.487766	1417.915000	741.933594	142.212524
11924.487766	1417.915000	740.731445	165.466873
11924.487766	1417.915000	739.529297	293.937073
11924.487766	1417.915000	738.326172	160.351746
11924.487766	1417.915000	737.124023	342.431030
11924.487766	1417.915000	735.919922	378.924072
11924.487766	1417.915000	734.716797	475.786469
11924.487766	1417.915000	733.513672	608.370789
11924.487766	1417.915000	732.309570	528.380249
11924.487766	1417.915000	731.105469	466.280701
11924.487766	1417.915000	729.900391	583.037903
11924.487766	1417.915000	728.696289	478.418427
11924.487766	1417.915000	727.491211	382.750061
11924.487766	1417.915000	726.286133	204.417923
11924.487766	1417.915000	725.080078	218.245056
11924.487766	1417.915000	723.874023	232.035034
11924.487766	1417.915000	722.668945	377.533356
11924.487766	1417.915000	721.461914	116.622620
11924.487766	1417.915000	720.255859	163.811630
11924.487766	1417.915000	719.048828	92.676529
11924.487766	1417.915000	717.841797	213.415054
11924.487766	1417.915000	716.634766	133.314972
11924.487766	1417.915000	715.427734	276.234833
11924.487766	1417.915000	714.219727	75.689484
11924.487766	1417.915000	713.011719	169.456863
11924.487766	1417.915000	711.803711	95.997131
11924.487766	1417.915000	710.594727	165.149277
11924.487766	1417.915000	709.385742	-24.187063
11924.487766	1417.915000	708.176758	220.863785
11924.487766	1417.915000	706.967773	87.209259
11924.487766	1417.915000	705.758789	-33.060566
11924.487766	1417.915000	704.548828	33.672058
11924.487766	1417.915000	703.338867	2.426024
11924.487766	1417.915000	702.127930	-28.836220
11924.487766	1417.915000	700.917969	13.297080
11924.487766	1417.915000	699.707031	139.899979
11924.487766	1417.915000	698.496094	26.269341
11924.487766	1417.915000	697.285156	41.602684
11924.487766	1417.915000	696.073242	-145.364655
11924.487766	1417.915000	694.861328	-87.835266
11924.487766	1417.915000	693.649414	58.513920
11924.487766	1417.915000	692.436523	-119.535439
11924.487766	1417.915000	691.224609	-19.931051
11924.487766	1417.915000	690.011719	88.485344
11924.487766	1417.915000	688.798828	112.474693
11924.487766	1417.915000	687.584961	127.549568
11924.487766	1417.915000	686.372070	-28.265858
11924.487766	1417.915000	685.158203	-55.369129
11924.487766	1417.915000	683.943359	-44.779476
11924.487766	1417.915000	682.729492	54.484924
11924.487766	1417.915000	681.514648	45.044998
11924.487766	1417.915000	680.299805	166.366959
11924.487766	1417.915000	679.084961	39.404804
11924.487766	1417.915000	677.869141	3.315567
11924.487766	1417.915000	676.653320	-68.224503
11924.487766	1417.915000	675.437500	181.384628
11924.487766	1417.915000	674.221680	10.150681
11924.487766	1417.915000	673.004883	179.896683
11924.487766	1417.915000	671.789063	64.027184
11924.487766	1417.915000	670.571289	89.810150
11924.487766	1417.915000	669.354492	166.449219
11924.487766	1417.915000	668.136719	6.355065
11924.487766	1417.915000	666.919922	107.267387
11924.487766	1417.915000	665.701172	-79.317505
11924.487766	1417.915000	664.483398	-33.731403
11924.487766	1417.915000	663.264648	-21.334208
11924.487766	1417.915000	662.045898	13.136547
11924.487766	1417.915000	660.827148	21.066622
11924.487766	1417.915000	659.608398	79.777328
11924.487766	1417.915000	658.388672	-29.379589
11924.487766	1417.915000	657.168945	53.570339
11924.487766	1417.915000	655.949219	-57.771763
11924.487766	1417.915000	654.728516	-52.119595
11924.487766	1417.915000	653.507813	-11.181242
11924.487766	1417.915000	652.287109	-14.391212
11924.487766	1417.915000	651.066406	70.605064
11924.487766	1417.915000	649.844727	60.738903
11924.487766	1417.915000	648.623047	26.615759
11924.487766	1417.915000	647.401367	122.535042
11924.487766	1417.915000	646.179688	185.349884
11924.487766	1417.915000	644.957031	14.598051
11924.487766	1417.915000	643.734375	-28.337118
11924.487766	1417.915000	642.511719	16.824287
11924.487766	1417.915000	641.289063	99.388542
11924.487766	1417.915000	640.065430	144.487671
11924.487766	1417.915000	638.841797	154.349274
11924.487766	1417.915000	637.618164	234.610748
11924.487766	1417.915000	636.393555	94.846947
11924.487766	1417.915000	635.168945	100.297264
11924.487766	1417.915000	633.944336	90.348579
11924.487766	1417.915000	632.719727	-33.917873
11924.487766	1417.915000	631.494141	52.870174
11924.487766	1417.915000	630.269531	91.275826
11924.487766	1417.915000	629.042969	61.552784
11924.487766	1417.915000	627.817383	-5.499052
11924.487766	1417.915000	626.590820	230.541473
11924.487766	1417.915000	625.365234	-139.516891
11924.487766	1417.915000	624.137695	-50.625534
11924.487766	1417.915000	622.911133	-7.856582
11924.487766	1417.915000	621.683594	-8.990032
11924.487766	1417.915000	620.456055	95.183281
11924.487766	1417.915000	619.228516	63.330093
11924.487766	1417.915000	618.000977	121.403252
11924.487766	1417.915000	616.772461	-22.244894
11924.487766	1417.915000	615.543945	-62.804111
11924.487766	1417.915000	614.314453	107.040367
11924.487766	1417.915000	613.085938	-139.468201
11924.487766	1417.915000	611.856445	-33.188313
11924.487766	1417.915000	610.626953	16.114092
11924.487766	1417.915000	609.397461	4.096480
11924.487766	1417.915000	608.166992	11.796324
11924.487766	1417.915000	606.936523	-2.382421
11924.487766	1417.915000	605.706055	-189.411194
11924.487766	1417.915000	604.474609	-85.378441
11924.487766	1417.915000	603.244141	127.989204
11924.487766	1417.915000	602.012695	-8.610418
11924.487766	1417.915000	600.780273	34.142319
11924.487766	1417.915000	599.548828	-108.905052
11924.487766	1417.915000	598.316406	185.207092
11924.487766	1417.915000	597.083984	2.892395
11924.487766	1417.915000	595.851563	84.996788
11924.487766	1417.915000	594.618164	46.962681
11924.487766	1417.915000	593.384766	-52.174763
11924.487766	1417.915000	592.151367	123.821022
11924.487766	1417.915000	590.917969	138.248123
11924.487766	1417.915000	589.683594	202.880051
11924.487766	1417.915000	588.449219	101.698189
11924.487766	1417.915000	587.214844	11.489379
11924.487766	1417.915000	585.979492	-63.392738
11924.487766	1417.915000	584.745117	-136.036133
11924.487766	1417.915000	583.509766	-21.157532
11924.487766	1417.915000	582.273438	-71.934906
11924.487766	1417.915000	581.038086	14.609063
11924.487766	1417.915000	579.801758	-75.311096
11924.487766	1417.915000	578.565430	-99.825066
11924.487766	1417.915000	577.329102	-17.600641
11924.487766	1417.915000	576.091797	-194.451523
11924.487766	1417.915000	574.854492	-59.944485
11924.487766	1417.915000	573.617188	-156.132126
11924.487766	1417.915000	572.378906	32.763710
11924.487766	1417.915000	571.141602	-24.184423
11924.487766	1417.915000	569.903320	-18.008747
11924.487766	1417.915000	568.664063	59.948158
11924.487766	1417.915000	567.425781	-25.128065
11924.487766	1417.915000	566.186523	46.346703
11924.487766	1417.915000	564.947266	-60.348915
11924.487766	1417.915000	563.708008	15.519513
11924.487766	1417.915000	562.467773	21.889925
11924.487766	1417.915000	561.227539	-36.849808
11924.487766	1417.915000	559.987305	136.772980
11924.487766	1417.915000	558.747070	-67.316910
11924.487766	1417.915000	557.505859	-84.653160
11924.487766	1417.915000	556.264648	34.743706
11924.487766	1417.915000	555.023438	4.457135
11924.487766	1417.915000	553.781250	-218.790665
11924.487766	1417.915000	552.539063	28.605145
11924.487766	1417.915000	551.296875	-27.551863
11924.487766	1417.915000	550.054688	-42.464458
11924.487766	1417.915000	548.811523	-22.659882
11924.487766	1417.915000	547.569336	68.669777
11924.487766	1417.915000	546.325195	-73.916679
11924.487766	1417.915000	545.082031	82.433617
11924.487766	1417.915000	543.837891	-53.513752
11924.487766	1417.915000	542.593750	76.877312
11924.487766	1417.915000	541.349609	77.412170
11924.487766	1417.915000	540.105469	-10.717135
11924.487766	1417.915000	538.860352	76.449524
11924.487766	1417.915000	537.615234	1.422521
11924.487766	1417.915000	536.369141	30.257698
11924.487766	1417.915000	535.124023	167.212204
11924.487766	1417.915000	533.877930	46.959644
11924.487766	1417.915000	532.631836	106.150749
11924.487766	1417.915000	531.384766	91.909248
11924.487766	1417.915000	530.138672	47.479176
11924.487766	1417.915000	528.891602	87.330185
11924.487766	1417.915000	527.643555	4.147257
11924.487766	1417.915000	526.396484	-122.126183
11924.487766	1417.915000	525.148438	-123.135620
11924.487766	1417.915000	523.900391	1.037709
11924.487766	1417.915000	522.652344	75.587807
11924.487766	1417.915000	521.403320	-28.853331
11924.487766	1417.915000	520.154297	13.413588
11924.487766	1417.915000	518.905273	-90.885338
11924.487766	1417.915000	517.656250	26.893898
11924.487766	1417.915000	516.406250	108.032654
11924.487766	1417.915000	515.156250	34.064388
11924.487766	1417.915000	513.906250	-31.217136
11924.487766	1417.915000	512.655273	-36.135113
11924.487766	1417.915000	511.404297	133.375885
11924.487766	1417.915000	510.153320	223.209091
11924.487766	1417.915000	508.902344	-16.218405
11924.487766	1417.915000	507.650391	105.954666
11924.487766	1417.915000	506.398438	83.987236
11924.487766	1417.915000	505.146484	158.841156
11924.487766	1417.915000	503.893555	1.477697
11924.487766	1417.915000	502.641602	366.592041
11924.487766	1417.915000	501.388672	278.089203
11924.487766	1417.915000	500.134766	92.959145
11924.487766	1417.915000	498.881836	268.853760
11924.487766	1417.915000	497.627930	169.773697
11924.487766	1417.915000	496.374023	257.584595
11924.487766	1417.915000	495.119141	212.272278
11924.487766	1417.915000	493.865234	229.247498
11924.487766	1417.915000	492.610352	233.360367
11924.487766	1417.915000	491.355469	366.222717
11924.487766	1417.915000	490.099609	267.375397
11924.487766	1417.915000	488.843750	262.949036
11924.487766	1417.915000	487.587891	166.337143
11924.487766	1417.915000	486.332031	221.980499
11924.487766	1417.915000	485.075195	299.041138
11924.487766	1417.915000	483.818359	388.931183
11924.487766	1417.915000	482.561523	380.239563
11924.487766	1417.915000	481.304688	491.496002
11924.487766	1417.915000	480.046875	240.809052
11924.487766	1417.915000	478.789063	585.404358
11924.487766	1417.915000	477.531250	433.255219
11924.487766	1417.915000	476.272461	452.363953
11924.487766	1417.915000	475.013672	415.823059
11924.487766	1417.915000	473.754883	417.785767
11924.487766	1417.915000	472.496094	421.867096
11924.487766	1417.915000	471.236328	537.110352
11924.487766	1417.915000	469.976563	412.855286
11924.487766	1417.915000	468.716797	671.191162
11924.487766	1417.915000	467.456055	465.702423
11924.487766	1417.915000	466.196289	497.396454
11924.487766	1417.915000	464.935547	541.853027
11924.487766	1417.915000	463.673828	462.393829
11924.487766	1417.915000	462.413086	515.285828
11924.487766	1417.915000	461.151367	568.103455
11924.487766	1417.915000	459.889648	439.450256
11924.487766	1417.915000	458.626953	596.688416
11924.487766	1417.915000	457.364258	598.076599
11924.487766	1417.915000	456.101563	701.760620
11924.487766	1417.915000	454.838867	611.296631
11924.487766	1417.915000	453.575195	578.347778
11924.487766	1417.915000	452.312500	766.977112
11924.487766	1417.915000	451.047852	678.432373
11924.487766	1417.915000	449.784180	645.217957
11924.487766	1417.915000	448.519531	767.396484
11924.487766	1417.915000	447.254883	670.085938
11924.487766	1417.915000	445.990234	809.016296
11924.487766	1417.915000	444.725586	649.779724
11924.487766	1417.915000	443.459961	601.143005
11924.487766	1417.915000	442.194336	839.616333
11924.487766	1417.915000	440.927734	848.120239
11924.487766	1417.915000	439.662109	707.610535
11924.487766	1417.915000	438.395508	679.695862
11924.487766	1417.915000	437.127930	859.954346
11924.487766	1417.915000	435.861328	863.571594
11924.487766	1417.915000	434.593750	758.647644
11924.487766	1417.915000	433.326172	761.928650
11924.487766	1417.915000	432.058594	871.212585
11924.487766	1417.915000	430.790039	837.980896
11924.487766	1417.915000	429.521484	925.566528
11924.487766	1417.915000	428.252930	768.811829
11924.487766	1417.915000	426.984375	864.425659
11924.487766	1417.915000	425.714844	853.685364
11924.487766	1417.915000	424.445313	842.708435
11924.487766	1417.915000	423.174805	943.879761
11924.487766	1417.915000	421.905273	932.377991
11924.487766	1417.915000	420.634766	1001.161133
11924.487766	1417.915000	419.364258	813.201050
11924.487766	1417.915000	418.092773	877.170593
11924.487766	1417.915000	416.822266	809.477600
11924.487766	1417.915000	415.550781	1025.299683
11924.487766	1417.915000	414.278320	956.964478
11924.487766	1417.915000	413.006836	924.320557
11924.487766	1417.915000	411.734375	880.760620
11924.487766	1417.915000	410.461914	879.185608
11924.487766	1417.915000	409.188477	879.354309
11924.487766	1417.915000	407.916016	1029.325439
11924.487766	1417.915000	406.642578	944.104797
11924.487766	1417.915000	405.368164	987.477905
11924.487766	1417.915000	404.094727	867.661865
11924.487766	1417.915000	402.820313	876.373535
11924.487766	1417.915000	401.545898	800.124023
11924.487766	1417.915000	400.270508	858.636169
11924.487766	1417.915000	398.996094	1001.135986
11924.487766	1417.915000	397.720703	982.609436
11924.487766	1417.915000	396.444336	993.135925
11924.487766	1417.915000	395.168945	992.598572
11924.487766	1417.915000	393.892578	970.421143
11924.487766	1417.915000	392.616211	998.338257
11924.487766	1417.915000	391.339844	918.113831
11924.487766	1417.915000	390.062500	938.555664
11924.487766	1417.915000	388.785156	998.450317
11924.487766	1417.915000	387.507813	950.209290
11924.487766	1417.915000	386.229492	918.208191
11924.487766	1417.915000	384.951172	1030.949829
11924.487766	1417.915000	383.672852	949.187561
11924.487766	1417.915000	382.394531	1066.846069
11924.487766	1417.915000	381.115234	1086.885376
11924.487766	1417.915000	379.835938	784.122620
11924.487766	1417.915000	378.556641	920.614197
11924.487766	1417.915000	377.277344	807.998413
11924.487766	1417.915000	375.997070	1014.399597
11924.487766	1417.915000	374.716797	797.161865
11924.487766	1417.915000	373.435547	783.149841
11924.487766	1417.915000	372.155273	875.539673
11924.487766	1417.915000	370.874023	847.202454
11924.487766	1417.915000	369.591797	633.050354
11924.487766	1417.915000	368.310547	901.320007
11924.487766	1417.915000	367.028320	962.676086
11924.487766	1417.915000	365.746094	760.548218
11924.487766	1417.915000	364.463867	796.882324
11924.487766	1417.915000	363.180664	767.105591
11924.487766	1417.915000	361.897461	813.966003
11924.487766	1417.915000	360.614258	750.648315
11924.487766	1417.915000	359.330078	789.047791
11924.487766	1417.915000	358.045898	528.511902
11924.487766	1417.915000	356.761719	589.873718
11924.487766	1417.915000	355.477539	639.571106
11924.487766	1417.915000	354.192383	514.075012
11924.487766	1417.915000	352.907227	573.919189
11924.487766	1417.915000	351.622070	487.942505
11924.487766	1417.915000	350.336914	515.936523
11924.487766	1417.915000	349.050781	448.355835
11924.487766	1417.915000	347.764648	523.937927
11924.487766	1417.915000	346.477539	495.529877
11924.487766	1417.915000	345.191406	495.078827
11924.487766	1417.915000	343.904297	509.911469
11924.487766	1417.915000	342.616211	709.418701
11924.487766	1417.915000	341.329102	438.929382
11924.487766	1417.915000	340.041016	420.000488
11924.487766	1417.915000	338.752930	355.629944
11924.487766	1417.915000	337.463867	289.659058
11924.487766	1417.915000	336.175781	445.719818
11924.487766	1417.915000	334.886719	357.680756
11924.487766	1417.915000	333.596680	165.601212
11924.487766	1417.915000	332.307617	391.643250
11924.487766	1417.915000	331.017578	313.057709
11924.487766	1417.915000	329.727539	67.809860
11924.487766	1417.915000	328.436523	64.932060
11924.487766	1417.915000	327.146484	45.621986
11924.487766	1417.915000	325.855469	1.402413
11924.487766	1417.915000	324.563477	195.009583
11924.487766	1417.915000	323.272461	-45.001518
11924.487766	1417.915000	321.980469	73.611702
11924.487766	1417.915000	320.688477	-18.317793
11924.487766	1417.915000	319.395508	170.971573
11924.487766	1417.915000	318.103516	137.254456
11924.487766	1417.915000	316.810547	282.466339
11924.487766	1417.915000	315.516602	-120.260376
11924.487766	1417.915000	314.223633	-177.395126
11924.487766	1417.915000	312.929688	-51.689396
11924.487766	1417.915000	311.635742	-149.013702
11924.487766	1417.915000	310.340820	36.197937
11924.487766	1417.915000	309.045898	42.030128
11924.487766	1417.915000	307.750977	66.106262
11924.487766	1417.915000	306.456055	64.703316
11924.487766	1417.915000	305.160156	-165.997360
11924.487766	1417.915000	303.865234	39.271320
11924.487766	1417.915000	302.568359	89.855537
11924.487766	1417.915000	301.272461	-94.956284
11924.487766	1417.915000	299.975586	222.018280
11924.487766	1417.915000	298.678711	209.952332
