#X		#Y		#Wave		#Intensity
11861.825000	1557.470000	1999.980469	-101.367378
11861.825000	1557.470000	1999.016602	-10.561931
11861.825000	1557.470000	1998.052734	17.487272
11861.825000	1557.470000	1997.087891	50.380871
11861.825000	1557.470000	1996.123047	48.475395
11861.825000	1557.470000	1995.158203	-8.024716
11861.825000	1557.470000	1994.193359	34.472111
11861.825000	1557.470000	1993.228516	-22.189425
11861.825000	1557.470000	1992.262695	-106.151390
11861.825000	1557.470000	1991.297852	47.467087
11861.825000	1557.470000	1990.332031	52.451611
11861.825000	1557.470000	1989.366211	32.609661
11861.825000	1557.470000	1988.399414	-36.781933
11861.825000	1557.470000	1987.433594	0.138373
11861.825000	1557.470000	1986.466797	71.595749
11861.825000	1557.470000	1985.500977	-74.634491
11861.825000	1557.470000	1984.534180	13.977108
11861.825000	1557.470000	1983.567383	40.697666
11861.825000	1557.470000	1982.599609	-11.734803
11861.825000	1557.470000	1981.632813	-39.501190
11861.825000	1557.470000	1980.665039	26.555908
11861.825000	1557.470000	1979.697266	23.375553
11861.825000	1557.470000	1978.729492	121.387108
11861.825000	1557.470000	1977.761719	14.386578
11861.825000	1557.470000	1976.792969	-3.759490
11861.825000	1557.470000	1975.825195	-29.351707
11861.825000	1557.470000	1974.856445	120.216347
11861.825000	1557.470000	1973.887695	20.504633
11861.825000	1557.470000	1972.918945	-12.613417
11861.825000	1557.470000	1971.949219	-23.565407
11861.825000	1557.470000	1970.980469	-2.498149
11861.825000	1557.470000	1970.010742	-20.922085
11861.825000	1557.470000	1969.041016	19.780380
11861.825000	1557.470000	1968.071289	90.004921
11861.825000	1557.470000	1967.101563	64.077835
11861.825000	1557.470000	1966.130859	-13.604954
11861.825000	1557.470000	1965.161133	14.620468
11861.825000	1557.470000	1964.190430	79.743744
11861.825000	1557.470000	1963.219727	61.104858
11861.825000	1557.470000	1962.249023	39.984993
11861.825000	1557.470000	1961.277344	102.527061
11861.825000	1557.470000	1960.306641	108.426804
11861.825000	1557.470000	1959.334961	79.857994
11861.825000	1557.470000	1958.363281	61.118084
11861.825000	1557.470000	1957.391602	-41.251907
11861.825000	1557.470000	1956.419922	-25.576477
11861.825000	1557.470000	1955.447266	24.492771
11861.825000	1557.470000	1954.474609	-63.118587
11861.825000	1557.470000	1953.501953	55.717495
11861.825000	1557.470000	1952.529297	41.814812
11861.825000	1557.470000	1951.556641	-87.555588
11861.825000	1557.470000	1950.583984	-17.943489
11861.825000	1557.470000	1949.610352	51.630829
11861.825000	1557.470000	1948.636719	-50.696465
11861.825000	1557.470000	1947.663086	23.747654
11861.825000	1557.470000	1946.689453	-51.556931
11861.825000	1557.470000	1945.715820	81.735840
11861.825000	1557.470000	1944.741211	-10.740928
11861.825000	1557.470000	1943.767578	61.158405
11861.825000	1557.470000	1942.792969	52.092724
11861.825000	1557.470000	1941.818359	-72.219170
11861.825000	1557.470000	1940.842773	33.957500
11861.825000	1557.470000	1939.868164	-100.116455
11861.825000	1557.470000	1938.892578	69.737251
11861.825000	1557.470000	1937.916992	94.963898
11861.825000	1557.470000	1936.941406	12.391472
11861.825000	1557.470000	1935.965820	67.009102
11861.825000	1557.470000	1934.990234	79.976044
11861.825000	1557.470000	1934.013672	34.176559
11861.825000	1557.470000	1933.037109	5.530432
11861.825000	1557.470000	1932.060547	-13.313654
11861.825000	1557.470000	1931.083984	-5.231930
11861.825000	1557.470000	1930.107422	-16.723209
11861.825000	1557.470000	1929.129883	62.297123
11861.825000	1557.470000	1928.153320	87.488022
11861.825000	1557.470000	1927.175781	-9.586736
11861.825000	1557.470000	1926.198242	-25.945522
11861.825000	1557.470000	1925.219727	-15.407842
11861.825000	1557.470000	1924.242188	-56.188385
11861.825000	1557.470000	1923.263672	13.001197
11861.825000	1557.470000	1922.285156	69.955666
11861.825000	1557.470000	1921.306641	-17.209715
11861.825000	1557.470000	1920.328125	61.718456
11861.825000	1557.470000	1919.349609	-37.608700
11861.825000	1557.470000	1918.370117	43.746559
11861.825000	1557.470000	1917.391602	117.756836
11861.825000	1557.470000	1916.412109	18.493399
11861.825000	1557.470000	1915.431641	104.691322
11861.825000	1557.470000	1914.452148	-11.593400
11861.825000	1557.470000	1913.472656	25.816906
11861.825000	1557.470000	1912.492188	43.713207
11861.825000	1557.470000	1911.511719	34.793327
11861.825000	1557.470000	1910.531250	-93.550049
11861.825000	1557.470000	1909.550781	65.726135
11861.825000	1557.470000	1908.569336	49.519753
11861.825000	1557.470000	1907.588867	130.771118
11861.825000	1557.470000	1906.607422	124.316917
11861.825000	1557.470000	1905.625977	42.382915
11861.825000	1557.470000	1904.644531	-5.426376
11861.825000	1557.470000	1903.662109	-4.525595
11861.825000	1557.470000	1902.680664	-3.616422
11861.825000	1557.470000	1901.698242	-51.367287
11861.825000	1557.470000	1900.715820	-48.001732
11861.825000	1557.470000	1899.733398	-3.277849
11861.825000	1557.470000	1898.750000	104.667778
11861.825000	1557.470000	1897.767578	3.470742
11861.825000	1557.470000	1896.784180	26.302969
11861.825000	1557.470000	1895.800781	-16.492039
11861.825000	1557.470000	1894.817383	33.082462
11861.825000	1557.470000	1893.833984	-4.822985
11861.825000	1557.470000	1892.850586	47.175312
11861.825000	1557.470000	1891.866211	116.162437
11861.825000	1557.470000	1890.881836	22.431995
11861.825000	1557.470000	1889.897461	23.431623
11861.825000	1557.470000	1888.913086	70.559128
11861.825000	1557.470000	1887.927734	-112.887993
11861.825000	1557.470000	1886.943359	-109.416519
11861.825000	1557.470000	1885.958008	-28.306107
11861.825000	1557.470000	1884.972656	-100.033249
11861.825000	1557.470000	1883.987305	63.513210
11861.825000	1557.470000	1883.001953	-8.192053
11861.825000	1557.470000	1882.015625	72.862801
11861.825000	1557.470000	1881.029297	86.026657
11861.825000	1557.470000	1880.042969	2.257334
11861.825000	1557.470000	1879.056641	-30.594547
11861.825000	1557.470000	1878.070313	62.537949
11861.825000	1557.470000	1877.083984	-13.898614
11861.825000	1557.470000	1876.096680	38.038761
11861.825000	1557.470000	1875.109375	-57.724449
11861.825000	1557.470000	1874.122070	-63.884274
11861.825000	1557.470000	1873.134766	67.911835
11861.825000	1557.470000	1872.146484	85.935005
11861.825000	1557.470000	1871.159180	-7.330365
11861.825000	1557.470000	1870.170898	-54.600597
11861.825000	1557.470000	1869.182617	-34.135818
11861.825000	1557.470000	1868.194336	-35.437252
11861.825000	1557.470000	1867.205078	26.117533
11861.825000	1557.470000	1866.216797	32.061234
11861.825000	1557.470000	1865.227539	-27.242142
11861.825000	1557.470000	1864.238281	34.282703
11861.825000	1557.470000	1863.249023	47.473637
11861.825000	1557.470000	1862.259766	92.058174
11861.825000	1557.470000	1861.269531	-44.478214
11861.825000	1557.470000	1860.279297	9.765179
11861.825000	1557.470000	1859.290039	44.678566
11861.825000	1557.470000	1858.298828	-62.810413
11861.825000	1557.470000	1857.308594	15.535574
11861.825000	1557.470000	1856.318359	84.202232
11861.825000	1557.470000	1855.327148	-11.174834
11861.825000	1557.470000	1854.335938	83.995987
11861.825000	1557.470000	1853.344727	-42.691582
11861.825000	1557.470000	1852.353516	88.606400
11861.825000	1557.470000	1851.362305	108.984383
11861.825000	1557.470000	1850.370117	30.552567
11861.825000	1557.470000	1849.377930	48.519512
11861.825000	1557.470000	1848.385742	100.200851
11861.825000	1557.470000	1847.393555	82.016701
11861.825000	1557.470000	1846.401367	18.085436
11861.825000	1557.470000	1845.408203	14.361237
11861.825000	1557.470000	1844.415039	44.332943
11861.825000	1557.470000	1843.421875	74.289574
11861.825000	1557.470000	1842.428711	32.046764
11861.825000	1557.470000	1841.435547	-10.184839
11861.825000	1557.470000	1840.441406	-1.896378
11861.825000	1557.470000	1839.448242	71.312767
11861.825000	1557.470000	1838.454102	106.019188
11861.825000	1557.470000	1837.459961	1.283275
11861.825000	1557.470000	1836.464844	76.835548
11861.825000	1557.470000	1835.470703	-13.450172
11861.825000	1557.470000	1834.475586	-50.854286
11861.825000	1557.470000	1833.480469	-40.210163
11861.825000	1557.470000	1832.485352	-24.774179
11861.825000	1557.470000	1831.490234	-45.368633
11861.825000	1557.470000	1830.495117	85.280609
11861.825000	1557.470000	1829.499023	23.852526
11861.825000	1557.470000	1828.502930	48.831894
11861.825000	1557.470000	1827.506836	-36.576237
11861.825000	1557.470000	1826.510742	7.578558
11861.825000	1557.470000	1825.513672	126.058220
11861.825000	1557.470000	1824.517578	-21.690990
11861.825000	1557.470000	1823.520508	91.935394
11861.825000	1557.470000	1822.523438	23.331404
11861.825000	1557.470000	1821.526367	98.540237
11861.825000	1557.470000	1820.529297	-37.152466
11861.825000	1557.470000	1819.531250	193.739075
11861.825000	1557.470000	1818.533203	24.523472
11861.825000	1557.470000	1817.535156	-12.924753
11861.825000	1557.470000	1816.537109	-40.793102
11861.825000	1557.470000	1815.539063	96.517059
11861.825000	1557.470000	1814.540039	27.925308
11861.825000	1557.470000	1813.541992	74.212379
11861.825000	1557.470000	1812.542969	-145.104614
11861.825000	1557.470000	1811.543945	59.050148
11861.825000	1557.470000	1810.543945	11.990972
11861.825000	1557.470000	1809.544922	39.064369
11861.825000	1557.470000	1808.544922	85.239281
11861.825000	1557.470000	1807.544922	100.309105
11861.825000	1557.470000	1806.544922	55.613716
11861.825000	1557.470000	1805.544922	20.478344
11861.825000	1557.470000	1804.544922	28.343212
11861.825000	1557.470000	1803.543945	36.189320
11861.825000	1557.470000	1802.542969	-8.518720
11861.825000	1557.470000	1801.541992	42.278229
11861.825000	1557.470000	1800.541016	112.138077
11861.825000	1557.470000	1799.539063	107.968048
11861.825000	1557.470000	1798.538086	-65.636963
11861.825000	1557.470000	1797.536133	35.171112
11861.825000	1557.470000	1796.534180	143.081116
11861.825000	1557.470000	1795.532227	33.910999
11861.825000	1557.470000	1794.529297	46.370174
11861.825000	1557.470000	1793.527344	51.657204
11861.825000	1557.470000	1792.524414	121.279709
11861.825000	1557.470000	1791.521484	59.790390
11861.825000	1557.470000	1790.518555	48.342178
11861.825000	1557.470000	1789.514648	15.440564
11861.825000	1557.470000	1788.511719	-22.228157
11861.825000	1557.470000	1787.507813	16.299303
11861.825000	1557.470000	1786.503906	-28.533871
11861.825000	1557.470000	1785.500000	31.368134
11861.825000	1557.470000	1784.496094	74.570129
11861.825000	1557.470000	1783.491211	13.040180
11861.825000	1557.470000	1782.486328	-24.694456
11861.825000	1557.470000	1781.481445	6.545054
11861.825000	1557.470000	1780.476563	-5.051461
11861.825000	1557.470000	1779.471680	52.289570
11861.825000	1557.470000	1778.465820	38.272961
11861.825000	1557.470000	1777.460938	48.011700
11861.825000	1557.470000	1776.455078	-63.464615
11861.825000	1557.470000	1775.449219	171.955902
11861.825000	1557.470000	1774.442383	-10.803008
11861.825000	1557.470000	1773.436523	-86.637955
11861.825000	1557.470000	1772.429688	34.618225
11861.825000	1557.470000	1771.422852	-26.992565
11861.825000	1557.470000	1770.416016	-22.138617
11861.825000	1557.470000	1769.409180	61.007641
11861.825000	1557.470000	1768.402344	-71.812401
11861.825000	1557.470000	1767.394531	132.255081
11861.825000	1557.470000	1766.386719	-38.517658
11861.825000	1557.470000	1765.378906	82.429367
11861.825000	1557.470000	1764.371094	32.606613
11861.825000	1557.470000	1763.362305	53.894226
11861.825000	1557.470000	1762.354492	-0.684297
11861.825000	1557.470000	1761.345703	63.213158
11861.825000	1557.470000	1760.336914	25.195379
11861.825000	1557.470000	1759.328125	89.023087
11861.825000	1557.470000	1758.318359	-3.495430
11861.825000	1557.470000	1757.308594	-24.966881
11861.825000	1557.470000	1756.299805	17.467670
11861.825000	1557.470000	1755.290039	59.864250
11861.825000	1557.470000	1754.279297	26.498188
11861.825000	1557.470000	1753.269531	4.955851
11861.825000	1557.470000	1752.258789	-4.772752
11861.825000	1557.470000	1751.249023	32.784084
11861.825000	1557.470000	1750.238281	-2.997224
11861.825000	1557.470000	1749.226563	-22.238543
11861.825000	1557.470000	1748.215820	10.509982
11861.825000	1557.470000	1747.204102	-11.130457
11861.825000	1557.470000	1746.193359	59.367226
11861.825000	1557.470000	1745.181641	32.960339
11861.825000	1557.470000	1744.168945	32.521904
11861.825000	1557.470000	1743.157227	8.450959
11861.825000	1557.470000	1742.144531	29.225464
11861.825000	1557.470000	1741.132813	106.626373
11861.825000	1557.470000	1740.120117	117.893539
11861.825000	1557.470000	1739.106445	-0.645156
11861.825000	1557.470000	1738.093750	62.499615
11861.825000	1557.470000	1737.080078	5.303207
11861.825000	1557.470000	1736.067383	-11.798682
11861.825000	1557.470000	1735.053711	63.039104
11861.825000	1557.470000	1734.040039	114.254562
11861.825000	1557.470000	1733.025391	57.009869
11861.825000	1557.470000	1732.011719	9.195479
11861.825000	1557.470000	1730.997070	65.042160
11861.825000	1557.470000	1729.982422	19.558552
11861.825000	1557.470000	1728.967773	-21.217173
11861.825000	1557.470000	1727.952148	76.926414
11861.825000	1557.470000	1726.937500	-39.218666
11861.825000	1557.470000	1725.921875	-58.836365
11861.825000	1557.470000	1724.906250	-10.219443
11861.825000	1557.470000	1723.890625	5.419557
11861.825000	1557.470000	1722.875000	138.654480
11861.825000	1557.470000	1721.858398	-92.738144
11861.825000	1557.470000	1720.841797	-103.018532
11861.825000	1557.470000	1719.825195	-5.164106
11861.825000	1557.470000	1718.808594	8.011792
11861.825000	1557.470000	1717.791992	42.315685
11861.825000	1557.470000	1716.774414	-111.392227
11861.825000	1557.470000	1715.756836	19.202412
11861.825000	1557.470000	1714.739258	-28.781616
11861.825000	1557.470000	1713.721680	68.833817
11861.825000	1557.470000	1712.704102	63.085224
11861.825000	1557.470000	1711.685547	-62.402111
11861.825000	1557.470000	1710.667969	-44.688370
11861.825000	1557.470000	1709.649414	80.940956
11861.825000	1557.470000	1708.630859	-86.760445
11861.825000	1557.470000	1707.611328	64.593887
11861.825000	1557.470000	1706.592773	-30.372252
11861.825000	1557.470000	1705.573242	50.536243
11861.825000	1557.470000	1704.553711	44.657120
11861.825000	1557.470000	1703.534180	-36.240402
11861.825000	1557.470000	1702.513672	-14.015043
11861.825000	1557.470000	1701.494141	-62.101196
11861.825000	1557.470000	1700.473633	70.186836
11861.825000	1557.470000	1699.453125	-10.720579
11861.825000	1557.470000	1698.432617	-11.997573
11861.825000	1557.470000	1697.412109	75.675133
11861.825000	1557.470000	1696.390625	-26.302692
11861.825000	1557.470000	1695.369141	21.521099
11861.825000	1557.470000	1694.347656	-33.640888
11861.825000	1557.470000	1693.326172	35.190548
11861.825000	1557.470000	1692.304688	-15.304217
11861.825000	1557.470000	1691.282227	-91.520149
11861.825000	1557.470000	1690.260742	-104.591522
11861.825000	1557.470000	1689.238281	-89.623672
11861.825000	1557.470000	1688.214844	-58.318558
11861.825000	1557.470000	1687.192383	-8.342608
11861.825000	1557.470000	1686.168945	-79.886421
11861.825000	1557.470000	1685.146484	-36.959625
11861.825000	1557.470000	1684.123047	-71.131035
11861.825000	1557.470000	1683.099609	-11.907060
11861.825000	1557.470000	1682.075195	44.944450
11861.825000	1557.470000	1681.051758	22.409082
11861.825000	1557.470000	1680.027344	-16.467560
11861.825000	1557.470000	1679.002930	21.650702
11861.825000	1557.470000	1677.978516	-105.874329
11861.825000	1557.470000	1676.953125	34.836178
11861.825000	1557.470000	1675.928711	26.253519
11861.825000	1557.470000	1674.903320	-26.634407
11861.825000	1557.470000	1673.877930	116.277191
11861.825000	1557.470000	1672.852539	0.450704
11861.825000	1557.470000	1671.826172	-24.477247
11861.825000	1557.470000	1670.800781	102.014282
11861.825000	1557.470000	1669.774414	44.449734
11861.825000	1557.470000	1668.748047	105.655876
11861.825000	1557.470000	1667.721680	78.360001
11861.825000	1557.470000	1666.694336	16.146698
11861.825000	1557.470000	1665.667969	2.823857
11861.825000	1557.470000	1664.640625	-15.159338
11861.825000	1557.470000	1663.613281	-30.817387
11861.825000	1557.470000	1662.585938	-4.611706
11861.825000	1557.470000	1661.557617	33.200218
11861.825000	1557.470000	1660.530273	-5.732092
11861.825000	1557.470000	1659.501953	92.488487
11861.825000	1557.470000	1658.473633	-25.476976
11861.825000	1557.470000	1657.444336	130.783463
11861.825000	1557.470000	1656.416016	124.355637
11861.825000	1557.470000	1655.386719	148.117111
11861.825000	1557.470000	1654.358398	-27.851627
11861.825000	1557.470000	1653.328125	33.064552
11861.825000	1557.470000	1652.298828	61.454670
11861.825000	1557.470000	1651.269531	182.666672
11861.825000	1557.470000	1650.239258	4.478695
11861.825000	1557.470000	1649.208984	127.961761
11861.825000	1557.470000	1648.178711	10.153502
11861.825000	1557.470000	1647.148438	15.301982
11861.825000	1557.470000	1646.117188	106.232918
11861.825000	1557.470000	1645.086914	48.760036
11861.825000	1557.470000	1644.055664	14.480794
11861.825000	1557.470000	1643.024414	123.887878
11861.825000	1557.470000	1641.992188	91.914421
11861.825000	1557.470000	1640.960938	159.562149
11861.825000	1557.470000	1639.928711	65.056946
11861.825000	1557.470000	1638.896484	128.044800
11861.825000	1557.470000	1637.864258	133.128052
11861.825000	1557.470000	1636.832031	200.703949
11861.825000	1557.470000	1635.798828	73.854546
11861.825000	1557.470000	1634.766602	-15.922828
11861.825000	1557.470000	1633.733398	100.215866
11861.825000	1557.470000	1632.699219	54.404694
11861.825000	1557.470000	1631.666016	110.360710
11861.825000	1557.470000	1630.632813	140.863724
11861.825000	1557.470000	1629.598633	132.055878
11861.825000	1557.470000	1628.564453	155.607117
11861.825000	1557.470000	1627.530273	100.588501
11861.825000	1557.470000	1626.495117	94.103104
11861.825000	1557.470000	1625.460938	149.987106
11861.825000	1557.470000	1624.425781	171.209091
11861.825000	1557.470000	1623.390625	137.012222
11861.825000	1557.470000	1622.355469	172.082794
11861.825000	1557.470000	1621.319336	202.522934
11861.825000	1557.470000	1620.284180	325.256653
11861.825000	1557.470000	1619.248047	124.957191
11861.825000	1557.470000	1618.211914	309.939453
11861.825000	1557.470000	1617.174805	225.031616
11861.825000	1557.470000	1616.138672	262.365234
11861.825000	1557.470000	1615.101563	244.359634
11861.825000	1557.470000	1614.065430	318.559845
11861.825000	1557.470000	1613.027344	247.556473
11861.825000	1557.470000	1611.990234	252.616882
11861.825000	1557.470000	1610.953125	294.535614
11861.825000	1557.470000	1609.915039	262.744873
11861.825000	1557.470000	1608.876953	465.831573
11861.825000	1557.470000	1607.838867	470.864777
11861.825000	1557.470000	1606.800781	305.580109
11861.825000	1557.470000	1605.761719	379.688202
11861.825000	1557.470000	1604.723633	306.529358
11861.825000	1557.470000	1603.684570	304.712006
11861.825000	1557.470000	1602.644531	399.493774
11861.825000	1557.470000	1601.605469	459.757904
11861.825000	1557.470000	1600.566406	262.523163
11861.825000	1557.470000	1599.526367	295.221313
11861.825000	1557.470000	1598.486328	233.695007
11861.825000	1557.470000	1597.446289	245.724289
11861.825000	1557.470000	1596.405273	207.217575
11861.825000	1557.470000	1595.365234	354.771393
11861.825000	1557.470000	1594.324219	249.685226
11861.825000	1557.470000	1593.283203	236.481842
11861.825000	1557.470000	1592.242188	165.910034
11861.825000	1557.470000	1591.200195	187.169250
11861.825000	1557.470000	1590.159180	346.102020
11861.825000	1557.470000	1589.117188	287.048492
11861.825000	1557.470000	1588.075195	198.211975
11861.825000	1557.470000	1587.032227	88.780800
11861.825000	1557.470000	1585.990234	265.990906
11861.825000	1557.470000	1584.947266	335.406189
11861.825000	1557.470000	1583.904297	253.548737
11861.825000	1557.470000	1582.861328	350.458862
11861.825000	1557.470000	1581.818359	261.782288
11861.825000	1557.470000	1580.775391	237.284882
11861.825000	1557.470000	1579.731445	315.856659
11861.825000	1557.470000	1578.687500	305.118866
11861.825000	1557.470000	1577.643555	301.266022
11861.825000	1557.470000	1576.598633	345.487000
11861.825000	1557.470000	1575.554688	300.467285
11861.825000	1557.470000	1574.509766	212.009644
11861.825000	1557.470000	1573.464844	249.402267
11861.825000	1557.470000	1572.419922	325.671204
11861.825000	1557.470000	1571.374023	292.175385
11861.825000	1557.470000	1570.329102	183.273361
11861.825000	1557.470000	1569.283203	161.275940
11861.825000	1557.470000	1568.237305	116.452148
11861.825000	1557.470000	1567.191406	140.199631
11861.825000	1557.470000	1566.144531	129.688873
11861.825000	1557.470000	1565.098633	57.540985
11861.825000	1557.470000	1564.051758	220.610886
11861.825000	1557.470000	1563.004883	107.412582
11861.825000	1557.470000	1561.957031	106.108803
11861.825000	1557.470000	1560.910156	141.336151
11861.825000	1557.470000	1559.862305	133.216263
11861.825000	1557.470000	1558.814453	182.142487
11861.825000	1557.470000	1557.766602	153.527603
11861.825000	1557.470000	1556.718750	99.860077
11861.825000	1557.470000	1555.669922	73.585449
11861.825000	1557.470000	1554.621094	106.599419
11861.825000	1557.470000	1553.573242	135.063721
11861.825000	1557.470000	1552.523438	147.581772
11861.825000	1557.470000	1551.474609	59.889870
11861.825000	1557.470000	1550.424805	92.952744
11861.825000	1557.470000	1549.375000	123.745087
11861.825000	1557.470000	1548.325195	88.524895
11861.825000	1557.470000	1547.275391	153.485687
11861.825000	1557.470000	1546.225586	29.562702
11861.825000	1557.470000	1545.174805	60.419407
11861.825000	1557.470000	1544.124023	25.316525
11861.825000	1557.470000	1543.073242	99.413887
11861.825000	1557.470000	1542.022461	-40.239517
11861.825000	1557.470000	1540.970703	56.614586
11861.825000	1557.470000	1539.919922	60.262383
11861.825000	1557.470000	1538.868164	52.564518
11861.825000	1557.470000	1537.815430	-7.367955
11861.825000	1557.470000	1536.763672	128.104538
11861.825000	1557.470000	1535.710938	93.206039
11861.825000	1557.470000	1534.659180	115.113144
11861.825000	1557.470000	1533.606445	98.436211
11861.825000	1557.470000	1532.552734	-11.276233
11861.825000	1557.470000	1531.500000	142.325134
11861.825000	1557.470000	1530.446289	62.187706
11861.825000	1557.470000	1529.393555	41.086479
11861.825000	1557.470000	1528.338867	158.361557
11861.825000	1557.470000	1527.285156	51.124767
11861.825000	1557.470000	1526.231445	79.981239
11861.825000	1557.470000	1525.176758	-36.220612
11861.825000	1557.470000	1524.122070	67.471382
11861.825000	1557.470000	1523.067383	17.071983
11861.825000	1557.470000	1522.012695	118.493912
11861.825000	1557.470000	1520.957031	4.732619
11861.825000	1557.470000	1519.901367	29.171335
11861.825000	1557.470000	1518.845703	89.847275
11861.825000	1557.470000	1517.790039	-28.296583
11861.825000	1557.470000	1516.734375	52.783314
11861.825000	1557.470000	1515.677734	13.932627
11861.825000	1557.470000	1514.621094	52.036407
11861.825000	1557.470000	1513.564453	-27.461399
11861.825000	1557.470000	1512.507813	-63.938633
11861.825000	1557.470000	1511.450195	28.489994
11861.825000	1557.470000	1510.393555	84.742180
11861.825000	1557.470000	1509.335938	152.294983
11861.825000	1557.470000	1508.278320	18.749598
11861.825000	1557.470000	1507.219727	23.083210
11861.825000	1557.470000	1506.162109	-62.902905
11861.825000	1557.470000	1505.103516	20.531189
11861.825000	1557.470000	1504.044922	-31.505598
11861.825000	1557.470000	1502.986328	15.823719
11861.825000	1557.470000	1501.926758	-40.655437
11861.825000	1557.470000	1500.868164	-36.163517
11861.825000	1557.470000	1499.808594	-11.345621
11861.825000	1557.470000	1498.749023	11.232719
11861.825000	1557.470000	1497.688477	-65.394974
11861.825000	1557.470000	1496.628906	13.601412
11861.825000	1557.470000	1495.568359	-47.165699
11861.825000	1557.470000	1494.507813	106.218025
11861.825000	1557.470000	1493.447266	-96.445610
11861.825000	1557.470000	1492.386719	-48.942211
11861.825000	1557.470000	1491.325195	-118.555008
11861.825000	1557.470000	1490.263672	-118.304359
11861.825000	1557.470000	1489.202148	-18.964138
11861.825000	1557.470000	1488.140625	51.099953
11861.825000	1557.470000	1487.079102	53.646248
11861.825000	1557.470000	1486.016602	2.213887
11861.825000	1557.470000	1484.954102	25.067055
11861.825000	1557.470000	1483.891602	2.953823
11861.825000	1557.470000	1482.829102	5.612490
11861.825000	1557.470000	1481.765625	26.281992
11861.825000	1557.470000	1480.702148	-31.703281
11861.825000	1557.470000	1479.638672	94.646919
11861.825000	1557.470000	1478.575195	-55.394455
11861.825000	1557.470000	1477.511719	-0.926021
11861.825000	1557.470000	1476.447266	-34.048092
11861.825000	1557.470000	1475.382813	-116.506981
11861.825000	1557.470000	1474.318359	95.137260
11861.825000	1557.470000	1473.253906	118.204926
11861.825000	1557.470000	1472.189453	156.991440
11861.825000	1557.470000	1471.124023	200.254990
11861.825000	1557.470000	1470.058594	88.793076
11861.825000	1557.470000	1468.993164	174.767303
11861.825000	1557.470000	1467.927734	88.209396
11861.825000	1557.470000	1466.861328	70.971405
11861.825000	1557.470000	1465.794922	167.944458
11861.825000	1557.470000	1464.728516	7.715443
11861.825000	1557.470000	1463.662109	-27.083824
11861.825000	1557.470000	1462.594727	157.212753
11861.825000	1557.470000	1461.528320	12.665011
11861.825000	1557.470000	1460.460938	13.938200
11861.825000	1557.470000	1459.393555	-20.915091
11861.825000	1557.470000	1458.326172	6.868776
11861.825000	1557.470000	1457.257813	-52.649456
11861.825000	1557.470000	1456.189453	109.564163
11861.825000	1557.470000	1455.121094	21.123848
11861.825000	1557.470000	1454.052734	122.632584
11861.825000	1557.470000	1452.984375	68.347145
11861.825000	1557.470000	1451.915039	-17.482626
11861.825000	1557.470000	1450.845703	75.041817
11861.825000	1557.470000	1449.776367	45.440441
11861.825000	1557.470000	1448.707031	-4.981632
11861.825000	1557.470000	1447.636719	56.869743
11861.825000	1557.470000	1446.567383	16.163536
11861.825000	1557.470000	1445.497070	2.246815
11861.825000	1557.470000	1444.425781	-39.575237
11861.825000	1557.470000	1443.355469	131.476059
11861.825000	1557.470000	1442.285156	52.055424
11861.825000	1557.470000	1441.213867	110.959793
11861.825000	1557.470000	1440.142578	11.151420
11861.825000	1557.470000	1439.070313	57.515156
11861.825000	1557.470000	1437.999023	34.171707
11861.825000	1557.470000	1436.926758	72.854752
11861.825000	1557.470000	1435.854492	-2.879326
11861.825000	1557.470000	1434.782227	8.130525
11861.825000	1557.470000	1433.709961	-20.434143
11861.825000	1557.470000	1432.636719	135.683716
11861.825000	1557.470000	1431.563477	123.612190
11861.825000	1557.470000	1430.490234	127.024986
11861.825000	1557.470000	1429.416992	111.065582
11861.825000	1557.470000	1428.343750	79.152817
11861.825000	1557.470000	1427.269531	28.512598
11861.825000	1557.470000	1426.195313	-4.079668
11861.825000	1557.470000	1425.121094	142.575134
11861.825000	1557.470000	1424.046875	39.663410
11861.825000	1557.470000	1422.971680	106.884804
11861.825000	1557.470000	1421.896484	-63.942429
11861.825000	1557.470000	1420.821289	-14.107459
11861.825000	1557.470000	1419.746094	8.578567
11861.825000	1557.470000	1418.669922	58.323658
11861.825000	1557.470000	1417.594727	106.296921
11861.825000	1557.470000	1416.518555	-99.199265
11861.825000	1557.470000	1415.442383	61.414452
11861.825000	1557.470000	1414.365234	20.067850
11861.825000	1557.470000	1413.289063	78.397614
11861.825000	1557.470000	1412.211914	160.012955
11861.825000	1557.470000	1411.134766	39.523861
11861.825000	1557.470000	1410.057617	19.294975
11861.825000	1557.470000	1408.979492	107.945618
11861.825000	1557.470000	1407.902344	-48.721252
11861.825000	1557.470000	1406.824219	64.407196
11861.825000	1557.470000	1405.746094	162.308044
11861.825000	1557.470000	1404.666992	194.088501
11861.825000	1557.470000	1403.588867	137.407303
11861.825000	1557.470000	1402.509766	137.091797
11861.825000	1557.470000	1401.430664	269.313812
11861.825000	1557.470000	1400.351563	33.556580
11861.825000	1557.470000	1399.271484	58.736008
11861.825000	1557.470000	1398.192383	-4.027465
11861.825000	1557.470000	1397.112305	103.089798
11861.825000	1557.470000	1396.031250	101.716125
11861.825000	1557.470000	1394.951172	127.944008
11861.825000	1557.470000	1393.871094	77.513580
11861.825000	1557.470000	1392.790039	199.010773
11861.825000	1557.470000	1391.708984	137.036880
11861.825000	1557.470000	1390.626953	40.583626
11861.825000	1557.470000	1389.545898	135.237442
11861.825000	1557.470000	1388.463867	6.210942
11861.825000	1557.470000	1387.381836	-23.564089
11861.825000	1557.470000	1386.299805	-32.420815
11861.825000	1557.470000	1385.217773	-111.060081
11861.825000	1557.470000	1384.134766	-27.258625
11861.825000	1557.470000	1383.051758	-27.347425
11861.825000	1557.470000	1381.968750	54.508316
11861.825000	1557.470000	1380.885742	-3.379075
11861.825000	1557.470000	1379.802734	0.677250
11861.825000	1557.470000	1378.718750	101.786873
11861.825000	1557.470000	1377.634766	2.451233
11861.825000	1557.470000	1376.550781	43.455315
11861.825000	1557.470000	1375.465820	124.624573
11861.825000	1557.470000	1374.381836	-2.927752
11861.825000	1557.470000	1373.296875	90.790253
11861.825000	1557.470000	1372.211914	117.090965
11861.825000	1557.470000	1371.126953	161.076752
11861.825000	1557.470000	1370.041016	125.632729
11861.825000	1557.470000	1368.955078	135.007721
11861.825000	1557.470000	1367.869141	51.221096
11861.825000	1557.470000	1366.783203	87.281952
11861.825000	1557.470000	1365.697266	175.071945
11861.825000	1557.470000	1364.610352	110.993324
11861.825000	1557.470000	1363.523438	140.696732
11861.825000	1557.470000	1362.436523	78.948586
11861.825000	1557.470000	1361.349609	139.544098
11861.825000	1557.470000	1360.261719	126.436874
11861.825000	1557.470000	1359.174805	37.233833
11861.825000	1557.470000	1358.086914	111.563553
11861.825000	1557.470000	1356.998047	130.318954
11861.825000	1557.470000	1355.910156	110.876877
11861.825000	1557.470000	1354.821289	213.986603
11861.825000	1557.470000	1353.732422	76.157509
11861.825000	1557.470000	1352.643555	46.781471
11861.825000	1557.470000	1351.554688	186.414459
11861.825000	1557.470000	1350.464844	190.705032
11861.825000	1557.470000	1349.375000	212.021362
11861.825000	1557.470000	1348.285156	160.698715
11861.825000	1557.470000	1347.195313	154.711014
11861.825000	1557.470000	1346.105469	204.322250
11861.825000	1557.470000	1345.014648	301.380219
11861.825000	1557.470000	1343.923828	158.918579
11861.825000	1557.470000	1342.833008	217.228653
11861.825000	1557.470000	1341.741211	186.996185
11861.825000	1557.470000	1340.650391	192.795395
11861.825000	1557.470000	1339.558594	291.541931
11861.825000	1557.470000	1338.466797	298.723480
11861.825000	1557.470000	1337.374023	313.087830
11861.825000	1557.470000	1336.282227	285.597351
11861.825000	1557.470000	1335.189453	197.938217
11861.825000	1557.470000	1334.096680	216.922836
11861.825000	1557.470000	1333.003906	209.674026
11861.825000	1557.470000	1331.910156	375.630585
11861.825000	1557.470000	1330.817383	213.305954
11861.825000	1557.470000	1329.723633	326.055450
11861.825000	1557.470000	1328.629883	225.070786
11861.825000	1557.470000	1327.535156	293.214081
11861.825000	1557.470000	1326.441406	368.395233
11861.825000	1557.470000	1325.346680	314.416870
11861.825000	1557.470000	1324.251953	301.575653
11861.825000	1557.470000	1323.156250	336.216644
11861.825000	1557.470000	1322.061523	360.720856
11861.825000	1557.470000	1320.965820	278.593140
11861.825000	1557.470000	1319.870117	255.410858
11861.825000	1557.470000	1318.774414	167.206055
11861.825000	1557.470000	1317.678711	231.920898
11861.825000	1557.470000	1316.582031	315.334167
11861.825000	1557.470000	1315.485352	271.693054
11861.825000	1557.470000	1314.388672	143.482758
11861.825000	1557.470000	1313.291016	134.638779
11861.825000	1557.470000	1312.194336	260.355438
11861.825000	1557.470000	1311.096680	137.762238
11861.825000	1557.470000	1309.999023	207.370087
11861.825000	1557.470000	1308.901367	185.461472
11861.825000	1557.470000	1307.802734	81.634094
11861.825000	1557.470000	1306.705078	71.661751
11861.825000	1557.470000	1305.606445	123.298569
11861.825000	1557.470000	1304.506836	-22.127493
11861.825000	1557.470000	1303.408203	48.217896
11861.825000	1557.470000	1302.308594	35.558132
11861.825000	1557.470000	1301.208984	29.856670
11861.825000	1557.470000	1300.109375	-26.357380
11861.825000	1557.470000	1299.009766	69.827408
11861.825000	1557.470000	1297.909180	-59.992706
11861.825000	1557.470000	1296.808594	21.254595
11861.825000	1557.470000	1295.708008	121.533966
11861.825000	1557.470000	1294.607422	39.098145
11861.825000	1557.470000	1293.506836	69.882988
11861.825000	1557.470000	1292.405273	54.101952
11861.825000	1557.470000	1291.303711	-3.355272
11861.825000	1557.470000	1290.202148	27.898821
11861.825000	1557.470000	1289.099609	46.086990
11861.825000	1557.470000	1287.998047	77.440903
11861.825000	1557.470000	1286.895508	102.865242
11861.825000	1557.470000	1285.792969	138.828293
11861.825000	1557.470000	1284.689453	70.713974
11861.825000	1557.470000	1283.586914	-3.140138
11861.825000	1557.470000	1282.483398	-10.880092
11861.825000	1557.470000	1281.379883	136.375458
11861.825000	1557.470000	1280.276367	48.537968
11861.825000	1557.470000	1279.171875	94.154922
11861.825000	1557.470000	1278.067383	92.692154
11861.825000	1557.470000	1276.962891	76.948784
11861.825000	1557.470000	1275.858398	7.753259
11861.825000	1557.470000	1274.753906	55.856377
11861.825000	1557.470000	1273.648438	6.041500
11861.825000	1557.470000	1272.542969	14.380877
11861.825000	1557.470000	1271.437500	60.891426
11861.825000	1557.470000	1270.331055	-25.518492
11861.825000	1557.470000	1269.225586	43.700584
11861.825000	1557.470000	1268.119141	0.763990
11861.825000	1557.470000	1267.012695	-14.896156
11861.825000	1557.470000	1265.906250	-7.235103
11861.825000	1557.470000	1264.798828	-2.015864
11861.825000	1557.470000	1263.691406	-23.716969
11861.825000	1557.470000	1262.583984	-109.011436
11861.825000	1557.470000	1261.476563	-111.193375
11861.825000	1557.470000	1260.368164	-57.789471
11861.825000	1557.470000	1259.260742	19.453838
11861.825000	1557.470000	1258.152344	-3.033249
11861.825000	1557.470000	1257.043945	8.854727
11861.825000	1557.470000	1255.934570	6.026146
11861.825000	1557.470000	1254.825195	38.401901
11861.825000	1557.470000	1253.716797	0.723192
11861.825000	1557.470000	1252.606445	91.286285
11861.825000	1557.470000	1251.497070	0.180837
11861.825000	1557.470000	1250.387695	-46.213577
11861.825000	1557.470000	1249.277344	-18.380661
11861.825000	1557.470000	1248.166992	26.554096
11861.825000	1557.470000	1247.055664	-11.018991
11861.825000	1557.470000	1245.945313	-9.334126
11861.825000	1557.470000	1244.833984	25.677555
11861.825000	1557.470000	1243.722656	-35.682175
11861.825000	1557.470000	1242.611328	-8.154185
11861.825000	1557.470000	1241.499023	-33.320332
11861.825000	1557.470000	1240.387695	-14.910890
11861.825000	1557.470000	1239.275391	-19.489332
11861.825000	1557.470000	1238.162109	24.984722
11861.825000	1557.470000	1237.049805	-18.629139
11861.825000	1557.470000	1235.936523	-8.105338
11861.825000	1557.470000	1234.823242	-56.572250
11861.825000	1557.470000	1233.709961	-1.673569
11861.825000	1557.470000	1232.596680	63.173584
11861.825000	1557.470000	1231.482422	-25.812864
11861.825000	1557.470000	1230.369141	-53.948078
11861.825000	1557.470000	1229.253906	-15.110234
11861.825000	1557.470000	1228.139648	22.705048
11861.825000	1557.470000	1227.025391	-7.557736
11861.825000	1557.470000	1225.910156	6.819335
11861.825000	1557.470000	1224.794922	-78.562828
11861.825000	1557.470000	1223.679688	40.222660
11861.825000	1557.470000	1222.563477	112.021393
11861.825000	1557.470000	1221.447266	8.657930
11861.825000	1557.470000	1220.331055	-51.734543
11861.825000	1557.470000	1219.214844	17.796980
11861.825000	1557.470000	1218.098633	11.607851
11861.825000	1557.470000	1216.981445	-28.929249
11861.825000	1557.470000	1215.864258	-43.953350
11861.825000	1557.470000	1214.747070	-6.921107
11861.825000	1557.470000	1213.629883	-49.025745
11861.825000	1557.470000	1212.511719	-8.121409
11861.825000	1557.470000	1211.393555	7.823065
11861.825000	1557.470000	1210.275391	-28.320360
11861.825000	1557.470000	1209.157227	8.104707
11861.825000	1557.470000	1208.038086	-63.406284
11861.825000	1557.470000	1206.918945	-25.041624
11861.825000	1557.470000	1205.799805	13.324802
11861.825000	1557.470000	1204.680664	36.969997
11861.825000	1557.470000	1203.560547	-48.351810
11861.825000	1557.470000	1202.441406	-77.891075
11861.825000	1557.470000	1201.321289	-101.898277
11861.825000	1557.470000	1200.200195	-11.184073
11861.825000	1557.470000	1199.080078	-81.813332
11861.825000	1557.470000	1197.958984	-17.667175
11861.825000	1557.470000	1196.837891	-51.398201
11861.825000	1557.470000	1195.716797	-24.243555
11861.825000	1557.470000	1194.594727	-11.388988
11861.825000	1557.470000	1193.473633	-25.712765
11861.825000	1557.470000	1192.351563	-6.535287
11861.825000	1557.470000	1191.229492	7.005789
11861.825000	1557.470000	1190.106445	-87.759933
11861.825000	1557.470000	1188.984375	-2.066116
11861.825000	1557.470000	1187.861328	-21.514959
11861.825000	1557.470000	1186.738281	72.840881
11861.825000	1557.470000	1185.614258	26.171564
11861.825000	1557.470000	1184.491211	-50.087090
11861.825000	1557.470000	1183.367188	20.639200
11861.825000	1557.470000	1182.243164	66.786331
11861.825000	1557.470000	1181.119141	52.017555
11861.825000	1557.470000	1179.994141	58.549404
11861.825000	1557.470000	1178.869141	-1.195386
11861.825000	1557.470000	1177.744141	60.630287
11861.825000	1557.470000	1176.619141	76.270020
11861.825000	1557.470000	1175.493164	-48.301155
11861.825000	1557.470000	1174.368164	-1.085254
11861.825000	1557.470000	1173.242188	72.122246
11861.825000	1557.470000	1172.115234	84.165993
11861.825000	1557.470000	1170.989258	40.808914
11861.825000	1557.470000	1169.862305	3.636836
11861.825000	1557.470000	1168.735352	-14.386157
11861.825000	1557.470000	1167.608398	3.082903
11861.825000	1557.470000	1166.481445	71.540062
11861.825000	1557.470000	1165.353516	-37.287014
11861.825000	1557.470000	1164.225586	42.661983
11861.825000	1557.470000	1163.097656	23.307182
11861.825000	1557.470000	1161.968750	30.503178
11861.825000	1557.470000	1160.840820	95.206406
11861.825000	1557.470000	1159.711914	35.816788
11861.825000	1557.470000	1158.583008	40.457657
11861.825000	1557.470000	1157.453125	-3.014700
11861.825000	1557.470000	1156.324219	92.007843
11861.825000	1557.470000	1155.194336	13.411696
11861.825000	1557.470000	1154.064453	6.651555
11861.825000	1557.470000	1152.933594	0.465503
11861.825000	1557.470000	1151.803711	49.220039
11861.825000	1557.470000	1150.672852	-8.087154
11861.825000	1557.470000	1149.541992	-71.448616
11861.825000	1557.470000	1148.411133	28.512341
11861.825000	1557.470000	1147.279297	8.911693
11861.825000	1557.470000	1146.147461	4.279636
11861.825000	1557.470000	1145.015625	-39.120422
11861.825000	1557.470000	1143.883789	2.662423
11861.825000	1557.470000	1142.750977	29.210192
11861.825000	1557.470000	1141.619141	-53.509869
11861.825000	1557.470000	1140.486328	-32.493626
11861.825000	1557.470000	1139.352539	53.146584
11861.825000	1557.470000	1138.219727	-15.088497
11861.825000	1557.470000	1137.085938	9.078661
11861.825000	1557.470000	1135.952148	-8.699834
11861.825000	1557.470000	1134.818359	42.560139
11861.825000	1557.470000	1133.683594	-43.687634
11861.825000	1557.470000	1132.549805	-78.402267
11861.825000	1557.470000	1131.415039	17.177807
11861.825000	1557.470000	1130.279297	62.706860
11861.825000	1557.470000	1129.144531	79.905762
11861.825000	1557.470000	1128.008789	8.036534
11861.825000	1557.470000	1126.873047	118.688370
11861.825000	1557.470000	1125.737305	-109.448792
11861.825000	1557.470000	1124.601563	-9.746033
11861.825000	1557.470000	1123.464844	88.466911
11861.825000	1557.470000	1122.328125	6.615454
11861.825000	1557.470000	1121.191406	61.463284
11861.825000	1557.470000	1120.054688	19.530418
11861.825000	1557.470000	1118.916992	-0.709676
11861.825000	1557.470000	1117.779297	-28.485592
11861.825000	1557.470000	1116.641602	57.852337
11861.825000	1557.470000	1115.503906	1.412766
11861.825000	1557.470000	1114.365234	34.716488
11861.825000	1557.470000	1113.226563	108.799843
11861.825000	1557.470000	1112.087891	16.215822
11861.825000	1557.470000	1110.949219	63.297695
11861.825000	1557.470000	1109.809570	77.738831
11861.825000	1557.470000	1108.669922	70.789963
11861.825000	1557.470000	1107.530273	50.139351
11861.825000	1557.470000	1106.390625	-33.852161
11861.825000	1557.470000	1105.250000	92.772934
11861.825000	1557.470000	1104.109375	63.956089
11861.825000	1557.470000	1102.968750	96.103081
11861.825000	1557.470000	1101.828125	85.410469
11861.825000	1557.470000	1100.686523	-15.721165
11861.825000	1557.470000	1099.544922	196.302994
11861.825000	1557.470000	1098.403320	113.987099
11861.825000	1557.470000	1097.261719	59.524075
11861.825000	1557.470000	1096.120117	52.174183
11861.825000	1557.470000	1094.977539	159.660736
11861.825000	1557.470000	1093.834961	102.405243
11861.825000	1557.470000	1092.691406	74.766243
11861.825000	1557.470000	1091.548828	133.230103
11861.825000	1557.470000	1090.405273	64.563683
11861.825000	1557.470000	1089.261719	116.056190
11861.825000	1557.470000	1088.118164	96.979652
11861.825000	1557.470000	1086.973633	31.173269
11861.825000	1557.470000	1085.829102	60.499783
11861.825000	1557.470000	1084.684570	133.446777
11861.825000	1557.470000	1083.540039	28.952772
11861.825000	1557.470000	1082.395508	11.919650
11861.825000	1557.470000	1081.250000	23.611885
11861.825000	1557.470000	1080.104492	67.991867
11861.825000	1557.470000	1078.958984	118.382881
11861.825000	1557.470000	1077.812500	64.619690
11861.825000	1557.470000	1076.666016	22.100990
11861.825000	1557.470000	1075.519531	57.206947
11861.825000	1557.470000	1074.373047	-0.605365
11861.825000	1557.470000	1073.226563	6.167023
11861.825000	1557.470000	1072.079102	-13.973439
11861.825000	1557.470000	1070.931641	57.885174
11861.825000	1557.470000	1069.784180	46.898422
11861.825000	1557.470000	1068.635742	104.488655
11861.825000	1557.470000	1067.487305	53.123489
11861.825000	1557.470000	1066.338867	64.092278
11861.825000	1557.470000	1065.190430	64.238319
11861.825000	1557.470000	1064.041992	85.583878
11861.825000	1557.470000	1062.892578	90.841797
11861.825000	1557.470000	1061.743164	18.772213
11861.825000	1557.470000	1060.593750	-34.615063
11861.825000	1557.470000	1059.443359	147.478241
11861.825000	1557.470000	1058.292969	7.167251
11861.825000	1557.470000	1057.142578	108.748177
11861.825000	1557.470000	1055.992188	-0.045065
11861.825000	1557.470000	1054.841797	89.755119
11861.825000	1557.470000	1053.690430	17.968431
11861.825000	1557.470000	1052.539063	44.477398
11861.825000	1557.470000	1051.387695	-37.877609
11861.825000	1557.470000	1050.235352	71.470428
11861.825000	1557.470000	1049.083984	1.207445
11861.825000	1557.470000	1047.931641	84.585823
11861.825000	1557.470000	1046.778320	70.712517
11861.825000	1557.470000	1045.625977	39.340412
11861.825000	1557.470000	1044.472656	56.505287
11861.825000	1557.470000	1043.319336	-8.643195
11861.825000	1557.470000	1042.166016	8.305415
11861.825000	1557.470000	1041.012695	76.184906
11861.825000	1557.470000	1039.858398	-133.713638
11861.825000	1557.470000	1038.704102	89.501396
11861.825000	1557.470000	1037.549805	1.044424
11861.825000	1557.470000	1036.394531	-10.423627
11861.825000	1557.470000	1035.239258	84.564087
11861.825000	1557.470000	1034.083984	69.921692
11861.825000	1557.470000	1032.928711	81.869919
11861.825000	1557.470000	1031.773438	28.098291
11861.825000	1557.470000	1030.617188	91.738396
11861.825000	1557.470000	1029.460938	35.856972
11861.825000	1557.470000	1028.304688	111.108604
11861.825000	1557.470000	1027.147461	7.823363
11861.825000	1557.470000	1025.991211	-76.914597
11861.825000	1557.470000	1024.833984	-12.297498
11861.825000	1557.470000	1023.675781	-76.149284
11861.825000	1557.470000	1022.518555	-19.483664
11861.825000	1557.470000	1021.360352	10.686791
11861.825000	1557.470000	1020.202148	-25.168791
11861.825000	1557.470000	1019.043945	-16.707832
11861.825000	1557.470000	1017.884766	-59.135963
11861.825000	1557.470000	1016.726563	4.802944
11861.825000	1557.470000	1015.567383	-7.668395
11861.825000	1557.470000	1014.407227	114.965431
11861.825000	1557.470000	1013.248047	19.168358
11861.825000	1557.470000	1012.087891	-85.584259
11861.825000	1557.470000	1010.927734	-34.659180
11861.825000	1557.470000	1009.767578	31.453161
11861.825000	1557.470000	1008.606445	-32.282990
11861.825000	1557.470000	1007.446289	52.947670
11861.825000	1557.470000	1006.285156	22.082357
11861.825000	1557.470000	1005.123047	-52.348137
11861.825000	1557.470000	1003.961914	59.248138
11861.825000	1557.470000	1002.799805	38.780045
11861.825000	1557.470000	1001.637695	87.153564
11861.825000	1557.470000	1000.475586	-34.902740
11861.825000	1557.470000	999.312500	73.292122
11861.825000	1557.470000	998.149414	159.068466
11861.825000	1557.470000	996.986328	7.491272
11861.825000	1557.470000	995.823242	0.206340
11861.825000	1557.470000	994.659180	12.338971
11861.825000	1557.470000	993.496094	-0.022209
11861.825000	1557.470000	992.332031	101.863106
11861.825000	1557.470000	991.166992	43.045712
11861.825000	1557.470000	990.002930	-13.029528
11861.825000	1557.470000	988.837891	-10.573758
11861.825000	1557.470000	987.672852	-21.864286
11861.825000	1557.470000	986.506836	1.033720
11861.825000	1557.470000	985.341797	-19.355986
11861.825000	1557.470000	984.175781	9.581333
11861.825000	1557.470000	983.009766	-71.209686
11861.825000	1557.470000	981.843750	-34.560062
11861.825000	1557.470000	980.676758	7.361004
11861.825000	1557.470000	979.509766	179.027954
11861.825000	1557.470000	978.342773	85.411987
11861.825000	1557.470000	977.175781	43.293686
11861.825000	1557.470000	976.007813	4.015532
11861.825000	1557.470000	974.839844	1.077854
11861.825000	1557.470000	973.671875	56.269993
11861.825000	1557.470000	972.503906	56.148373
11861.825000	1557.470000	971.334961	37.359180
11861.825000	1557.470000	970.166016	20.602713
11861.825000	1557.470000	968.997070	90.147308
11861.825000	1557.470000	967.828125	83.494217
11861.825000	1557.470000	966.658203	19.365278
11861.825000	1557.470000	965.488281	67.329712
11861.825000	1557.470000	964.318359	188.152664
11861.825000	1557.470000	963.148438	-37.877735
11861.825000	1557.470000	961.977539	-7.225463
11861.825000	1557.470000	960.806641	144.623047
11861.825000	1557.470000	959.635742	57.892406
11861.825000	1557.470000	958.463867	17.469976
11861.825000	1557.470000	957.292969	-12.519948
11861.825000	1557.470000	956.121094	-42.751202
11861.825000	1557.470000	954.948242	-31.379547
11861.825000	1557.470000	953.776367	169.248398
11861.825000	1557.470000	952.603516	73.692909
11861.825000	1557.470000	951.430664	-92.889854
11861.825000	1557.470000	950.257813	-2.229374
11861.825000	1557.470000	949.084961	2.179494
11861.825000	1557.470000	947.911133	-32.758381
11861.825000	1557.470000	946.737305	6.886371
11861.825000	1557.470000	945.563477	-121.913094
11861.825000	1557.470000	944.388672	64.867714
11861.825000	1557.470000	943.213867	-3.013220
11861.825000	1557.470000	942.039063	74.179962
11861.825000	1557.470000	940.864258	207.121567
11861.825000	1557.470000	939.688477	87.949120
11861.825000	1557.470000	938.513672	57.225742
11861.825000	1557.470000	937.337891	82.831902
11861.825000	1557.470000	936.161133	40.591808
11861.825000	1557.470000	934.985352	33.491478
11861.825000	1557.470000	933.808594	19.258509
11861.825000	1557.470000	932.631836	-78.883743
11861.825000	1557.470000	931.454102	5.017864
11861.825000	1557.470000	930.277344	140.219879
11861.825000	1557.470000	929.099609	137.689377
11861.825000	1557.470000	927.921875	37.132385
11861.825000	1557.470000	926.743164	-16.733580
11861.825000	1557.470000	925.565430	-0.587711
11861.825000	1557.470000	924.386719	1.544330
11861.825000	1557.470000	923.208008	-14.977839
11861.825000	1557.470000	922.028320	8.144822
11861.825000	1557.470000	920.849609	40.581779
11861.825000	1557.470000	919.669922	41.133995
11861.825000	1557.470000	919.474609	28.798717
11861.825000	1557.470000	918.309570	-39.020683
11861.825000	1557.470000	917.143555	-106.817513
11861.825000	1557.470000	915.977539	-13.836381
11861.825000	1557.470000	914.810547	-9.412070
11861.825000	1557.470000	913.644531	13.635188
11861.825000	1557.470000	912.477539	22.698339
11861.825000	1557.470000	911.310547	34.079903
11861.825000	1557.470000	910.143555	-59.282391
11861.825000	1557.470000	908.975586	-78.149376
11861.825000	1557.470000	907.807617	-97.014427
11861.825000	1557.470000	906.639648	-27.488880
11861.825000	1557.470000	905.471680	44.328358
11861.825000	1557.470000	904.303711	67.284676
11861.825000	1557.470000	903.134766	60.006664
11861.825000	1557.470000	901.965820	15.540527
11861.825000	1557.470000	900.796875	-3.353263
11861.825000	1557.470000	899.626953	21.895470
11861.825000	1557.470000	898.457031	35.514580
11861.825000	1557.470000	897.287109	11.967175
11861.825000	1557.470000	896.117188	132.371384
11861.825000	1557.470000	894.947266	34.521626
11861.825000	1557.470000	893.776367	27.217278
11861.825000	1557.470000	892.605469	59.355412
11861.825000	1557.470000	891.434570	-38.437050
11861.825000	1557.470000	890.262695	-87.488174
11861.825000	1557.470000	889.091797	55.943264
11861.825000	1557.470000	887.919922	71.796623
11861.825000	1557.470000	886.748047	-16.670164
11861.825000	1557.470000	885.575195	-74.979774
11861.825000	1557.470000	884.403320	-63.761551
11861.825000	1557.470000	883.230469	-36.338139
11861.825000	1557.470000	882.057617	-27.460627
11861.825000	1557.470000	880.883789	46.243797
11861.825000	1557.470000	879.710938	-35.201340
11861.825000	1557.470000	878.537109	36.147144
11861.825000	1557.470000	877.362305	100.517700
11861.825000	1557.470000	876.188477	97.758102
11861.825000	1557.470000	875.013672	-16.041290
11861.825000	1557.470000	873.839844	71.408234
11861.825000	1557.470000	872.664063	59.387714
11861.825000	1557.470000	871.489258	98.225143
11861.825000	1557.470000	870.313477	74.634140
11861.825000	1557.470000	869.138672	57.978157
11861.825000	1557.470000	867.962891	96.771805
11861.825000	1557.470000	866.786133	-9.981327
11861.825000	1557.470000	865.610352	-17.392353
11861.825000	1557.470000	864.433594	-38.660812
11861.825000	1557.470000	863.256836	-13.757939
11861.825000	1557.470000	862.079102	-118.121071
11861.825000	1557.470000	860.902344	-35.537807
11861.825000	1557.470000	859.724609	-68.348839
11861.825000	1557.470000	858.546875	-103.460442
11861.825000	1557.470000	857.368164	105.884361
11861.825000	1557.470000	856.190430	-9.961121
11861.825000	1557.470000	855.011719	-72.747292
11861.825000	1557.470000	853.833008	-66.374069
11861.825000	1557.470000	852.654297	-76.140808
11861.825000	1557.470000	851.474609	56.922062
11861.825000	1557.470000	850.294922	10.266468
11861.825000	1557.470000	849.115234	143.241226
11861.825000	1557.470000	847.935547	96.571381
11861.825000	1557.470000	846.754883	17.686438
11861.825000	1557.470000	845.575195	-24.351667
11861.825000	1557.470000	844.393555	-82.486710
11861.825000	1557.470000	843.212891	-16.382215
11861.825000	1557.470000	842.032227	91.086639
11861.825000	1557.470000	840.850586	-15.350616
11861.825000	1557.470000	839.668945	16.189392
11861.825000	1557.470000	838.486328	-2.860208
11861.825000	1557.470000	837.304688	42.435890
11861.825000	1557.470000	836.122070	-61.639740
11861.825000	1557.470000	834.939453	59.438148
11861.825000	1557.470000	833.756836	-12.462103
11861.825000	1557.470000	832.573242	9.802319
11861.825000	1557.470000	831.389648	48.118736
11861.825000	1557.470000	830.206055	-51.304173
11861.825000	1557.470000	829.022461	74.192703
11861.825000	1557.470000	827.838867	103.268005
11861.825000	1557.470000	826.654297	91.033737
11861.825000	1557.470000	825.469727	-3.765813
11861.825000	1557.470000	824.284180	-20.577234
11861.825000	1557.470000	823.099609	10.749302
11861.825000	1557.470000	821.914063	-17.536518
11861.825000	1557.470000	820.728516	-2.282660
11861.825000	1557.470000	819.542969	24.410715
11861.825000	1557.470000	818.356445	12.144339
11861.825000	1557.470000	817.169922	-20.736862
11861.825000	1557.470000	815.983398	49.416466
11861.825000	1557.470000	814.796875	5.075935
11861.825000	1557.470000	813.609375	20.248253
11861.825000	1557.470000	812.422852	-40.104843
11861.825000	1557.470000	811.235352	75.708572
11861.825000	1557.470000	810.046875	6.199897
11861.825000	1557.470000	808.859375	89.921242
11861.825000	1557.470000	807.670898	-27.593473
11861.825000	1557.470000	806.482422	65.222931
11861.825000	1557.470000	805.293945	62.007099
11861.825000	1557.470000	804.104492	70.206116
11861.825000	1557.470000	802.915039	-33.542763
11861.825000	1557.470000	801.725586	129.956940
11861.825000	1557.470000	800.536133	74.169266
11861.825000	1557.470000	799.345703	45.789063
11861.825000	1557.470000	798.155273	60.777359
11861.825000	1557.470000	796.964844	14.134097
11861.825000	1557.470000	795.774414	92.983727
11861.825000	1557.470000	794.583008	82.828194
11861.825000	1557.470000	793.392578	81.788185
11861.825000	1557.470000	792.200195	96.697983
11861.825000	1557.470000	791.008789	47.760551
11861.825000	1557.470000	789.816406	-14.843217
11861.825000	1557.470000	788.625000	9.158574
11861.825000	1557.470000	787.432617	49.086674
11861.825000	1557.470000	786.239258	13.820402
11861.825000	1557.470000	785.046875	96.976189
11861.825000	1557.470000	783.853516	114.058319
11861.825000	1557.470000	782.660156	46.896854
11861.825000	1557.470000	781.465820	57.130836
11861.825000	1557.470000	780.272461	-5.463309
11861.825000	1557.470000	779.078125	109.400375
11861.825000	1557.470000	777.883789	83.188461
11861.825000	1557.470000	776.688477	-31.710043
11861.825000	1557.470000	775.494141	135.342697
11861.825000	1557.470000	774.298828	-56.826183
11861.825000	1557.470000	773.103516	-26.216127
11861.825000	1557.470000	771.907227	2.096753
11861.825000	1557.470000	770.711914	-71.836792
11861.825000	1557.470000	769.515625	144.954590
11861.825000	1557.470000	768.318359	0.605869
11861.825000	1557.470000	767.122070	-12.023090
11861.825000	1557.470000	765.924805	43.432343
11861.825000	1557.470000	764.727539	98.852417
11861.825000	1557.470000	763.530273	29.453651
11861.825000	1557.470000	762.333008	14.510666
11861.825000	1557.470000	761.134766	-0.438947
11861.825000	1557.470000	759.936523	82.101807
11861.825000	1557.470000	758.738281	30.848465
11861.825000	1557.470000	757.540039	124.655251
11861.825000	1557.470000	756.340820	89.250397
11861.825000	1557.470000	755.141602	31.192701
11861.825000	1557.470000	753.942383	68.276573
11861.825000	1557.470000	752.742188	94.009277
11861.825000	1557.470000	751.541992	110.661797
11861.825000	1557.470000	750.341797	25.432848
11861.825000	1557.470000	749.141602	193.696182
11861.825000	1557.470000	747.941406	-56.713974
11861.825000	1557.470000	746.740234	5.147568
11861.825000	1557.470000	745.539063	121.251083
11861.825000	1557.470000	744.337891	137.798950
11861.825000	1557.470000	743.135742	115.893074
11861.825000	1557.470000	741.933594	116.586296
11861.825000	1557.470000	740.731445	191.840027
11861.825000	1557.470000	739.529297	50.152069
11861.825000	1557.470000	738.326172	114.066917
11861.825000	1557.470000	737.124023	234.402756
11861.825000	1557.470000	735.919922	262.098755
11861.825000	1557.470000	734.716797	197.214554
11861.825000	1557.470000	733.513672	292.590515
11861.825000	1557.470000	732.309570	270.573822
11861.825000	1557.470000	731.105469	162.823425
11861.825000	1557.470000	729.900391	312.239685
11861.825000	1557.470000	728.696289	206.754227
11861.825000	1557.470000	727.491211	108.062630
11861.825000	1557.470000	726.286133	187.477890
11861.825000	1557.470000	725.080078	142.893051
11861.825000	1557.470000	723.874023	80.288132
11861.825000	1557.470000	722.668945	139.345062
11861.825000	1557.470000	721.461914	94.757813
11861.825000	1557.470000	720.255859	189.788773
11861.825000	1557.470000	719.048828	214.974426
11861.825000	1557.470000	717.841797	174.861511
11861.825000	1557.470000	716.634766	6.480333
11861.825000	1557.470000	715.427734	105.896584
11861.825000	1557.470000	714.219727	74.789368
11861.825000	1557.470000	713.011719	61.673721
11861.825000	1557.470000	711.803711	111.508904
11861.825000	1557.470000	710.594727	-52.254028
11861.825000	1557.470000	709.385742	33.518154
11861.825000	1557.470000	708.176758	47.334282
11861.825000	1557.470000	706.967773	-4.019960
11861.825000	1557.470000	705.758789	83.895416
11861.825000	1557.470000	704.548828	131.338074
11861.825000	1557.470000	703.338867	95.675179
11861.825000	1557.470000	702.127930	19.608471
11861.825000	1557.470000	700.917969	-45.216785
11861.825000	1557.470000	699.707031	-4.570281
11861.825000	1557.470000	698.496094	24.829765
11861.825000	1557.470000	697.285156	25.048107
11861.825000	1557.470000	696.073242	29.737370
11861.825000	1557.470000	694.861328	56.831219
11861.825000	1557.470000	693.649414	63.728401
11861.825000	1557.470000	692.436523	-59.366718
11861.825000	1557.470000	691.224609	-9.903193
11861.825000	1557.470000	690.011719	-76.955040
11861.825000	1557.470000	688.798828	71.005951
11861.825000	1557.470000	687.584961	42.004417
11861.825000	1557.470000	686.372070	33.151451
11861.825000	1557.470000	685.158203	26.527275
11861.825000	1557.470000	683.943359	75.834579
11861.825000	1557.470000	682.729492	134.059265
11861.825000	1557.470000	681.514648	-24.715799
11861.825000	1557.470000	680.299805	46.898499
11861.825000	1557.470000	679.084961	64.812408
11861.825000	1557.470000	677.869141	2.234611
11861.825000	1557.470000	676.653320	62.588196
11861.825000	1557.470000	675.437500	274.842499
11861.825000	1557.470000	674.221680	73.724190
11861.825000	1557.470000	673.004883	4.450948
11861.825000	1557.470000	671.789063	169.657776
11861.825000	1557.470000	670.571289	15.535600
11861.825000	1557.470000	669.354492	118.151039
11861.825000	1557.470000	668.136719	75.660515
11861.825000	1557.470000	666.919922	22.023335
11861.825000	1557.470000	665.701172	100.001366
11861.825000	1557.470000	664.483398	48.589561
11861.825000	1557.470000	663.264648	79.685753
11861.825000	1557.470000	662.045898	170.946793
11861.825000	1557.470000	660.827148	137.350586
11861.825000	1557.470000	659.608398	41.367493
11861.825000	1557.470000	658.388672	76.853050
11861.825000	1557.470000	657.168945	49.949276
11861.825000	1557.470000	655.949219	149.977341
11861.825000	1557.470000	654.728516	7.277890
11861.825000	1557.470000	653.507813	145.093063
11861.825000	1557.470000	652.287109	167.118301
11861.825000	1557.470000	651.066406	175.775375
11861.825000	1557.470000	649.844727	97.663483
11861.825000	1557.470000	648.623047	46.264015
11861.825000	1557.470000	647.401367	137.185043
11861.825000	1557.470000	646.179688	99.120323
11861.825000	1557.470000	644.957031	-76.739937
11861.825000	1557.470000	643.734375	54.121864
11861.825000	1557.470000	642.511719	80.501282
11861.825000	1557.470000	641.289063	-6.419404
11861.825000	1557.470000	640.065430	-11.145535
11861.825000	1557.470000	638.841797	50.730637
11861.825000	1557.470000	637.618164	-58.350544
11861.825000	1557.470000	636.393555	78.950294
11861.825000	1557.470000	635.168945	12.051415
11861.825000	1557.470000	633.944336	100.460800
11861.825000	1557.470000	632.719727	22.482317
11861.825000	1557.470000	631.494141	119.707039
11861.825000	1557.470000	630.269531	165.894974
11861.825000	1557.470000	629.042969	-82.740829
11861.825000	1557.470000	627.817383	27.721437
11861.825000	1557.470000	626.590820	2.980089
11861.825000	1557.470000	625.365234	73.493904
11861.825000	1557.470000	624.137695	-13.268989
11861.825000	1557.470000	622.911133	12.922847
11861.825000	1557.470000	621.683594	114.361931
11861.825000	1557.470000	620.456055	169.275436
11861.825000	1557.470000	619.228516	-1.539589
11861.825000	1557.470000	618.000977	121.945847
11861.825000	1557.470000	616.772461	44.098400
11861.825000	1557.470000	615.543945	-31.509026
11861.825000	1557.470000	614.314453	76.411858
11861.825000	1557.470000	613.085938	-21.282631
11861.825000	1557.470000	611.856445	128.570831
11861.825000	1557.470000	610.626953	46.363754
11861.825000	1557.470000	609.397461	-2.677126
11861.825000	1557.470000	608.166992	7.928133
11861.825000	1557.470000	606.936523	-23.427492
11861.825000	1557.470000	605.706055	-26.074144
11861.825000	1557.470000	604.474609	-110.387360
11861.825000	1557.470000	603.244141	-4.894334
11861.825000	1557.470000	602.012695	-34.026989
11861.825000	1557.470000	600.780273	-52.122303
11861.825000	1557.470000	599.548828	-103.289253
11861.825000	1557.470000	598.316406	-17.742245
11861.825000	1557.470000	597.083984	-24.814114
11861.825000	1557.470000	595.851563	34.230423
11861.825000	1557.470000	594.618164	33.756058
11861.825000	1557.470000	593.384766	44.295418
11861.825000	1557.470000	592.151367	-103.745552
11861.825000	1557.470000	590.917969	80.770760
11861.825000	1557.470000	589.683594	-58.412041
11861.825000	1557.470000	588.449219	-47.867043
11861.825000	1557.470000	587.214844	28.689371
11861.825000	1557.470000	585.979492	-61.994328
11861.825000	1557.470000	584.745117	10.133027
11861.825000	1557.470000	583.509766	60.236912
11861.825000	1557.470000	582.273438	-87.562393
11861.825000	1557.470000	581.038086	-15.476429
11861.825000	1557.470000	579.801758	-59.901730
11861.825000	1557.470000	578.565430	34.120098
11861.825000	1557.470000	577.329102	-8.098782
11861.825000	1557.470000	576.091797	0.215732
11861.825000	1557.470000	574.854492	-46.368607
11861.825000	1557.470000	573.617188	-44.633385
11861.825000	1557.470000	572.378906	3.194761
11861.825000	1557.470000	571.141602	53.199898
11861.825000	1557.470000	569.903320	-78.916603
11861.825000	1557.470000	568.664063	-46.462704
11861.825000	1557.470000	567.425781	82.474983
11861.825000	1557.470000	566.186523	117.077568
11861.825000	1557.470000	564.947266	72.751633
11861.825000	1557.470000	563.708008	76.663071
11861.825000	1557.470000	562.467773	-15.837850
11861.825000	1557.470000	561.227539	-71.054535
11861.825000	1557.470000	559.987305	-36.444889
11861.825000	1557.470000	558.747070	20.050283
11861.825000	1557.470000	557.505859	41.494370
11861.825000	1557.470000	556.264648	91.386917
11861.825000	1557.470000	555.023438	1.205808
11861.825000	1557.470000	553.781250	88.284927
11861.825000	1557.470000	552.539063	186.267609
11861.825000	1557.470000	551.296875	-24.150528
11861.825000	1557.470000	550.054688	3.853102
11861.825000	1557.470000	548.811523	82.125328
11861.825000	1557.470000	547.569336	136.328140
11861.825000	1557.470000	546.325195	48.477482
11861.825000	1557.470000	545.082031	122.331680
11861.825000	1557.470000	543.837891	34.529144
11861.825000	1557.470000	542.593750	42.850323
11861.825000	1557.470000	541.349609	-16.508219
11861.825000	1557.470000	540.105469	7.107097
11861.825000	1557.470000	538.860352	-84.946182
11861.825000	1557.470000	537.615234	58.679981
11861.825000	1557.470000	536.369141	88.817001
11861.825000	1557.470000	535.124023	46.976837
11861.825000	1557.470000	533.877930	135.982468
11861.825000	1557.470000	532.631836	57.097404
11861.825000	1557.470000	531.384766	-2.136007
11861.825000	1557.470000	530.138672	141.309250
11861.825000	1557.470000	528.891602	114.768372
11861.825000	1557.470000	527.643555	12.008881
11861.825000	1557.470000	526.396484	-16.662960
11861.825000	1557.470000	525.148438	35.233788
11861.825000	1557.470000	523.900391	80.581932
11861.825000	1557.470000	522.652344	27.984161
11861.825000	1557.470000	521.403320	127.712982
11861.825000	1557.470000	520.154297	96.885063
11861.825000	1557.470000	518.905273	192.212418
11861.825000	1557.470000	517.656250	100.508377
11861.825000	1557.470000	516.406250	58.843773
11861.825000	1557.470000	515.156250	71.535149
11861.825000	1557.470000	513.906250	53.801575
11861.825000	1557.470000	512.655273	23.041962
11861.825000	1557.470000	511.404297	40.081612
11861.825000	1557.470000	510.153320	72.316299
11861.825000	1557.470000	508.902344	80.656448
11861.825000	1557.470000	507.650391	6.510214
11861.825000	1557.470000	506.398438	-93.645073
11861.825000	1557.470000	505.146484	-0.655380
11861.825000	1557.470000	503.893555	18.539997
11861.825000	1557.470000	502.641602	-81.552063
11861.825000	1557.470000	501.388672	-110.049393
11861.825000	1557.470000	500.134766	24.049150
11861.825000	1557.470000	498.881836	-10.962254
11861.825000	1557.470000	497.627930	103.553650
11861.825000	1557.470000	496.374023	64.202972
11861.825000	1557.470000	495.119141	-3.290836
11861.825000	1557.470000	493.865234	37.516983
11861.825000	1557.470000	492.610352	-62.422421
11861.825000	1557.470000	491.355469	19.499691
11861.825000	1557.470000	490.099609	127.350197
11861.825000	1557.470000	488.843750	-15.828596
11861.825000	1557.470000	487.587891	96.300468
11861.825000	1557.470000	486.332031	143.495926
11861.825000	1557.470000	485.075195	39.308929
11861.825000	1557.470000	483.818359	71.351074
11861.825000	1557.470000	482.561523	-32.788853
11861.825000	1557.470000	481.304688	61.904198
11861.825000	1557.470000	480.046875	13.963967
11861.825000	1557.470000	478.789063	11.393329
11861.825000	1557.470000	477.531250	-49.489750
11861.825000	1557.470000	476.272461	142.239746
11861.825000	1557.470000	475.013672	36.004566
11861.825000	1557.470000	473.754883	63.601379
11861.825000	1557.470000	472.496094	93.331223
11861.825000	1557.470000	471.236328	157.547943
11861.825000	1557.470000	469.976563	131.145187
11861.825000	1557.470000	468.716797	156.487396
11861.825000	1557.470000	467.456055	199.046997
11861.825000	1557.470000	466.196289	84.242401
11861.825000	1557.470000	464.935547	152.623688
11861.825000	1557.470000	463.673828	169.252930
11861.825000	1557.470000	462.413086	246.165268
11861.825000	1557.470000	461.151367	301.489197
11861.825000	1557.470000	459.889648	150.089981
11861.825000	1557.470000	458.626953	185.995392
11861.825000	1557.470000	457.364258	157.303055
11861.825000	1557.470000	456.101563	150.114975
11861.825000	1557.470000	454.838867	117.092201
11861.825000	1557.470000	453.575195	206.639297
11861.825000	1557.470000	452.312500	227.318329
11861.825000	1557.470000	451.047852	254.406128
11861.825000	1557.470000	449.784180	333.035156
11861.825000	1557.470000	448.519531	271.930511
11861.825000	1557.470000	447.254883	200.079346
11861.825000	1557.470000	445.990234	285.015106
11861.825000	1557.470000	444.725586	382.763367
11861.825000	1557.470000	443.459961	452.522186
11861.825000	1557.470000	442.194336	247.475082
11861.825000	1557.470000	440.927734	289.258972
11861.825000	1557.470000	439.662109	268.767181
11861.825000	1557.470000	438.395508	233.226532
11861.825000	1557.470000	437.127930	139.753128
11861.825000	1557.470000	435.861328	196.363419
11861.825000	1557.470000	434.593750	250.757080
11861.825000	1557.470000	433.326172	210.781158
11861.825000	1557.470000	432.058594	427.894958
11861.825000	1557.470000	430.790039	347.093323
11861.825000	1557.470000	429.521484	334.809662
11861.825000	1557.470000	428.252930	198.282028
11861.825000	1557.470000	426.984375	316.515503
11861.825000	1557.470000	425.714844	329.759979
11861.825000	1557.470000	424.445313	227.383987
11861.825000	1557.470000	423.174805	308.979462
11861.825000	1557.470000	421.905273	174.441788
11861.825000	1557.470000	420.634766	253.744751
11861.825000	1557.470000	419.364258	260.252472
11861.825000	1557.470000	418.092773	211.107422
11861.825000	1557.470000	416.822266	204.656815
11861.825000	1557.470000	415.550781	125.485687
11861.825000	1557.470000	414.278320	323.975067
11861.825000	1557.470000	413.006836	193.399643
11861.825000	1557.470000	411.734375	216.536865
11861.825000	1557.470000	410.461914	239.580582
11861.825000	1557.470000	409.188477	275.332153
11861.825000	1557.470000	407.916016	219.226303
11861.825000	1557.470000	406.642578	239.854233
11861.825000	1557.470000	405.368164	262.509735
11861.825000	1557.470000	404.094727	240.281555
11861.825000	1557.470000	402.820313	279.790192
11861.825000	1557.470000	401.545898	317.048920
11861.825000	1557.470000	400.270508	207.139618
11861.825000	1557.470000	398.996094	284.670990
11861.825000	1557.470000	397.720703	229.985825
11861.825000	1557.470000	396.444336	288.083099
11861.825000	1557.470000	395.168945	290.684235
11861.825000	1557.470000	393.892578	278.261749
11861.825000	1557.470000	392.616211	269.980042
11861.825000	1557.470000	391.339844	140.291306
11861.825000	1557.470000	390.062500	197.738647
11861.825000	1557.470000	388.785156	248.650665
11861.825000	1557.470000	387.507813	14.460353
11861.825000	1557.470000	386.229492	220.314850
11861.825000	1557.470000	384.951172	277.152771
11861.825000	1557.470000	383.672852	176.566116
11861.825000	1557.470000	382.394531	218.227371
11861.825000	1557.470000	381.115234	287.329926
11861.825000	1557.470000	379.835938	258.558716
11861.825000	1557.470000	378.556641	310.326782
11861.825000	1557.470000	377.277344	349.175049
11861.825000	1557.470000	375.997070	436.650269
11861.825000	1557.470000	374.716797	419.948792
11861.825000	1557.470000	373.435547	473.083252
11861.825000	1557.470000	372.155273	296.964996
11861.825000	1557.470000	370.874023	279.772583
11861.825000	1557.470000	369.591797	243.318176
11861.825000	1557.470000	368.310547	168.546951
11861.825000	1557.470000	367.028320	140.229736
11861.825000	1557.470000	365.746094	126.559525
11861.825000	1557.470000	364.463867	110.577675
11861.825000	1557.470000	363.180664	221.453415
11861.825000	1557.470000	361.897461	192.334564
11861.825000	1557.470000	360.614258	137.613861
11861.825000	1557.470000	359.330078	99.622955
11861.825000	1557.470000	358.045898	93.164253
11861.825000	1557.470000	356.761719	213.404694
11861.825000	1557.470000	355.477539	185.316360
11861.825000	1557.470000	354.192383	118.936012
11861.825000	1557.470000	352.907227	105.193420
11861.825000	1557.470000	351.622070	55.281158
11861.825000	1557.470000	350.336914	38.948868
11861.825000	1557.470000	349.050781	113.202049
11861.825000	1557.470000	347.764648	98.451393
11861.825000	1557.470000	346.477539	39.085648
11861.825000	1557.470000	345.191406	-26.850414
11861.825000	1557.470000	343.904297	25.160685
11861.825000	1557.470000	342.616211	116.953011
11861.825000	1557.470000	341.329102	29.089441
11861.825000	1557.470000	340.041016	46.430721
11861.825000	1557.470000	338.752930	63.465607
11861.825000	1557.470000	337.463867	-12.594916
11861.825000	1557.470000	336.175781	-25.681114
11861.825000	1557.470000	334.886719	-20.120840
11861.825000	1557.470000	333.596680	92.566360
11861.825000	1557.470000	332.307617	99.555428
11861.825000	1557.470000	331.017578	110.407967
11861.825000	1557.470000	329.727539	-108.607864
11861.825000	1557.470000	328.436523	36.323158
11861.825000	1557.470000	327.146484	71.401108
11861.825000	1557.470000	325.855469	53.483601
11861.825000	1557.470000	324.563477	16.259953
11861.825000	1557.470000	323.272461	-61.271503
11861.825000	1557.470000	321.980469	-61.351692
11861.825000	1557.470000	320.688477	-177.455292
11861.825000	1557.470000	319.395508	-106.832550
11861.825000	1557.470000	318.103516	118.892296
11861.825000	1557.470000	316.810547	79.355606
11861.825000	1557.470000	315.516602	91.924286
11861.825000	1557.470000	314.223633	34.775467
11861.825000	1557.470000	312.929688	-45.888683
11861.825000	1557.470000	311.635742	5.302891
11861.825000	1557.470000	310.340820	200.833038
11861.825000	1557.470000	309.045898	26.513700
11861.825000	1557.470000	307.750977	-18.116392
11861.825000	1557.470000	306.456055	148.651810
11861.825000	1557.470000	305.160156	140.805298
11861.825000	1557.470000	303.865234	136.693344
11861.825000	1557.470000	302.568359	280.879730
11861.825000	1557.470000	301.272461	223.345139
11861.825000	1557.470000	299.975586	154.835876
11861.825000	1557.470000	298.678711	178.011169
