#X		#Y		#Wave		#Intensity
11861.825000	1491.365000	1999.980469	16.799829
11861.825000	1491.365000	1999.016602	-202.129196
11861.825000	1491.365000	1998.052734	-52.133240
11861.825000	1491.365000	1997.087891	-31.566799
11861.825000	1491.365000	1996.123047	-118.054443
11861.825000	1491.365000	1995.158203	-11.777494
11861.825000	1491.365000	1994.193359	-101.680237
11861.825000	1491.365000	1993.228516	266.101349
11861.825000	1491.365000	1992.262695	-102.017570
11861.825000	1491.365000	1991.297852	2.355977
11861.825000	1491.365000	1990.332031	61.724766
11861.825000	1491.365000	1989.366211	100.868088
11861.825000	1491.365000	1988.399414	28.274601
11861.825000	1491.365000	1987.433594	351.086670
11861.825000	1491.365000	1986.466797	255.460999
11861.825000	1491.365000	1985.500977	297.975555
11861.825000	1491.365000	1984.534180	112.691261
11861.825000	1491.365000	1983.567383	85.328781
11861.825000	1491.365000	1982.599609	297.364380
11861.825000	1491.365000	1981.632813	168.038925
11861.825000	1491.365000	1980.665039	236.086548
11861.825000	1491.365000	1979.697266	138.335709
11861.825000	1491.365000	1978.729492	82.319580
11861.825000	1491.365000	1977.761719	80.370850
11861.825000	1491.365000	1976.792969	33.729309
11861.825000	1491.365000	1975.825195	26.342077
11861.825000	1491.365000	1974.856445	159.368256
11861.825000	1491.365000	1973.887695	235.369110
11861.825000	1491.365000	1972.918945	49.653839
11861.825000	1491.365000	1971.949219	169.600632
11861.825000	1491.365000	1970.980469	156.149094
11861.825000	1491.365000	1970.010742	112.921852
11861.825000	1491.365000	1969.041016	42.409016
11861.825000	1491.365000	1968.071289	168.892380
11861.825000	1491.365000	1967.101563	41.373295
11861.825000	1491.365000	1966.130859	307.888794
11861.825000	1491.365000	1965.161133	7.662758
11861.825000	1491.365000	1964.190430	291.018616
11861.825000	1491.365000	1963.219727	387.008911
11861.825000	1491.365000	1962.249023	315.439758
11861.825000	1491.365000	1961.277344	283.145355
11861.825000	1491.365000	1960.306641	415.611877
11861.825000	1491.365000	1959.334961	439.662415
11861.825000	1491.365000	1958.363281	-3.764877
11861.825000	1491.365000	1957.391602	194.758224
11861.825000	1491.365000	1956.419922	-5.224970
11861.825000	1491.365000	1955.447266	193.037155
11861.825000	1491.365000	1954.474609	37.195370
11861.825000	1491.365000	1953.501953	122.169441
11861.825000	1491.365000	1952.529297	172.640732
11861.825000	1491.365000	1951.556641	173.895889
11861.825000	1491.365000	1950.583984	258.596405
11861.825000	1491.365000	1949.610352	31.334414
11861.825000	1491.365000	1948.636719	25.075590
11861.825000	1491.365000	1947.663086	153.783752
11861.825000	1491.365000	1946.689453	184.230179
11861.825000	1491.365000	1945.715820	231.804153
11861.825000	1491.365000	1944.741211	200.814636
11861.825000	1491.365000	1943.767578	-92.651878
11861.825000	1491.365000	1942.792969	158.411407
11861.825000	1491.365000	1941.818359	-54.071484
11861.825000	1491.365000	1940.842773	-70.371300
11861.825000	1491.365000	1939.868164	-113.637253
11861.825000	1491.365000	1938.892578	110.220779
11861.825000	1491.365000	1937.916992	111.020935
11861.825000	1491.365000	1936.941406	8.928685
11861.825000	1491.365000	1935.965820	44.035156
11861.825000	1491.365000	1934.990234	66.887413
11861.825000	1491.365000	1934.013672	243.980469
11861.825000	1491.365000	1933.037109	-73.461884
11861.825000	1491.365000	1932.060547	-153.370453
11861.825000	1491.365000	1931.083984	-27.685911
11861.825000	1491.365000	1930.107422	159.132370
11861.825000	1491.365000	1929.129883	-57.707191
11861.825000	1491.365000	1928.153320	165.773560
11861.825000	1491.365000	1927.175781	161.789597
11861.825000	1491.365000	1926.198242	128.497452
11861.825000	1491.365000	1925.219727	43.912880
11861.825000	1491.365000	1924.242188	-30.830345
11861.825000	1491.365000	1923.263672	43.527519
11861.825000	1491.365000	1922.285156	303.552673
11861.825000	1491.365000	1921.306641	9.081758
11861.825000	1491.365000	1920.328125	-19.065298
11861.825000	1491.365000	1919.349609	87.121788
11861.825000	1491.365000	1918.370117	117.632996
11861.825000	1491.365000	1917.391602	123.771835
11861.825000	1491.365000	1916.412109	17.700333
11861.825000	1491.365000	1915.431641	-24.857576
11861.825000	1491.365000	1914.452148	-184.435791
11861.825000	1491.365000	1913.472656	-0.036854
11861.825000	1491.365000	1912.492188	-25.360441
11861.825000	1491.365000	1911.511719	59.079163
11861.825000	1491.365000	1910.531250	-61.208477
11861.825000	1491.365000	1909.550781	13.557599
11861.825000	1491.365000	1908.569336	144.382706
11861.825000	1491.365000	1907.588867	51.094994
11861.825000	1491.365000	1906.607422	-161.454819
11861.825000	1491.365000	1905.625977	25.493677
11861.825000	1491.365000	1904.644531	-89.479103
11861.825000	1491.365000	1903.662109	-187.319092
11861.825000	1491.365000	1902.680664	172.486557
11861.825000	1491.365000	1901.698242	-122.359650
11861.825000	1491.365000	1900.715820	16.010496
11861.825000	1491.365000	1899.733398	115.465202
11861.825000	1491.365000	1898.750000	-8.809649
11861.825000	1491.365000	1897.767578	134.486023
11861.825000	1491.365000	1896.784180	-77.156906
11861.825000	1491.365000	1895.800781	-62.619820
11861.825000	1491.365000	1894.817383	49.170296
11861.825000	1491.365000	1893.833984	122.096962
11861.825000	1491.365000	1892.850586	0.708687
11861.825000	1491.365000	1891.866211	59.147423
11861.825000	1491.365000	1890.881836	178.324249
11861.825000	1491.365000	1889.897461	-73.958565
11861.825000	1491.365000	1888.913086	101.131477
11861.825000	1491.365000	1887.927734	166.991257
11861.825000	1491.365000	1886.943359	-235.441208
11861.825000	1491.365000	1885.958008	-140.330658
11861.825000	1491.365000	1884.972656	-57.334946
11861.825000	1491.365000	1883.987305	251.217102
11861.825000	1491.365000	1883.001953	60.211452
11861.825000	1491.365000	1882.015625	55.989368
11861.825000	1491.365000	1881.029297	-1.508723
11861.825000	1491.365000	1880.042969	188.240738
11861.825000	1491.365000	1879.056641	62.987854
11861.825000	1491.365000	1878.070313	-265.659912
11861.825000	1491.365000	1877.083984	-39.507210
11861.825000	1491.365000	1876.096680	34.043148
11861.825000	1491.365000	1875.109375	88.238747
11861.825000	1491.365000	1874.122070	-82.664612
11861.825000	1491.365000	1873.134766	-115.516632
11861.825000	1491.365000	1872.146484	8.961567
11861.825000	1491.365000	1871.159180	-72.206062
11861.825000	1491.365000	1870.170898	-90.421623
11861.825000	1491.365000	1869.182617	41.342339
11861.825000	1491.365000	1868.194336	-3.416332
11861.825000	1491.365000	1867.205078	2.637938
11861.825000	1491.365000	1866.216797	47.392895
11861.825000	1491.365000	1865.227539	-72.164665
11861.825000	1491.365000	1864.238281	-208.563217
11861.825000	1491.365000	1863.249023	60.944000
11861.825000	1491.365000	1862.259766	-17.410913
11861.825000	1491.365000	1861.269531	-136.764008
11861.825000	1491.365000	1860.279297	-33.935928
11861.825000	1491.365000	1859.290039	-194.230835
11861.825000	1491.365000	1858.298828	-253.086395
11861.825000	1491.365000	1857.308594	117.599312
11861.825000	1491.365000	1856.318359	94.932411
11861.825000	1491.365000	1855.327148	127.765160
11861.825000	1491.365000	1854.335938	-111.905914
11861.825000	1491.365000	1853.344727	-9.096877
11861.825000	1491.365000	1852.353516	153.951584
11861.825000	1491.365000	1851.362305	114.491936
11861.825000	1491.365000	1850.370117	-67.118645
11861.825000	1491.365000	1849.377930	-120.960915
11861.825000	1491.365000	1848.385742	-8.568542
11861.825000	1491.365000	1847.393555	226.614609
11861.825000	1491.365000	1846.401367	107.747253
11861.825000	1491.365000	1845.408203	210.412109
11861.825000	1491.365000	1844.415039	77.151436
11861.825000	1491.365000	1843.421875	93.145386
11861.825000	1491.365000	1842.428711	-20.798935
11861.825000	1491.365000	1841.435547	223.739853
11861.825000	1491.365000	1840.441406	237.279037
11861.825000	1491.365000	1839.448242	77.664337
11861.825000	1491.365000	1838.454102	55.145679
11861.825000	1491.365000	1837.459961	75.894211
11861.825000	1491.365000	1836.464844	17.310974
11861.825000	1491.365000	1835.470703	62.063053
11861.825000	1491.365000	1834.475586	123.600487
11861.825000	1491.365000	1833.480469	151.470444
11861.825000	1491.365000	1832.485352	140.886292
11861.825000	1491.365000	1831.490234	103.874886
11861.825000	1491.365000	1830.495117	114.870293
11861.825000	1491.365000	1829.499023	37.029320
11861.825000	1491.365000	1828.502930	302.363098
11861.825000	1491.365000	1827.506836	294.048889
11861.825000	1491.365000	1826.510742	69.810829
11861.825000	1491.365000	1825.513672	71.081039
11861.825000	1491.365000	1824.517578	170.639374
11861.825000	1491.365000	1823.520508	-79.910217
11861.825000	1491.365000	1822.523438	285.649628
11861.825000	1491.365000	1821.526367	303.528442
11861.825000	1491.365000	1820.529297	182.386932
11861.825000	1491.365000	1819.531250	56.461750
11861.825000	1491.365000	1818.533203	-124.545189
11861.825000	1491.365000	1817.535156	-92.384300
11861.825000	1491.365000	1816.537109	71.412796
11861.825000	1491.365000	1815.539063	57.956066
11861.825000	1491.365000	1814.540039	34.886330
11861.825000	1491.365000	1813.541992	105.109314
11861.825000	1491.365000	1812.542969	194.398193
11861.825000	1491.365000	1811.543945	85.060677
11861.825000	1491.365000	1810.543945	90.513824
11861.825000	1491.365000	1809.544922	-26.035460
11861.825000	1491.365000	1808.544922	-42.182476
11861.825000	1491.365000	1807.544922	104.163918
11861.825000	1491.365000	1806.544922	118.958542
11861.825000	1491.365000	1805.544922	116.966774
11861.825000	1491.365000	1804.544922	-85.751091
11861.825000	1491.365000	1803.543945	-59.158146
11861.825000	1491.365000	1802.542969	22.291178
11861.825000	1491.365000	1801.541992	-99.295891
11861.825000	1491.365000	1800.541016	137.170319
11861.825000	1491.365000	1799.539063	-37.025429
11861.825000	1491.365000	1798.538086	318.524353
11861.825000	1491.365000	1797.536133	139.459610
11861.825000	1491.365000	1796.534180	74.890839
11861.825000	1491.365000	1795.532227	-61.267029
11861.825000	1491.365000	1794.529297	76.764679
11861.825000	1491.365000	1793.527344	-61.863663
11861.825000	1491.365000	1792.524414	126.029358
11861.825000	1491.365000	1791.521484	144.581955
11861.825000	1491.365000	1790.518555	139.227707
11861.825000	1491.365000	1789.514648	57.570221
11861.825000	1491.365000	1788.511719	92.576080
11861.825000	1491.365000	1787.507813	244.171204
11861.825000	1491.365000	1786.503906	250.402435
11861.825000	1491.365000	1785.500000	66.125328
11861.825000	1491.365000	1784.496094	217.406387
11861.825000	1491.365000	1783.491211	192.467041
11861.825000	1491.365000	1782.486328	326.850616
11861.825000	1491.365000	1781.481445	85.289658
11861.825000	1491.365000	1780.476563	164.782410
11861.825000	1491.365000	1779.471680	-143.395554
11861.825000	1491.365000	1778.465820	42.913425
11861.825000	1491.365000	1777.460938	200.549866
11861.825000	1491.365000	1776.455078	46.741943
11861.825000	1491.365000	1775.449219	-19.187071
11861.825000	1491.365000	1774.442383	259.249359
11861.825000	1491.365000	1773.436523	17.384615
11861.825000	1491.365000	1772.429688	169.684616
11861.825000	1491.365000	1771.422852	267.233765
11861.825000	1491.365000	1770.416016	286.328339
11861.825000	1491.365000	1769.409180	84.622063
11861.825000	1491.365000	1768.402344	151.016678
11861.825000	1491.365000	1767.394531	124.771713
11861.825000	1491.365000	1766.386719	-58.094296
11861.825000	1491.365000	1765.378906	0.893725
11861.825000	1491.365000	1764.371094	97.699158
11861.825000	1491.365000	1763.362305	208.591995
11861.825000	1491.365000	1762.354492	-78.805145
11861.825000	1491.365000	1761.345703	91.128197
11861.825000	1491.365000	1760.336914	-108.676674
11861.825000	1491.365000	1759.328125	37.318913
11861.825000	1491.365000	1758.318359	-6.297051
11861.825000	1491.365000	1757.308594	234.134613
11861.825000	1491.365000	1756.299805	-91.397469
11861.825000	1491.365000	1755.290039	-158.924164
11861.825000	1491.365000	1754.279297	76.367432
11861.825000	1491.365000	1753.269531	1.540248
11861.825000	1491.365000	1752.258789	96.952545
11861.825000	1491.365000	1751.249023	-22.983702
11861.825000	1491.365000	1750.238281	65.105057
11861.825000	1491.365000	1749.226563	65.580681
11861.825000	1491.365000	1748.215820	-21.492891
11861.825000	1491.365000	1747.204102	70.965424
11861.825000	1491.365000	1746.193359	-51.718292
11861.825000	1491.365000	1745.181641	-233.518967
11861.825000	1491.365000	1744.168945	151.491760
11861.825000	1491.365000	1743.157227	-200.501999
11861.825000	1491.365000	1742.144531	-96.801819
11861.825000	1491.365000	1741.132813	23.289532
11861.825000	1491.365000	1740.120117	46.463280
11861.825000	1491.365000	1739.106445	43.564873
11861.825000	1491.365000	1738.093750	-70.307434
11861.825000	1491.365000	1737.080078	120.031235
11861.825000	1491.365000	1736.067383	-97.778473
11861.825000	1491.365000	1735.053711	-2.021737
11861.825000	1491.365000	1734.040039	124.242500
11861.825000	1491.365000	1733.025391	-166.824387
11861.825000	1491.365000	1732.011719	159.521606
11861.825000	1491.365000	1730.997070	73.331566
11861.825000	1491.365000	1729.982422	144.896591
11861.825000	1491.365000	1728.967773	-85.120964
11861.825000	1491.365000	1727.952148	-39.662663
11861.825000	1491.365000	1726.937500	-17.856482
11861.825000	1491.365000	1725.921875	-102.085800
11861.825000	1491.365000	1724.906250	-68.716164
11861.825000	1491.365000	1723.890625	-176.631027
11861.825000	1491.365000	1722.875000	195.290039
11861.825000	1491.365000	1721.858398	-98.645912
11861.825000	1491.365000	1720.841797	9.541739
11861.825000	1491.365000	1719.825195	63.515480
11861.825000	1491.365000	1718.808594	-80.081703
11861.825000	1491.365000	1717.791992	53.599258
11861.825000	1491.365000	1716.774414	-66.647652
11861.825000	1491.365000	1715.756836	5.694858
11861.825000	1491.365000	1714.739258	185.959290
11861.825000	1491.365000	1713.721680	208.718414
11861.825000	1491.365000	1712.704102	55.279381
11861.825000	1491.365000	1711.685547	169.405563
11861.825000	1491.365000	1710.667969	116.765114
11861.825000	1491.365000	1709.649414	120.358795
11861.825000	1491.365000	1708.630859	27.665560
11861.825000	1491.365000	1707.611328	49.844021
11861.825000	1491.365000	1706.592773	-134.447678
11861.825000	1491.365000	1705.573242	61.081650
11861.825000	1491.365000	1704.553711	399.448456
11861.825000	1491.365000	1703.534180	48.497192
11861.825000	1491.365000	1702.513672	79.557007
11861.825000	1491.365000	1701.494141	44.922699
11861.825000	1491.365000	1700.473633	-20.250051
11861.825000	1491.365000	1699.453125	-90.169868
11861.825000	1491.365000	1698.432617	-113.318428
11861.825000	1491.365000	1697.412109	135.031586
11861.825000	1491.365000	1696.390625	43.784172
11861.825000	1491.365000	1695.369141	-84.957390
11861.825000	1491.365000	1694.347656	-21.868080
11861.825000	1491.365000	1693.326172	55.148628
11861.825000	1491.365000	1692.304688	-41.027527
11861.825000	1491.365000	1691.282227	250.926102
11861.825000	1491.365000	1690.260742	-41.808102
11861.825000	1491.365000	1689.238281	60.528522
11861.825000	1491.365000	1688.214844	-49.944210
11861.825000	1491.365000	1687.192383	12.472199
11861.825000	1491.365000	1686.168945	-9.330201
11861.825000	1491.365000	1685.146484	281.805389
11861.825000	1491.365000	1684.123047	264.477844
11861.825000	1491.365000	1683.099609	25.267994
11861.825000	1491.365000	1682.075195	47.519497
11861.825000	1491.365000	1681.051758	235.413177
11861.825000	1491.365000	1680.027344	346.143097
11861.825000	1491.365000	1679.002930	46.137154
11861.825000	1491.365000	1677.978516	-78.877098
11861.825000	1491.365000	1676.953125	45.618534
11861.825000	1491.365000	1675.928711	218.976471
11861.825000	1491.365000	1674.903320	252.310120
11861.825000	1491.365000	1673.877930	73.457916
11861.825000	1491.365000	1672.852539	367.677734
11861.825000	1491.365000	1671.826172	167.760040
11861.825000	1491.365000	1670.800781	214.793182
11861.825000	1491.365000	1669.774414	26.501421
11861.825000	1491.365000	1668.748047	231.751816
11861.825000	1491.365000	1667.721680	43.406841
11861.825000	1491.365000	1666.694336	404.397308
11861.825000	1491.365000	1665.667969	299.754578
11861.825000	1491.365000	1664.640625	250.926056
11861.825000	1491.365000	1663.613281	330.008606
11861.825000	1491.365000	1662.585938	432.265137
11861.825000	1491.365000	1661.557617	250.710281
11861.825000	1491.365000	1660.530273	352.835846
11861.825000	1491.365000	1659.501953	687.312500
11861.825000	1491.365000	1658.473633	287.194336
11861.825000	1491.365000	1657.444336	328.661957
11861.825000	1491.365000	1656.416016	502.501465
11861.825000	1491.365000	1655.386719	381.223999
11861.825000	1491.365000	1654.358398	408.589569
11861.825000	1491.365000	1653.328125	468.378143
11861.825000	1491.365000	1652.298828	669.720398
11861.825000	1491.365000	1651.269531	448.529266
11861.825000	1491.365000	1650.239258	733.238892
11861.825000	1491.365000	1649.208984	692.991821
11861.825000	1491.365000	1648.178711	856.846924
11861.825000	1491.365000	1647.148438	981.176575
11861.825000	1491.365000	1646.117188	599.931458
11861.825000	1491.365000	1645.086914	701.010010
11861.825000	1491.365000	1644.055664	762.600342
11861.825000	1491.365000	1643.024414	759.248474
11861.825000	1491.365000	1641.992188	788.291870
11861.825000	1491.365000	1640.960938	930.813538
11861.825000	1491.365000	1639.928711	1151.984009
11861.825000	1491.365000	1638.896484	1095.174683
11861.825000	1491.365000	1637.864258	904.083923
11861.825000	1491.365000	1636.832031	1224.586426
11861.825000	1491.365000	1635.798828	1181.594360
11861.825000	1491.365000	1634.766602	1265.870117
11861.825000	1491.365000	1633.733398	1188.146118
11861.825000	1491.365000	1632.699219	1149.739502
11861.825000	1491.365000	1631.666016	1159.905273
11861.825000	1491.365000	1630.632813	1331.888062
11861.825000	1491.365000	1629.598633	1300.363037
11861.825000	1491.365000	1628.564453	1425.988770
11861.825000	1491.365000	1627.530273	1355.151489
11861.825000	1491.365000	1626.495117	1494.543701
11861.825000	1491.365000	1625.460938	1583.071411
11861.825000	1491.365000	1624.425781	1602.265991
11861.825000	1491.365000	1623.390625	1508.314575
11861.825000	1491.365000	1622.355469	1529.812134
11861.825000	1491.365000	1621.319336	1516.664429
11861.825000	1491.365000	1620.284180	1715.823975
11861.825000	1491.365000	1619.248047	1725.712036
11861.825000	1491.365000	1618.211914	1382.691528
11861.825000	1491.365000	1617.174805	1464.120972
11861.825000	1491.365000	1616.138672	1642.373047
11861.825000	1491.365000	1615.101563	1615.382690
11861.825000	1491.365000	1614.065430	1588.420776
11861.825000	1491.365000	1613.027344	1849.492676
11861.825000	1491.365000	1611.990234	1748.775513
11861.825000	1491.365000	1610.953125	1650.409302
11861.825000	1491.365000	1609.915039	1750.137695
11861.825000	1491.365000	1608.876953	1693.266846
11861.825000	1491.365000	1607.838867	1928.799927
11861.825000	1491.365000	1606.800781	1897.263672
11861.825000	1491.365000	1605.761719	1840.431274
11861.825000	1491.365000	1604.723633	1808.961914
11861.825000	1491.365000	1603.684570	1805.113281
11861.825000	1491.365000	1602.644531	1861.070190
11861.825000	1491.365000	1601.605469	1912.445068
11861.825000	1491.365000	1600.566406	2028.192505
11861.825000	1491.365000	1599.526367	1730.175659
11861.825000	1491.365000	1598.486328	2149.297852
11861.825000	1491.365000	1597.446289	1936.439331
11861.825000	1491.365000	1596.405273	1875.293457
11861.825000	1491.365000	1595.365234	1952.020752
11861.825000	1491.365000	1594.324219	1792.219116
11861.825000	1491.365000	1593.283203	1898.829102
11861.825000	1491.365000	1592.242188	1879.187744
11861.825000	1491.365000	1591.200195	2059.234863
11861.825000	1491.365000	1590.159180	2067.177246
11861.825000	1491.365000	1589.117188	1650.750122
11861.825000	1491.365000	1588.075195	1773.514648
11861.825000	1491.365000	1587.032227	1889.379272
11861.825000	1491.365000	1585.990234	1879.160278
11861.825000	1491.365000	1584.947266	1896.481445
11861.825000	1491.365000	1583.904297	1975.722290
11861.825000	1491.365000	1582.861328	1619.624512
11861.825000	1491.365000	1581.818359	1666.909912
11861.825000	1491.365000	1580.775391	1666.128662
11861.825000	1491.365000	1579.731445	1514.246094
11861.825000	1491.365000	1578.687500	1570.824829
11861.825000	1491.365000	1577.643555	1762.491455
11861.825000	1491.365000	1576.598633	1640.580322
11861.825000	1491.365000	1575.554688	1612.603760
11861.825000	1491.365000	1574.509766	1710.507324
11861.825000	1491.365000	1573.464844	1394.433350
11861.825000	1491.365000	1572.419922	1368.971069
11861.825000	1491.365000	1571.374023	1711.679932
11861.825000	1491.365000	1570.329102	1569.708252
11861.825000	1491.365000	1569.283203	1679.248413
11861.825000	1491.365000	1568.237305	1537.455811
11861.825000	1491.365000	1567.191406	1356.947266
11861.825000	1491.365000	1566.144531	1459.801880
11861.825000	1491.365000	1565.098633	1354.878418
11861.825000	1491.365000	1564.051758	1412.168335
11861.825000	1491.365000	1563.004883	1161.325195
11861.825000	1491.365000	1561.957031	1150.291748
11861.825000	1491.365000	1560.910156	1239.752441
11861.825000	1491.365000	1559.862305	987.021362
11861.825000	1491.365000	1558.814453	1300.160034
11861.825000	1491.365000	1557.766602	1278.009399
11861.825000	1491.365000	1556.718750	1009.691650
11861.825000	1491.365000	1555.669922	1076.661865
11861.825000	1491.365000	1554.621094	1025.166626
11861.825000	1491.365000	1553.573242	1181.155273
11861.825000	1491.365000	1552.523438	1127.536011
11861.825000	1491.365000	1551.474609	962.418457
11861.825000	1491.365000	1550.424805	874.874146
11861.825000	1491.365000	1549.375000	985.549561
11861.825000	1491.365000	1548.325195	857.231018
11861.825000	1491.365000	1547.275391	938.454651
11861.825000	1491.365000	1546.225586	978.774231
11861.825000	1491.365000	1545.174805	1091.965942
11861.825000	1491.365000	1544.124023	784.376770
11861.825000	1491.365000	1543.073242	640.754028
11861.825000	1491.365000	1542.022461	715.569336
11861.825000	1491.365000	1540.970703	851.825684
11861.825000	1491.365000	1539.919922	549.451782
11861.825000	1491.365000	1538.868164	744.966309
11861.825000	1491.365000	1537.815430	954.124512
11861.825000	1491.365000	1536.763672	906.618103
11861.825000	1491.365000	1535.710938	620.751526
11861.825000	1491.365000	1534.659180	648.466064
11861.825000	1491.365000	1533.606445	721.668213
11861.825000	1491.365000	1532.552734	590.654053
11861.825000	1491.365000	1531.500000	477.959961
11861.825000	1491.365000	1530.446289	460.701904
11861.825000	1491.365000	1529.393555	720.320190
11861.825000	1491.365000	1528.338867	741.781982
11861.825000	1491.365000	1527.285156	690.791687
11861.825000	1491.365000	1526.231445	517.507568
11861.825000	1491.365000	1525.176758	609.594116
11861.825000	1491.365000	1524.122070	463.800751
11861.825000	1491.365000	1523.067383	259.266968
11861.825000	1491.365000	1522.012695	596.343140
11861.825000	1491.365000	1520.957031	480.414917
11861.825000	1491.365000	1519.901367	597.885498
11861.825000	1491.365000	1518.845703	215.081802
11861.825000	1491.365000	1517.790039	541.035828
11861.825000	1491.365000	1516.734375	509.408508
11861.825000	1491.365000	1515.677734	477.904236
11861.825000	1491.365000	1514.621094	455.581940
11861.825000	1491.365000	1513.564453	535.164978
11861.825000	1491.365000	1512.507813	198.758423
11861.825000	1491.365000	1511.450195	572.509644
11861.825000	1491.365000	1510.393555	460.252136
11861.825000	1491.365000	1509.335938	289.396057
11861.825000	1491.365000	1508.278320	459.917542
11861.825000	1491.365000	1507.219727	176.416351
11861.825000	1491.365000	1506.162109	432.970215
11861.825000	1491.365000	1505.103516	140.805618
11861.825000	1491.365000	1504.044922	187.542648
11861.825000	1491.365000	1502.986328	220.842026
11861.825000	1491.365000	1501.926758	315.186920
11861.825000	1491.365000	1500.868164	98.246544
11861.825000	1491.365000	1499.808594	86.805130
11861.825000	1491.365000	1498.749023	-91.407509
11861.825000	1491.365000	1497.688477	140.991653
11861.825000	1491.365000	1496.628906	179.540894
11861.825000	1491.365000	1495.568359	-140.208969
11861.825000	1491.365000	1494.507813	-218.554092
11861.825000	1491.365000	1493.447266	25.478661
11861.825000	1491.365000	1492.386719	75.806686
11861.825000	1491.365000	1491.325195	81.195534
11861.825000	1491.365000	1490.263672	-84.426880
11861.825000	1491.365000	1489.202148	47.342182
11861.825000	1491.365000	1488.140625	-221.485184
11861.825000	1491.365000	1487.079102	-3.949621
11861.825000	1491.365000	1486.016602	-85.633667
11861.825000	1491.365000	1484.954102	-185.146225
11861.825000	1491.365000	1483.891602	64.146835
11861.825000	1491.365000	1482.829102	-1.349902
11861.825000	1491.365000	1481.765625	99.690689
11861.825000	1491.365000	1480.702148	-68.915085
11861.825000	1491.365000	1479.638672	79.581108
11861.825000	1491.365000	1478.575195	23.639471
11861.825000	1491.365000	1477.511719	-38.793449
11861.825000	1491.365000	1476.447266	-188.686829
11861.825000	1491.365000	1475.382813	121.880379
11861.825000	1491.365000	1474.318359	39.689651
11861.825000	1491.365000	1473.253906	-298.161163
11861.825000	1491.365000	1472.189453	210.101532
11861.825000	1491.365000	1471.124023	316.804077
11861.825000	1491.365000	1470.058594	176.712555
11861.825000	1491.365000	1468.993164	158.186432
11861.825000	1491.365000	1467.927734	157.555939
11861.825000	1491.365000	1466.861328	311.669373
11861.825000	1491.365000	1465.794922	201.854660
11861.825000	1491.365000	1464.728516	331.654907
11861.825000	1491.365000	1463.662109	103.261581
11861.825000	1491.365000	1462.594727	468.285156
11861.825000	1491.365000	1461.528320	477.303802
11861.825000	1491.365000	1460.460938	223.013138
11861.825000	1491.365000	1459.393555	342.023468
11861.825000	1491.365000	1458.326172	275.172668
11861.825000	1491.365000	1457.257813	356.868744
11861.825000	1491.365000	1456.189453	344.924652
11861.825000	1491.365000	1455.121094	229.729034
11861.825000	1491.365000	1454.052734	259.918579
11861.825000	1491.365000	1452.984375	263.497101
11861.825000	1491.365000	1451.915039	299.957184
11861.825000	1491.365000	1450.845703	357.251709
11861.825000	1491.365000	1449.776367	420.552429
11861.825000	1491.365000	1448.707031	167.835815
11861.825000	1491.365000	1447.636719	128.573380
11861.825000	1491.365000	1446.567383	193.810135
11861.825000	1491.365000	1445.497070	441.596771
11861.825000	1491.365000	1444.425781	424.544830
11861.825000	1491.365000	1443.355469	480.577423
11861.825000	1491.365000	1442.285156	321.265839
11861.825000	1491.365000	1441.213867	113.931938
11861.825000	1491.365000	1440.142578	404.656097
11861.825000	1491.365000	1439.070313	176.496689
11861.825000	1491.365000	1437.999023	523.715271
11861.825000	1491.365000	1436.926758	473.304016
11861.825000	1491.365000	1435.854492	342.153198
11861.825000	1491.365000	1434.782227	328.317291
11861.825000	1491.365000	1433.709961	539.018616
11861.825000	1491.365000	1432.636719	326.783112
11861.825000	1491.365000	1431.563477	278.281799
11861.825000	1491.365000	1430.490234	410.125641
11861.825000	1491.365000	1429.416992	263.210846
11861.825000	1491.365000	1428.343750	281.681549
11861.825000	1491.365000	1427.269531	68.320160
11861.825000	1491.365000	1426.195313	185.654358
11861.825000	1491.365000	1425.121094	196.377151
11861.825000	1491.365000	1424.046875	142.667816
11861.825000	1491.365000	1422.971680	221.137329
11861.825000	1491.365000	1421.896484	120.465157
11861.825000	1491.365000	1420.821289	65.911636
11861.825000	1491.365000	1419.746094	118.461678
11861.825000	1491.365000	1418.669922	166.010864
11861.825000	1491.365000	1417.594727	43.063683
11861.825000	1491.365000	1416.518555	-53.628201
11861.825000	1491.365000	1415.442383	-123.651726
11861.825000	1491.365000	1414.365234	23.059076
11861.825000	1491.365000	1413.289063	241.021286
11861.825000	1491.365000	1412.211914	181.814713
11861.825000	1491.365000	1411.134766	67.554970
11861.825000	1491.365000	1410.057617	87.152664
11861.825000	1491.365000	1408.979492	186.279785
11861.825000	1491.365000	1407.902344	191.933594
11861.825000	1491.365000	1406.824219	346.613007
11861.825000	1491.365000	1405.746094	261.856842
11861.825000	1491.365000	1404.666992	310.807220
11861.825000	1491.365000	1403.588867	418.811005
11861.825000	1491.365000	1402.509766	368.207916
11861.825000	1491.365000	1401.430664	358.979523
11861.825000	1491.365000	1400.351563	312.949432
11861.825000	1491.365000	1399.271484	616.902954
11861.825000	1491.365000	1398.192383	468.822388
11861.825000	1491.365000	1397.112305	1003.620789
11861.825000	1491.365000	1396.031250	658.487366
11861.825000	1491.365000	1394.951172	591.225891
11861.825000	1491.365000	1393.871094	771.348450
11861.825000	1491.365000	1392.790039	785.916321
11861.825000	1491.365000	1391.708984	619.790894
11861.825000	1491.365000	1390.626953	577.459351
11861.825000	1491.365000	1389.545898	465.281097
11861.825000	1491.365000	1388.463867	665.700256
11861.825000	1491.365000	1387.381836	591.337402
11861.825000	1491.365000	1386.299805	353.168427
11861.825000	1491.365000	1385.217773	472.512817
11861.825000	1491.365000	1384.134766	720.391724
11861.825000	1491.365000	1383.051758	564.063904
11861.825000	1491.365000	1381.968750	616.313721
11861.825000	1491.365000	1380.885742	876.937317
11861.825000	1491.365000	1379.802734	956.088196
11861.825000	1491.365000	1378.718750	367.545685
11861.825000	1491.365000	1377.634766	489.767303
11861.825000	1491.365000	1376.550781	710.461182
11861.825000	1491.365000	1375.465820	731.895264
11861.825000	1491.365000	1374.381836	664.011719
11861.825000	1491.365000	1373.296875	441.997772
11861.825000	1491.365000	1372.211914	444.029053
11861.825000	1491.365000	1371.126953	660.843018
11861.825000	1491.365000	1370.041016	637.926819
11861.825000	1491.365000	1368.955078	496.842499
11861.825000	1491.365000	1367.869141	505.766907
11861.825000	1491.365000	1366.783203	577.378845
11861.825000	1491.365000	1365.697266	457.221375
11861.825000	1491.365000	1364.610352	441.789917
11861.825000	1491.365000	1363.523438	668.073730
11861.825000	1491.365000	1362.436523	507.883362
11861.825000	1491.365000	1361.349609	641.921082
11861.825000	1491.365000	1360.261719	555.728577
11861.825000	1491.365000	1359.174805	549.833984
11861.825000	1491.365000	1358.086914	510.089233
11861.825000	1491.365000	1356.998047	603.190979
11861.825000	1491.365000	1355.910156	552.382629
11861.825000	1491.365000	1354.821289	504.660156
11861.825000	1491.365000	1353.732422	371.923126
11861.825000	1491.365000	1352.643555	423.383423
11861.825000	1491.365000	1351.554688	604.743225
11861.825000	1491.365000	1350.464844	534.029297
11861.825000	1491.365000	1349.375000	618.072449
11861.825000	1491.365000	1348.285156	519.578613
11861.825000	1491.365000	1347.195313	630.948303
11861.825000	1491.365000	1346.105469	526.866882
11861.825000	1491.365000	1345.014648	564.053040
11861.825000	1491.365000	1343.923828	358.519714
11861.825000	1491.365000	1342.833008	482.807861
11861.825000	1491.365000	1341.741211	434.169434
11861.825000	1491.365000	1340.650391	496.729340
11861.825000	1491.365000	1339.558594	387.461365
11861.825000	1491.365000	1338.466797	481.281372
11861.825000	1491.365000	1337.374023	682.842102
11861.825000	1491.365000	1336.282227	539.214966
11861.825000	1491.365000	1335.189453	661.190796
11861.825000	1491.365000	1334.096680	538.542603
11861.825000	1491.365000	1333.003906	423.523163
11861.825000	1491.365000	1331.910156	859.124390
11861.825000	1491.365000	1330.817383	638.985474
11861.825000	1491.365000	1329.723633	636.565796
11861.825000	1491.365000	1328.629883	521.094971
11861.825000	1491.365000	1327.535156	514.806396
11861.825000	1491.365000	1326.441406	509.572052
11861.825000	1491.365000	1325.346680	383.925140
11861.825000	1491.365000	1324.251953	548.254150
11861.825000	1491.365000	1323.156250	633.235107
11861.825000	1491.365000	1322.061523	595.933838
11861.825000	1491.365000	1320.965820	532.554871
11861.825000	1491.365000	1319.870117	577.270691
11861.825000	1491.365000	1318.774414	342.313599
11861.825000	1491.365000	1317.678711	352.385651
11861.825000	1491.365000	1316.582031	536.631897
11861.825000	1491.365000	1315.485352	762.386597
11861.825000	1491.365000	1314.388672	714.105774
11861.825000	1491.365000	1313.291016	696.399414
11861.825000	1491.365000	1312.194336	754.677979
11861.825000	1491.365000	1311.096680	628.876587
11861.825000	1491.365000	1309.999023	637.391785
11861.825000	1491.365000	1308.901367	677.686279
11861.825000	1491.365000	1307.802734	694.450500
11861.825000	1491.365000	1306.705078	758.785828
11861.825000	1491.365000	1305.606445	500.918823
11861.825000	1491.365000	1304.506836	550.931458
11861.825000	1491.365000	1303.408203	502.310699
11861.825000	1491.365000	1302.308594	493.463959
11861.825000	1491.365000	1301.208984	625.988647
11861.825000	1491.365000	1300.109375	692.927551
11861.825000	1491.365000	1299.009766	511.414368
11861.825000	1491.365000	1297.909180	582.409363
11861.825000	1491.365000	1296.808594	405.480377
11861.825000	1491.365000	1295.708008	386.370453
11861.825000	1491.365000	1294.607422	679.473083
11861.825000	1491.365000	1293.506836	505.545837
11861.825000	1491.365000	1292.405273	582.280701
11861.825000	1491.365000	1291.303711	272.203339
11861.825000	1491.365000	1290.202148	483.680847
11861.825000	1491.365000	1289.099609	238.979370
11861.825000	1491.365000	1287.998047	398.740051
11861.825000	1491.365000	1286.895508	366.695618
11861.825000	1491.365000	1285.792969	305.327667
11861.825000	1491.365000	1284.689453	264.829315
11861.825000	1491.365000	1283.586914	274.711517
11861.825000	1491.365000	1282.483398	515.681824
11861.825000	1491.365000	1281.379883	489.734528
11861.825000	1491.365000	1280.276367	405.909485
11861.825000	1491.365000	1279.171875	399.916504
11861.825000	1491.365000	1278.067383	378.937256
11861.825000	1491.365000	1276.962891	351.625885
11861.825000	1491.365000	1275.858398	426.544830
11861.825000	1491.365000	1274.753906	320.917603
11861.825000	1491.365000	1273.648438	224.409195
11861.825000	1491.365000	1272.542969	126.536133
11861.825000	1491.365000	1271.437500	-22.322794
11861.825000	1491.365000	1270.331055	86.588295
11861.825000	1491.365000	1269.225586	97.160744
11861.825000	1491.365000	1268.119141	19.208145
11861.825000	1491.365000	1267.012695	163.417831
11861.825000	1491.365000	1265.906250	29.702822
11861.825000	1491.365000	1264.798828	157.650116
11861.825000	1491.365000	1263.691406	124.612038
11861.825000	1491.365000	1262.583984	109.108063
11861.825000	1491.365000	1261.476563	68.208458
11861.825000	1491.365000	1260.368164	93.354752
11861.825000	1491.365000	1259.260742	-53.387066
11861.825000	1491.365000	1258.152344	179.563416
11861.825000	1491.365000	1257.043945	-85.032303
11861.825000	1491.365000	1255.934570	-1.019779
11861.825000	1491.365000	1254.825195	135.882996
11861.825000	1491.365000	1253.716797	113.802742
11861.825000	1491.365000	1252.606445	79.721497
11861.825000	1491.365000	1251.497070	106.985291
11861.825000	1491.365000	1250.387695	-4.981836
11861.825000	1491.365000	1249.277344	86.204086
11861.825000	1491.365000	1248.166992	36.590694
11861.825000	1491.365000	1247.055664	122.260223
11861.825000	1491.365000	1245.945313	15.716194
11861.825000	1491.365000	1244.833984	24.848640
11861.825000	1491.365000	1243.722656	29.421061
11861.825000	1491.365000	1242.611328	-105.743279
11861.825000	1491.365000	1241.499023	-72.937172
11861.825000	1491.365000	1240.387695	77.979729
11861.825000	1491.365000	1239.275391	-23.431698
11861.825000	1491.365000	1238.162109	-7.422408
11861.825000	1491.365000	1237.049805	-88.286560
11861.825000	1491.365000	1235.936523	-10.974061
11861.825000	1491.365000	1234.823242	61.535538
11861.825000	1491.365000	1233.709961	29.354605
11861.825000	1491.365000	1232.596680	-114.541199
11861.825000	1491.365000	1231.482422	-73.714241
11861.825000	1491.365000	1230.369141	-90.001465
11861.825000	1491.365000	1229.253906	-69.443710
11861.825000	1491.365000	1228.139648	-61.795837
11861.825000	1491.365000	1227.025391	61.897369
11861.825000	1491.365000	1225.910156	-178.306412
11861.825000	1491.365000	1224.794922	-61.771320
11861.825000	1491.365000	1223.679688	-148.863434
11861.825000	1491.365000	1222.563477	43.434860
11861.825000	1491.365000	1221.447266	-14.553984
11861.825000	1491.365000	1220.331055	0.884053
11861.825000	1491.365000	1219.214844	58.051857
11861.825000	1491.365000	1218.098633	-61.678341
11861.825000	1491.365000	1216.981445	-32.588829
11861.825000	1491.365000	1215.864258	0.446724
11861.825000	1491.365000	1214.747070	85.626740
11861.825000	1491.365000	1213.629883	-2.139409
11861.825000	1491.365000	1212.511719	40.462585
11861.825000	1491.365000	1211.393555	182.750595
11861.825000	1491.365000	1210.275391	123.184792
11861.825000	1491.365000	1209.157227	6.072028
11861.825000	1491.365000	1208.038086	-91.162140
11861.825000	1491.365000	1206.918945	-20.488754
11861.825000	1491.365000	1205.799805	216.345352
11861.825000	1491.365000	1204.680664	91.148033
11861.825000	1491.365000	1203.560547	199.116241
11861.825000	1491.365000	1202.441406	155.870514
11861.825000	1491.365000	1201.321289	55.378670
11861.825000	1491.365000	1200.200195	-46.724346
11861.825000	1491.365000	1199.080078	-4.398809
11861.825000	1491.365000	1197.958984	177.070953
11861.825000	1491.365000	1196.837891	23.563860
11861.825000	1491.365000	1195.716797	152.386871
11861.825000	1491.365000	1194.594727	51.517956
11861.825000	1491.365000	1193.473633	45.952316
11861.825000	1491.365000	1192.351563	162.605484
11861.825000	1491.365000	1191.229492	-14.640440
11861.825000	1491.365000	1190.106445	1.787088
11861.825000	1491.365000	1188.984375	74.981293
11861.825000	1491.365000	1187.861328	-146.656250
11861.825000	1491.365000	1186.738281	65.021385
11861.825000	1491.365000	1185.614258	68.830772
11861.825000	1491.365000	1184.491211	-0.403069
11861.825000	1491.365000	1183.367188	108.087349
11861.825000	1491.365000	1182.243164	17.919863
11861.825000	1491.365000	1181.119141	170.055832
11861.825000	1491.365000	1179.994141	53.415150
11861.825000	1491.365000	1178.869141	-18.258205
11861.825000	1491.365000	1177.744141	-33.584885
11861.825000	1491.365000	1176.619141	-26.296848
11861.825000	1491.365000	1175.493164	43.386982
11861.825000	1491.365000	1174.368164	97.203659
11861.825000	1491.365000	1173.242188	69.472672
11861.825000	1491.365000	1172.115234	125.540062
11861.825000	1491.365000	1170.989258	0.243776
11861.825000	1491.365000	1169.862305	-35.095982
11861.825000	1491.365000	1168.735352	43.429306
11861.825000	1491.365000	1167.608398	-83.789200
11861.825000	1491.365000	1166.481445	7.616222
11861.825000	1491.365000	1165.353516	-15.684056
11861.825000	1491.365000	1164.225586	-45.345734
11861.825000	1491.365000	1163.097656	-193.073318
11861.825000	1491.365000	1161.968750	-177.322556
11861.825000	1491.365000	1160.840820	-93.628517
11861.825000	1491.365000	1159.711914	54.801773
11861.825000	1491.365000	1158.583008	-52.278866
11861.825000	1491.365000	1157.453125	-73.999191
11861.825000	1491.365000	1156.324219	-135.036423
11861.825000	1491.365000	1155.194336	-169.884079
11861.825000	1491.365000	1154.064453	-133.254929
11861.825000	1491.365000	1152.933594	-67.949791
11861.825000	1491.365000	1151.803711	-270.474518
11861.825000	1491.365000	1150.672852	-28.413815
11861.825000	1491.365000	1149.541992	-241.338623
11861.825000	1491.365000	1148.411133	-3.164283
11861.825000	1491.365000	1147.279297	-68.271896
11861.825000	1491.365000	1146.147461	-214.549576
11861.825000	1491.365000	1145.015625	-45.817917
11861.825000	1491.365000	1143.883789	-139.055679
11861.825000	1491.365000	1142.750977	-59.248653
11861.825000	1491.365000	1141.619141	-146.801056
11861.825000	1491.365000	1140.486328	-146.637390
11861.825000	1491.365000	1139.352539	-79.869385
11861.825000	1491.365000	1138.219727	-22.431131
11861.825000	1491.365000	1137.085938	-21.385168
11861.825000	1491.365000	1135.952148	-65.026237
11861.825000	1491.365000	1134.818359	-82.098663
11861.825000	1491.365000	1133.683594	-39.932396
11861.825000	1491.365000	1132.549805	56.792027
11861.825000	1491.365000	1131.415039	60.962704
11861.825000	1491.365000	1130.279297	-26.652128
11861.825000	1491.365000	1129.144531	307.413849
11861.825000	1491.365000	1128.008789	228.987839
11861.825000	1491.365000	1126.873047	248.435822
11861.825000	1491.365000	1125.737305	339.080902
11861.825000	1491.365000	1124.601563	169.608536
11861.825000	1491.365000	1123.464844	317.027191
11861.825000	1491.365000	1122.328125	350.274353
11861.825000	1491.365000	1121.191406	256.055054
11861.825000	1491.365000	1120.054688	228.028351
11861.825000	1491.365000	1118.916992	115.507233
11861.825000	1491.365000	1117.779297	180.494904
11861.825000	1491.365000	1116.641602	223.367279
11861.825000	1491.365000	1115.503906	156.569656
11861.825000	1491.365000	1114.365234	222.478226
11861.825000	1491.365000	1113.226563	206.965637
11861.825000	1491.365000	1112.087891	316.808228
11861.825000	1491.365000	1110.949219	174.115356
11861.825000	1491.365000	1109.809570	-22.656853
11861.825000	1491.365000	1108.669922	192.225800
11861.825000	1491.365000	1107.530273	229.491852
11861.825000	1491.365000	1106.390625	268.052460
11861.825000	1491.365000	1105.250000	331.639862
11861.825000	1491.365000	1104.109375	109.487617
11861.825000	1491.365000	1102.968750	115.812531
11861.825000	1491.365000	1101.828125	302.074646
11861.825000	1491.365000	1100.686523	431.011841
11861.825000	1491.365000	1099.544922	305.999542
11861.825000	1491.365000	1098.403320	325.870819
11861.825000	1491.365000	1097.261719	328.305420
11861.825000	1491.365000	1096.120117	304.277100
11861.825000	1491.365000	1094.977539	273.715881
11861.825000	1491.365000	1093.834961	244.347122
11861.825000	1491.365000	1092.691406	336.775543
11861.825000	1491.365000	1091.548828	147.378845
11861.825000	1491.365000	1090.405273	160.190598
11861.825000	1491.365000	1089.261719	107.429565
11861.825000	1491.365000	1088.118164	59.108562
11861.825000	1491.365000	1086.973633	-30.987247
11861.825000	1491.365000	1085.829102	194.841553
11861.825000	1491.365000	1084.684570	232.557037
11861.825000	1491.365000	1083.540039	110.884003
11861.825000	1491.365000	1082.395508	-77.024071
11861.825000	1491.365000	1081.250000	211.095261
11861.825000	1491.365000	1080.104492	192.916351
11861.825000	1491.365000	1078.958984	161.543900
11861.825000	1491.365000	1077.812500	222.586838
11861.825000	1491.365000	1076.666016	123.013687
11861.825000	1491.365000	1075.519531	189.435974
11861.825000	1491.365000	1074.373047	78.810974
11861.825000	1491.365000	1073.226563	260.949463
11861.825000	1491.365000	1072.079102	138.534332
11861.825000	1491.365000	1070.931641	281.303955
11861.825000	1491.365000	1069.784180	11.711720
11861.825000	1491.365000	1068.635742	105.579033
11861.825000	1491.365000	1067.487305	213.981354
11861.825000	1491.365000	1066.338867	267.599640
11861.825000	1491.365000	1065.190430	233.884308
11861.825000	1491.365000	1064.041992	342.507538
11861.825000	1491.365000	1062.892578	333.848145
11861.825000	1491.365000	1061.743164	196.793411
11861.825000	1491.365000	1060.593750	226.923676
11861.825000	1491.365000	1059.443359	-62.488800
11861.825000	1491.365000	1058.292969	209.058655
11861.825000	1491.365000	1057.142578	329.543884
11861.825000	1491.365000	1055.992188	35.797276
11861.825000	1491.365000	1054.841797	112.723465
11861.825000	1491.365000	1053.690430	162.044617
11861.825000	1491.365000	1052.539063	421.629913
11861.825000	1491.365000	1051.387695	362.591034
11861.825000	1491.365000	1050.235352	278.612885
11861.825000	1491.365000	1049.083984	419.308044
11861.825000	1491.365000	1047.931641	233.678802
11861.825000	1491.365000	1046.778320	328.284912
11861.825000	1491.365000	1045.625977	320.561493
11861.825000	1491.365000	1044.472656	194.454926
11861.825000	1491.365000	1043.319336	251.151215
11861.825000	1491.365000	1042.166016	268.070679
11861.825000	1491.365000	1041.012695	8.803505
11861.825000	1491.365000	1039.858398	123.030312
11861.825000	1491.365000	1038.704102	148.726425
11861.825000	1491.365000	1037.549805	240.629532
11861.825000	1491.365000	1036.394531	2.015787
11861.825000	1491.365000	1035.239258	155.402679
11861.825000	1491.365000	1034.083984	96.022057
11861.825000	1491.365000	1032.928711	250.707306
11861.825000	1491.365000	1031.773438	182.349442
11861.825000	1491.365000	1030.617188	105.464676
11861.825000	1491.365000	1029.460938	95.256256
11861.825000	1491.365000	1028.304688	-50.392574
11861.825000	1491.365000	1027.147461	116.209023
11861.825000	1491.365000	1025.991211	194.070175
11861.825000	1491.365000	1024.833984	241.132706
11861.825000	1491.365000	1023.675781	97.539452
11861.825000	1491.365000	1022.518555	-32.959946
11861.825000	1491.365000	1021.360352	-43.754990
11861.825000	1491.365000	1020.202148	97.911690
11861.825000	1491.365000	1019.043945	12.545410
11861.825000	1491.365000	1017.884766	63.414810
11861.825000	1491.365000	1016.726563	-8.305226
11861.825000	1491.365000	1015.567383	111.224861
11861.825000	1491.365000	1014.407227	-21.062975
11861.825000	1491.365000	1013.248047	62.377495
11861.825000	1491.365000	1012.087891	14.554533
11861.825000	1491.365000	1010.927734	97.149696
11861.825000	1491.365000	1009.767578	49.233742
11861.825000	1491.365000	1008.606445	80.576942
11861.825000	1491.365000	1007.446289	-87.851196
11861.825000	1491.365000	1006.285156	-97.458832
11861.825000	1491.365000	1005.123047	24.834438
11861.825000	1491.365000	1003.961914	-16.794617
11861.825000	1491.365000	1002.799805	131.418472
11861.825000	1491.365000	1001.637695	246.239563
11861.825000	1491.365000	1000.475586	18.895672
11861.825000	1491.365000	999.312500	63.760288
11861.825000	1491.365000	998.149414	6.756634
11861.825000	1491.365000	996.986328	48.421280
11861.825000	1491.365000	995.823242	261.743927
11861.825000	1491.365000	994.659180	283.349884
11861.825000	1491.365000	993.496094	65.378479
11861.825000	1491.365000	992.332031	148.043747
11861.825000	1491.365000	991.166992	-58.082722
11861.825000	1491.365000	990.002930	157.125000
11861.825000	1491.365000	988.837891	-47.933792
11861.825000	1491.365000	987.672852	149.476959
11861.825000	1491.365000	986.506836	357.719604
11861.825000	1491.365000	985.341797	33.767021
11861.825000	1491.365000	984.175781	54.245766
11861.825000	1491.365000	983.009766	235.755295
11861.825000	1491.365000	981.843750	222.207184
11861.825000	1491.365000	980.676758	55.069092
11861.825000	1491.365000	979.509766	-107.976433
11861.825000	1491.365000	978.342773	-159.127197
11861.825000	1491.365000	977.175781	55.171898
11861.825000	1491.365000	976.007813	18.501684
11861.825000	1491.365000	974.839844	175.973541
11861.825000	1491.365000	973.671875	63.624004
11861.825000	1491.365000	972.503906	174.831436
11861.825000	1491.365000	971.334961	38.579861
11861.825000	1491.365000	970.166016	42.123325
11861.825000	1491.365000	968.997070	158.118500
11861.825000	1491.365000	967.828125	44.904667
11861.825000	1491.365000	966.658203	67.052620
11861.825000	1491.365000	965.488281	21.253061
11861.825000	1491.365000	964.318359	34.440964
11861.825000	1491.365000	963.148438	53.815941
11861.825000	1491.365000	961.977539	-46.130417
11861.825000	1491.365000	960.806641	33.373737
11861.825000	1491.365000	959.635742	104.255547
11861.825000	1491.365000	958.463867	32.652023
11861.825000	1491.365000	957.292969	84.816650
11861.825000	1491.365000	956.121094	167.082596
11861.825000	1491.365000	954.948242	13.348606
11861.825000	1491.365000	953.776367	-97.500847
11861.825000	1491.365000	952.603516	-43.648373
11861.825000	1491.365000	951.430664	-80.071945
11861.825000	1491.365000	950.257813	126.221954
11861.825000	1491.365000	949.084961	75.637985
11861.825000	1491.365000	947.911133	76.469154
11861.825000	1491.365000	946.737305	78.119408
11861.825000	1491.365000	945.563477	160.504135
11861.825000	1491.365000	944.388672	8.215079
11861.825000	1491.365000	943.213867	108.241211
11861.825000	1491.365000	942.039063	197.565277
11861.825000	1491.365000	940.864258	326.638763
11861.825000	1491.365000	939.688477	304.017242
11861.825000	1491.365000	938.513672	156.200912
11861.825000	1491.365000	937.337891	365.779022
11861.825000	1491.365000	936.161133	29.897316
11861.825000	1491.365000	934.985352	237.172348
11861.825000	1491.365000	933.808594	156.278183
11861.825000	1491.365000	932.631836	164.611130
11861.825000	1491.365000	931.454102	251.034164
11861.825000	1491.365000	930.277344	306.389587
11861.825000	1491.365000	929.099609	381.665680
11861.825000	1491.365000	927.921875	197.790131
11861.825000	1491.365000	926.743164	460.635559
11861.825000	1491.365000	925.565430	312.553162
11861.825000	1491.365000	924.386719	175.639481
11861.825000	1491.365000	923.208008	172.687454
11861.825000	1491.365000	922.028320	4.579405
11861.825000	1491.365000	920.849609	383.154907
11861.825000	1491.365000	919.669922	386.956696
11861.825000	1491.365000	919.474609	-58.717567
11861.825000	1491.365000	918.309570	132.293594
11861.825000	1491.365000	917.143555	104.689133
11861.825000	1491.365000	915.977539	12.424150
11861.825000	1491.365000	914.810547	73.978485
11861.825000	1491.365000	913.644531	53.032692
11861.825000	1491.365000	912.477539	-141.703766
11861.825000	1491.365000	911.310547	-11.154683
11861.825000	1491.365000	910.143555	43.602005
11861.825000	1491.365000	908.975586	-33.050648
11861.825000	1491.365000	907.807617	21.656967
11861.825000	1491.365000	906.639648	42.938881
11861.825000	1491.365000	905.471680	126.504242
11861.825000	1491.365000	904.303711	-125.932938
11861.825000	1491.365000	903.134766	-75.764107
11861.825000	1491.365000	901.965820	-305.847565
11861.825000	1491.365000	900.796875	-44.463417
11861.825000	1491.365000	899.626953	83.418671
11861.825000	1491.365000	898.457031	-104.373032
11861.825000	1491.365000	897.287109	232.316864
11861.825000	1491.365000	896.117188	82.307823
11861.825000	1491.365000	894.947266	76.722977
11861.825000	1491.365000	893.776367	-44.351749
11861.825000	1491.365000	892.605469	-83.241364
11861.825000	1491.365000	891.434570	-108.811012
11861.825000	1491.365000	890.262695	-65.581284
11861.825000	1491.365000	889.091797	33.086868
11861.825000	1491.365000	887.919922	138.357254
11861.825000	1491.365000	886.748047	-171.206451
11861.825000	1491.365000	885.575195	-167.974503
11861.825000	1491.365000	884.403320	-158.110504
11861.825000	1491.365000	883.230469	20.206438
11861.825000	1491.365000	882.057617	-107.406242
11861.825000	1491.365000	880.883789	-37.774956
11861.825000	1491.365000	879.710938	-176.430405
11861.825000	1491.365000	878.537109	12.760660
11861.825000	1491.365000	877.362305	51.280655
11861.825000	1491.365000	876.188477	220.391876
11861.825000	1491.365000	875.013672	159.214813
11861.825000	1491.365000	873.839844	-45.803619
11861.825000	1491.365000	872.664063	16.978125
11861.825000	1491.365000	871.489258	70.866707
11861.825000	1491.365000	870.313477	-94.237251
11861.825000	1491.365000	869.138672	32.593712
11861.825000	1491.365000	867.962891	-21.926357
11861.825000	1491.365000	866.786133	-16.756529
11861.825000	1491.365000	865.610352	196.122513
11861.825000	1491.365000	864.433594	48.762604
11861.825000	1491.365000	863.256836	0.851593
11861.825000	1491.365000	862.079102	-9.507543
11861.825000	1491.365000	860.902344	-101.579582
11861.825000	1491.365000	859.724609	113.234047
11861.825000	1491.365000	858.546875	-45.071148
11861.825000	1491.365000	857.368164	-95.194038
11861.825000	1491.365000	856.190430	17.948345
11861.825000	1491.365000	855.011719	-67.492821
11861.825000	1491.365000	853.833008	147.014114
11861.825000	1491.365000	852.654297	123.285446
11861.825000	1491.365000	851.474609	-67.986183
11861.825000	1491.365000	850.294922	95.648880
11861.825000	1491.365000	849.115234	-141.847595
11861.825000	1491.365000	847.935547	96.607262
11861.825000	1491.365000	846.754883	-32.894569
11861.825000	1491.365000	845.575195	-72.072670
11861.825000	1491.365000	844.393555	20.857929
11861.825000	1491.365000	843.212891	133.541626
11861.825000	1491.365000	842.032227	103.105507
11861.825000	1491.365000	840.850586	184.886581
11861.825000	1491.365000	839.668945	66.420502
11861.825000	1491.365000	838.486328	-109.198936
11861.825000	1491.365000	837.304688	-128.636444
11861.825000	1491.365000	836.122070	-159.075409
11861.825000	1491.365000	834.939453	-31.256453
11861.825000	1491.365000	833.756836	-61.741329
11861.825000	1491.365000	832.573242	-149.360184
11861.825000	1491.365000	831.389648	-96.368294
11861.825000	1491.365000	830.206055	-69.775635
11861.825000	1491.365000	829.022461	9.487864
11861.825000	1491.365000	827.838867	227.007919
11861.825000	1491.365000	826.654297	240.289230
11861.825000	1491.365000	825.469727	67.010170
11861.825000	1491.365000	824.284180	-90.858772
11861.825000	1491.365000	823.099609	-108.295456
11861.825000	1491.365000	821.914063	-106.007126
11861.825000	1491.365000	820.728516	95.794006
11861.825000	1491.365000	819.542969	10.304960
11861.825000	1491.365000	818.356445	69.489258
11861.825000	1491.365000	817.169922	34.397438
11861.825000	1491.365000	815.983398	312.594666
11861.825000	1491.365000	814.796875	49.614834
11861.825000	1491.365000	813.609375	27.620607
11861.825000	1491.365000	812.422852	-20.666342
11861.825000	1491.365000	811.235352	86.469193
11861.825000	1491.365000	810.046875	16.258312
11861.825000	1491.365000	808.859375	118.915962
11861.825000	1491.365000	807.670898	61.802731
11861.825000	1491.365000	806.482422	284.658752
11861.825000	1491.365000	805.293945	83.152695
11861.825000	1491.365000	804.104492	-48.330349
11861.825000	1491.365000	802.915039	106.567993
11861.825000	1491.365000	801.725586	64.684326
11861.825000	1491.365000	800.536133	-47.131081
11861.825000	1491.365000	799.345703	46.422802
11861.825000	1491.365000	798.155273	-109.077805
11861.825000	1491.365000	796.964844	124.147049
11861.825000	1491.365000	795.774414	-129.607056
11861.825000	1491.365000	794.583008	-79.881973
11861.825000	1491.365000	793.392578	-62.943630
11861.825000	1491.365000	792.200195	-52.583992
11861.825000	1491.365000	791.008789	75.534134
11861.825000	1491.365000	789.816406	168.675903
11861.825000	1491.365000	788.625000	-159.088516
11861.825000	1491.365000	787.432617	38.642647
11861.825000	1491.365000	786.239258	-169.142746
11861.825000	1491.365000	785.046875	-154.602875
11861.825000	1491.365000	783.853516	75.589661
11861.825000	1491.365000	782.660156	127.037712
11861.825000	1491.365000	781.465820	28.166946
11861.825000	1491.365000	780.272461	290.738312
11861.825000	1491.365000	779.078125	19.833891
11861.825000	1491.365000	777.883789	1.472663
11861.825000	1491.365000	776.688477	11.373132
11861.825000	1491.365000	775.494141	-0.521865
11861.825000	1491.365000	774.298828	178.959351
11861.825000	1491.365000	773.103516	-9.179744
11861.825000	1491.365000	771.907227	144.068314
11861.825000	1491.365000	770.711914	299.388763
11861.825000	1491.365000	769.515625	41.690392
11861.825000	1491.365000	768.318359	136.056732
11861.825000	1491.365000	767.122070	17.454475
11861.825000	1491.365000	765.924805	-12.086698
11861.825000	1491.365000	764.727539	271.034576
11861.825000	1491.365000	763.530273	128.483994
11861.825000	1491.365000	762.333008	3.317861
11861.825000	1491.365000	761.134766	106.025803
11861.825000	1491.365000	759.936523	226.008148
11861.825000	1491.365000	758.738281	178.872971
11861.825000	1491.365000	757.540039	49.304535
11861.825000	1491.365000	756.340820	54.184917
11861.825000	1491.365000	755.141602	241.119659
11861.825000	1491.365000	753.942383	170.016663
11861.825000	1491.365000	752.742188	116.237396
11861.825000	1491.365000	751.541992	64.605286
11861.825000	1491.365000	750.341797	201.397400
11861.825000	1491.365000	749.141602	147.518707
11861.825000	1491.365000	747.941406	281.985565
11861.825000	1491.365000	746.740234	9.394608
11861.825000	1491.365000	745.539063	122.105606
11861.825000	1491.365000	744.337891	152.502090
11861.825000	1491.365000	743.135742	180.678665
11861.825000	1491.365000	741.933594	122.285263
11861.825000	1491.365000	740.731445	57.383148
11861.825000	1491.365000	739.529297	96.237701
11861.825000	1491.365000	738.326172	124.223701
11861.825000	1491.365000	737.124023	-29.376919
11861.825000	1491.365000	735.919922	39.583992
11861.825000	1491.365000	734.716797	91.189278
11861.825000	1491.365000	733.513672	-1.974366
11861.825000	1491.365000	732.309570	176.920807
11861.825000	1491.365000	731.105469	77.208664
11861.825000	1491.365000	729.900391	81.091919
11861.825000	1491.365000	728.696289	24.505390
11861.825000	1491.365000	727.491211	-4.058451
11861.825000	1491.365000	726.286133	19.110430
11861.825000	1491.365000	725.080078	-39.727779
11861.825000	1491.365000	723.874023	-154.648117
11861.825000	1491.365000	722.668945	157.250153
11861.825000	1491.365000	721.461914	53.016239
11861.825000	1491.365000	720.255859	108.228592
11861.825000	1491.365000	719.048828	-82.221397
11861.825000	1491.365000	717.841797	41.821953
11861.825000	1491.365000	716.634766	-107.717636
11861.825000	1491.365000	715.427734	-24.725025
11861.825000	1491.365000	714.219727	-141.999863
11861.825000	1491.365000	713.011719	9.730910
11861.825000	1491.365000	711.803711	36.556087
11861.825000	1491.365000	710.594727	5.239408
11861.825000	1491.365000	709.385742	-92.785774
11861.825000	1491.365000	708.176758	24.205120
11861.825000	1491.365000	706.967773	-13.688326
11861.825000	1491.365000	705.758789	19.312197
11861.825000	1491.365000	704.548828	37.206615
11861.825000	1491.365000	703.338867	-103.940613
11861.825000	1491.365000	702.127930	-45.317127
11861.825000	1491.365000	700.917969	-137.094482
11861.825000	1491.365000	699.707031	-97.912659
11861.825000	1491.365000	698.496094	-18.010681
11861.825000	1491.365000	697.285156	-49.793766
11861.825000	1491.365000	696.073242	8.505401
11861.825000	1491.365000	694.861328	68.876434
11861.825000	1491.365000	693.649414	-96.035049
11861.825000	1491.365000	692.436523	202.257904
11861.825000	1491.365000	691.224609	-110.642136
11861.825000	1491.365000	690.011719	-3.340472
11861.825000	1491.365000	688.798828	-144.724182
11861.825000	1491.365000	687.584961	-234.677521
11861.825000	1491.365000	686.372070	28.810675
11861.825000	1491.365000	685.158203	180.770554
11861.825000	1491.365000	683.943359	191.294037
11861.825000	1491.365000	682.729492	195.344650
11861.825000	1491.365000	681.514648	-140.967529
11861.825000	1491.365000	680.299805	-4.275312
11861.825000	1491.365000	679.084961	155.845398
11861.825000	1491.365000	677.869141	86.979881
11861.825000	1491.365000	676.653320	107.912483
11861.825000	1491.365000	675.437500	214.312454
11861.825000	1491.365000	674.221680	303.519958
11861.825000	1491.365000	673.004883	161.827240
11861.825000	1491.365000	671.789063	18.012123
11861.825000	1491.365000	670.571289	100.652725
11861.825000	1491.365000	669.354492	95.646271
11861.825000	1491.365000	668.136719	186.686157
11861.825000	1491.365000	666.919922	234.946091
11861.825000	1491.365000	665.701172	152.934479
11861.825000	1491.365000	664.483398	277.915222
11861.825000	1491.365000	663.264648	225.711426
11861.825000	1491.365000	662.045898	252.411713
11861.825000	1491.365000	660.827148	198.015625
11861.825000	1491.365000	659.608398	64.709167
11861.825000	1491.365000	658.388672	-79.244911
11861.825000	1491.365000	657.168945	183.902374
11861.825000	1491.365000	655.949219	1.546111
11861.825000	1491.365000	654.728516	57.830807
11861.825000	1491.365000	653.507813	133.221420
11861.825000	1491.365000	652.287109	182.987106
11861.825000	1491.365000	651.066406	124.110901
11861.825000	1491.365000	649.844727	141.848572
11861.825000	1491.365000	648.623047	-29.864996
11861.825000	1491.365000	647.401367	126.124168
11861.825000	1491.365000	646.179688	109.703461
11861.825000	1491.365000	644.957031	318.694031
11861.825000	1491.365000	643.734375	174.584671
11861.825000	1491.365000	642.511719	56.012806
11861.825000	1491.365000	641.289063	39.480133
11861.825000	1491.365000	640.065430	99.419121
11861.825000	1491.365000	638.841797	195.418304
11861.825000	1491.365000	637.618164	172.395462
11861.825000	1491.365000	636.393555	257.656067
11861.825000	1491.365000	635.168945	321.617889
11861.825000	1491.365000	633.944336	111.687027
11861.825000	1491.365000	632.719727	156.495178
11861.825000	1491.365000	631.494141	324.322418
11861.825000	1491.365000	630.269531	-36.177879
11861.825000	1491.365000	629.042969	248.217499
11861.825000	1491.365000	627.817383	360.709015
11861.825000	1491.365000	626.590820	97.872475
11861.825000	1491.365000	625.365234	51.330231
11861.825000	1491.365000	624.137695	95.903030
11861.825000	1491.365000	622.911133	98.064995
11861.825000	1491.365000	621.683594	45.128242
11861.825000	1491.365000	620.456055	-81.929497
11861.825000	1491.365000	619.228516	-79.791779
11861.825000	1491.365000	618.000977	21.823650
11861.825000	1491.365000	616.772461	15.437104
11861.825000	1491.365000	615.543945	78.867241
11861.825000	1491.365000	614.314453	283.995697
11861.825000	1491.365000	613.085938	80.808487
11861.825000	1491.365000	611.856445	59.555130
11861.825000	1491.365000	610.626953	-10.327449
11861.825000	1491.365000	609.397461	-65.393806
11861.825000	1491.365000	608.166992	-171.167542
11861.825000	1491.365000	606.936523	-48.713627
11861.825000	1491.365000	605.706055	-67.850266
11861.825000	1491.365000	604.474609	-15.179143
11861.825000	1491.365000	603.244141	-44.882080
11861.825000	1491.365000	602.012695	75.309059
11861.825000	1491.365000	600.780273	58.252884
11861.825000	1491.365000	599.548828	-28.428675
11861.825000	1491.365000	598.316406	41.044270
11861.825000	1491.365000	597.083984	-18.177347
11861.825000	1491.365000	595.851563	-16.213396
11861.825000	1491.365000	594.618164	57.436089
11861.825000	1491.365000	593.384766	-119.784973
11861.825000	1491.365000	592.151367	-20.842131
11861.825000	1491.365000	590.917969	-75.747803
11861.825000	1491.365000	589.683594	-155.902359
11861.825000	1491.365000	588.449219	-115.961472
11861.825000	1491.365000	587.214844	-31.806700
11861.825000	1491.365000	585.979492	8.112832
11861.825000	1491.365000	584.745117	26.985371
11861.825000	1491.365000	583.509766	-80.399155
11861.825000	1491.365000	582.273438	-95.150749
11861.825000	1491.365000	581.038086	41.573074
11861.825000	1491.365000	579.801758	-46.765785
11861.825000	1491.365000	578.565430	-34.122894
11861.825000	1491.365000	577.329102	-55.096565
11861.825000	1491.365000	576.091797	-71.836937
11861.825000	1491.365000	574.854492	108.968918
11861.825000	1491.365000	573.617188	-42.197227
11861.825000	1491.365000	572.378906	-157.568466
11861.825000	1491.365000	571.141602	50.521587
11861.825000	1491.365000	569.903320	248.053711
11861.825000	1491.365000	568.664063	141.178696
11861.825000	1491.365000	567.425781	183.381088
11861.825000	1491.365000	566.186523	-30.368889
11861.825000	1491.365000	564.947266	137.776627
11861.825000	1491.365000	563.708008	43.738842
11861.825000	1491.365000	562.467773	102.839539
11861.825000	1491.365000	561.227539	2.636443
11861.825000	1491.365000	559.987305	70.183540
11861.825000	1491.365000	558.747070	202.701782
11861.825000	1491.365000	557.505859	255.596069
11861.825000	1491.365000	556.264648	57.172009
11861.825000	1491.365000	555.023438	55.719864
11861.825000	1491.365000	553.781250	54.313553
11861.825000	1491.365000	552.539063	-198.222916
11861.825000	1491.365000	551.296875	-69.730171
11861.825000	1491.365000	550.054688	167.556564
11861.825000	1491.365000	548.811523	7.347090
11861.825000	1491.365000	547.569336	39.666626
11861.825000	1491.365000	546.325195	226.749771
11861.825000	1491.365000	545.082031	116.963676
11861.825000	1491.365000	543.837891	7.278662
11861.825000	1491.365000	542.593750	60.684269
11861.825000	1491.365000	541.349609	247.829926
11861.825000	1491.365000	540.105469	228.175568
11861.825000	1491.365000	538.860352	68.676270
11861.825000	1491.365000	537.615234	224.562500
11861.825000	1491.365000	536.369141	190.494446
11861.825000	1491.365000	535.124023	-12.532150
11861.825000	1491.365000	533.877930	28.704552
11861.825000	1491.365000	532.631836	220.178833
11861.825000	1491.365000	531.384766	113.403496
11861.825000	1491.365000	530.138672	350.781921
11861.825000	1491.365000	528.891602	185.787231
11861.825000	1491.365000	527.643555	125.139946
11861.825000	1491.365000	526.396484	91.676582
11861.825000	1491.365000	525.148438	291.626312
11861.825000	1491.365000	523.900391	116.645401
11861.825000	1491.365000	522.652344	87.578041
11861.825000	1491.365000	521.403320	-93.389992
11861.825000	1491.365000	520.154297	-99.362534
11861.825000	1491.365000	518.905273	184.008392
11861.825000	1491.365000	517.656250	-9.134362
11861.825000	1491.365000	516.406250	-25.307163
11861.825000	1491.365000	515.156250	-43.480484
11861.825000	1491.365000	513.906250	-190.489197
11861.825000	1491.365000	512.655273	22.275364
11861.825000	1491.365000	511.404297	-3.993581
11861.825000	1491.365000	510.153320	-57.191624
11861.825000	1491.365000	508.902344	-16.807201
11861.825000	1491.365000	507.650391	-223.537354
11861.825000	1491.365000	506.398438	-118.616081
11861.825000	1491.365000	505.146484	-163.151184
11861.825000	1491.365000	503.893555	33.186623
11861.825000	1491.365000	502.641602	19.909334
11861.825000	1491.365000	501.388672	390.548920
11861.825000	1491.365000	500.134766	113.894882
11861.825000	1491.365000	498.881836	295.767273
11861.825000	1491.365000	497.627930	197.708847
11861.825000	1491.365000	496.374023	253.165176
11861.825000	1491.365000	495.119141	298.301331
11861.825000	1491.365000	493.865234	237.804642
11861.825000	1491.365000	492.610352	343.134033
11861.825000	1491.365000	491.355469	448.481506
11861.825000	1491.365000	490.099609	294.994385
11861.825000	1491.365000	488.843750	274.136902
11861.825000	1491.365000	487.587891	346.494324
11861.825000	1491.365000	486.332031	325.750519
11861.825000	1491.365000	485.075195	230.587738
11861.825000	1491.365000	483.818359	106.559387
11861.825000	1491.365000	482.561523	416.942749
11861.825000	1491.365000	481.304688	191.712234
11861.825000	1491.365000	480.046875	208.494080
11861.825000	1491.365000	478.789063	208.778610
11861.825000	1491.365000	477.531250	227.703918
11861.825000	1491.365000	476.272461	99.981903
11861.825000	1491.365000	475.013672	385.443207
11861.825000	1491.365000	473.754883	325.958923
11861.825000	1491.365000	472.496094	305.759460
11861.825000	1491.365000	471.236328	394.995697
11861.825000	1491.365000	469.976563	469.772034
11861.825000	1491.365000	468.716797	468.198242
11861.825000	1491.365000	467.456055	497.585999
11861.825000	1491.365000	466.196289	244.433868
11861.825000	1491.365000	464.935547	381.099854
11861.825000	1491.365000	463.673828	439.379761
11861.825000	1491.365000	462.413086	610.989319
11861.825000	1491.365000	461.151367	551.742249
11861.825000	1491.365000	459.889648	657.321594
11861.825000	1491.365000	458.626953	451.834686
11861.825000	1491.365000	457.364258	448.224060
11861.825000	1491.365000	456.101563	594.884033
11861.825000	1491.365000	454.838867	589.136414
11861.825000	1491.365000	453.575195	577.185486
11861.825000	1491.365000	452.312500	532.281860
11861.825000	1491.365000	451.047852	822.645447
11861.825000	1491.365000	449.784180	689.183105
11861.825000	1491.365000	448.519531	687.312622
11861.825000	1491.365000	447.254883	527.093323
11861.825000	1491.365000	445.990234	648.439453
11861.825000	1491.365000	444.725586	703.902649
11861.825000	1491.365000	443.459961	455.217316
11861.825000	1491.365000	442.194336	541.331726
11861.825000	1491.365000	440.927734	709.446472
11861.825000	1491.365000	439.662109	559.167542
11861.825000	1491.365000	438.395508	642.830017
11861.825000	1491.365000	437.127930	660.664490
11861.825000	1491.365000	435.861328	602.447632
11861.825000	1491.365000	434.593750	609.752502
11861.825000	1491.365000	433.326172	590.244873
11861.825000	1491.365000	432.058594	808.424255
11861.825000	1491.365000	430.790039	747.554749
11861.825000	1491.365000	429.521484	694.728577
11861.825000	1491.365000	428.252930	889.664978
11861.825000	1491.365000	426.984375	1037.200317
11861.825000	1491.365000	425.714844	967.358826
11861.825000	1491.365000	424.445313	983.327637
11861.825000	1491.365000	423.174805	1023.620178
11861.825000	1491.365000	421.905273	1014.528931
11861.825000	1491.365000	420.634766	951.976807
11861.825000	1491.365000	419.364258	1056.945557
11861.825000	1491.365000	418.092773	995.901550
11861.825000	1491.365000	416.822266	971.401245
11861.825000	1491.365000	415.550781	1073.361816
11861.825000	1491.365000	414.278320	849.936951
11861.825000	1491.365000	413.006836	877.646362
11861.825000	1491.365000	411.734375	947.896973
11861.825000	1491.365000	410.461914	923.782776
11861.825000	1491.365000	409.188477	985.070801
11861.825000	1491.365000	407.916016	860.126221
11861.825000	1491.365000	406.642578	702.154846
11861.825000	1491.365000	405.368164	672.400513
11861.825000	1491.365000	404.094727	732.003540
11861.825000	1491.365000	402.820313	880.876709
11861.825000	1491.365000	401.545898	880.306885
11861.825000	1491.365000	400.270508	683.464111
11861.825000	1491.365000	398.996094	806.287964
11861.825000	1491.365000	397.720703	920.361206
11861.825000	1491.365000	396.444336	868.750854
11861.825000	1491.365000	395.168945	973.479492
11861.825000	1491.365000	393.892578	1002.189819
11861.825000	1491.365000	392.616211	830.684998
11861.825000	1491.365000	391.339844	998.653564
11861.825000	1491.365000	390.062500	1084.452759
11861.825000	1491.365000	388.785156	849.996338
11861.825000	1491.365000	387.507813	1062.600098
11861.825000	1491.365000	386.229492	841.049988
11861.825000	1491.365000	384.951172	919.867188
11861.825000	1491.365000	383.672852	930.771423
11861.825000	1491.365000	382.394531	698.940002
11861.825000	1491.365000	381.115234	834.272522
11861.825000	1491.365000	379.835938	1025.597046
11861.825000	1491.365000	378.556641	868.538574
11861.825000	1491.365000	377.277344	893.461670
11861.825000	1491.365000	375.997070	756.990723
11861.825000	1491.365000	374.716797	633.834045
11861.825000	1491.365000	373.435547	659.944519
11861.825000	1491.365000	372.155273	721.577393
11861.825000	1491.365000	370.874023	676.607361
11861.825000	1491.365000	369.591797	618.389343
11861.825000	1491.365000	368.310547	488.125061
11861.825000	1491.365000	367.028320	535.200012
11861.825000	1491.365000	365.746094	445.254517
11861.825000	1491.365000	364.463867	741.278259
11861.825000	1491.365000	363.180664	535.385254
11861.825000	1491.365000	361.897461	441.767273
11861.825000	1491.365000	360.614258	519.055664
11861.825000	1491.365000	359.330078	659.745239
11861.825000	1491.365000	358.045898	562.111694
11861.825000	1491.365000	356.761719	604.802856
11861.825000	1491.365000	355.477539	743.166199
11861.825000	1491.365000	354.192383	535.980591
11861.825000	1491.365000	352.907227	653.043457
11861.825000	1491.365000	351.622070	517.703186
11861.825000	1491.365000	350.336914	566.839417
11861.825000	1491.365000	349.050781	590.009521
11861.825000	1491.365000	347.764648	457.871124
11861.825000	1491.365000	346.477539	390.698944
11861.825000	1491.365000	345.191406	558.187317
11861.825000	1491.365000	343.904297	618.708496
11861.825000	1491.365000	342.616211	279.476349
11861.825000	1491.365000	341.329102	324.136292
11861.825000	1491.365000	340.041016	419.250977
11861.825000	1491.365000	338.752930	334.726868
11861.825000	1491.365000	337.463867	334.888489
11861.825000	1491.365000	336.175781	66.727737
11861.825000	1491.365000	334.886719	276.456818
11861.825000	1491.365000	333.596680	122.913925
11861.825000	1491.365000	332.307617	265.576538
11861.825000	1491.365000	331.017578	222.404129
11861.825000	1491.365000	329.727539	66.057991
11861.825000	1491.365000	328.436523	26.151211
11861.825000	1491.365000	327.146484	112.746872
11861.825000	1491.365000	325.855469	-24.797508
11861.825000	1491.365000	324.563477	22.282612
11861.825000	1491.365000	323.272461	-110.366959
11861.825000	1491.365000	321.980469	-131.040909
11861.825000	1491.365000	320.688477	-35.778770
11861.825000	1491.365000	319.395508	299.912231
11861.825000	1491.365000	318.103516	65.528183
11861.825000	1491.365000	316.810547	57.408974
11861.825000	1491.365000	315.516602	-32.216114
11861.825000	1491.365000	314.223633	-140.893600
11861.825000	1491.365000	312.929688	-96.051285
11861.825000	1491.365000	311.635742	-20.313744
11861.825000	1491.365000	310.340820	-2.229447
11861.825000	1491.365000	309.045898	-69.856087
11861.825000	1491.365000	307.750977	-58.594116
11861.825000	1491.365000	306.456055	19.389303
11861.825000	1491.365000	305.160156	-32.773903
11861.825000	1491.365000	303.865234	15.840056
11861.825000	1491.365000	302.568359	218.925476
11861.825000	1491.365000	301.272461	51.232693
11861.825000	1491.365000	299.975586	246.485565
11861.825000	1491.365000	298.678711	153.036438
