#X		#Y		#Wave		#Intensity
11818.443085	1417.915000	1999.980469	-38.452412
11818.443085	1417.915000	1999.016602	-49.629101
11818.443085	1417.915000	1998.052734	-63.535435
11818.443085	1417.915000	1997.087891	-15.515219
11818.443085	1417.915000	1996.123047	69.621613
11818.443085	1417.915000	1995.158203	-140.089508
11818.443085	1417.915000	1994.193359	190.180771
11818.443085	1417.915000	1993.228516	32.472702
11818.443085	1417.915000	1992.262695	169.420731
11818.443085	1417.915000	1991.297852	-27.879236
11818.443085	1417.915000	1990.332031	5.034776
11818.443085	1417.915000	1989.366211	235.872391
11818.443085	1417.915000	1988.399414	182.092087
11818.443085	1417.915000	1987.433594	110.997833
11818.443085	1417.915000	1986.466797	190.768158
11818.443085	1417.915000	1985.500977	235.875031
11818.443085	1417.915000	1984.534180	308.141388
11818.443085	1417.915000	1983.567383	24.439886
11818.443085	1417.915000	1982.599609	153.523697
11818.443085	1417.915000	1981.632813	-139.956467
11818.443085	1417.915000	1980.665039	13.785968
11818.443085	1417.915000	1979.697266	216.856064
11818.443085	1417.915000	1978.729492	217.347427
11818.443085	1417.915000	1977.761719	-71.038940
11818.443085	1417.915000	1976.792969	242.981155
11818.443085	1417.915000	1975.825195	38.590645
11818.443085	1417.915000	1974.856445	152.582687
11818.443085	1417.915000	1973.887695	101.228287
11818.443085	1417.915000	1972.918945	5.485155
11818.443085	1417.915000	1971.949219	-87.764984
11818.443085	1417.915000	1970.980469	164.219330
11818.443085	1417.915000	1970.010742	-72.022804
11818.443085	1417.915000	1969.041016	34.428940
11818.443085	1417.915000	1968.071289	153.159119
11818.443085	1417.915000	1967.101563	131.397797
11818.443085	1417.915000	1966.130859	-232.779129
11818.443085	1417.915000	1965.161133	107.594322
11818.443085	1417.915000	1964.190430	2.117633
11818.443085	1417.915000	1963.219727	-36.844643
11818.443085	1417.915000	1962.249023	182.676697
11818.443085	1417.915000	1961.277344	-97.502304
11818.443085	1417.915000	1960.306641	-57.683353
11818.443085	1417.915000	1959.334961	4.260279
11818.443085	1417.915000	1958.363281	-24.830391
11818.443085	1417.915000	1957.391602	317.450256
11818.443085	1417.915000	1956.419922	197.334991
11818.443085	1417.915000	1955.447266	13.346764
11818.443085	1417.915000	1954.474609	-99.291656
11818.443085	1417.915000	1953.501953	144.452240
11818.443085	1417.915000	1952.529297	-120.501373
11818.443085	1417.915000	1951.556641	83.855553
11818.443085	1417.915000	1950.583984	133.403122
11818.443085	1417.915000	1949.610352	136.274582
11818.443085	1417.915000	1948.636719	94.955223
11818.443085	1417.915000	1947.663086	316.313416
11818.443085	1417.915000	1946.689453	83.545578
11818.443085	1417.915000	1945.715820	-41.161633
11818.443085	1417.915000	1944.741211	35.357182
11818.443085	1417.915000	1943.767578	99.588943
11818.443085	1417.915000	1942.792969	207.943405
11818.443085	1417.915000	1941.818359	-71.158714
11818.443085	1417.915000	1940.842773	-173.641922
11818.443085	1417.915000	1939.868164	177.375153
11818.443085	1417.915000	1938.892578	197.425278
11818.443085	1417.915000	1937.916992	-17.747679
11818.443085	1417.915000	1936.941406	9.688307
11818.443085	1417.915000	1935.965820	132.640427
11818.443085	1417.915000	1934.990234	-72.591553
11818.443085	1417.915000	1934.013672	-150.430252
11818.443085	1417.915000	1933.037109	320.096619
11818.443085	1417.915000	1932.060547	70.899139
11818.443085	1417.915000	1931.083984	12.664695
11818.443085	1417.915000	1930.107422	-82.242569
11818.443085	1417.915000	1929.129883	-133.084198
11818.443085	1417.915000	1928.153320	-181.454697
11818.443085	1417.915000	1927.175781	161.421799
11818.443085	1417.915000	1926.198242	174.136581
11818.443085	1417.915000	1925.219727	-84.466438
11818.443085	1417.915000	1924.242188	-113.250427
11818.443085	1417.915000	1923.263672	-90.711998
11818.443085	1417.915000	1922.285156	266.496918
11818.443085	1417.915000	1921.306641	66.697395
11818.443085	1417.915000	1920.328125	201.525879
11818.443085	1417.915000	1919.349609	-117.819641
11818.443085	1417.915000	1918.370117	-19.621296
11818.443085	1417.915000	1917.391602	110.270302
11818.443085	1417.915000	1916.412109	105.903427
11818.443085	1417.915000	1915.431641	135.692825
11818.443085	1417.915000	1914.452148	80.098389
11818.443085	1417.915000	1913.472656	44.035187
11818.443085	1417.915000	1912.492188	-65.167641
11818.443085	1417.915000	1911.511719	13.386646
11818.443085	1417.915000	1910.531250	33.411564
11818.443085	1417.915000	1909.550781	146.033691
11818.443085	1417.915000	1908.569336	141.655380
11818.443085	1417.915000	1907.588867	-86.840729
11818.443085	1417.915000	1906.607422	176.739075
11818.443085	1417.915000	1905.625977	60.331528
11818.443085	1417.915000	1904.644531	124.131516
11818.443085	1417.915000	1903.662109	-40.916683
11818.443085	1417.915000	1902.680664	-52.577892
11818.443085	1417.915000	1901.698242	-137.241486
11818.443085	1417.915000	1900.715820	9.245054
11818.443085	1417.915000	1899.733398	-29.193924
11818.443085	1417.915000	1898.750000	285.009796
11818.443085	1417.915000	1897.767578	-1.495468
11818.443085	1417.915000	1896.784180	57.309952
11818.443085	1417.915000	1895.800781	84.486778
11818.443085	1417.915000	1894.817383	9.578472
11818.443085	1417.915000	1893.833984	226.253479
11818.443085	1417.915000	1892.850586	148.898972
11818.443085	1417.915000	1891.866211	-8.588767
11818.443085	1417.915000	1890.881836	-56.752556
11818.443085	1417.915000	1889.897461	-58.779438
11818.443085	1417.915000	1888.913086	77.546852
11818.443085	1417.915000	1887.927734	82.751419
11818.443085	1417.915000	1886.943359	269.932831
11818.443085	1417.915000	1885.958008	-154.341583
11818.443085	1417.915000	1884.972656	40.062130
11818.443085	1417.915000	1883.987305	-129.396606
11818.443085	1417.915000	1883.001953	-22.389261
11818.443085	1417.915000	1882.015625	-92.409386
11818.443085	1417.915000	1881.029297	174.487579
11818.443085	1417.915000	1880.042969	-118.524155
11818.443085	1417.915000	1879.056641	-33.471508
11818.443085	1417.915000	1878.070313	167.807037
11818.443085	1417.915000	1877.083984	8.117555
11818.443085	1417.915000	1876.096680	17.973188
11818.443085	1417.915000	1875.109375	-3.667763
11818.443085	1417.915000	1874.122070	209.479263
11818.443085	1417.915000	1873.134766	-213.979874
11818.443085	1417.915000	1872.146484	20.860458
11818.443085	1417.915000	1871.159180	122.532867
11818.443085	1417.915000	1870.170898	79.013290
11818.443085	1417.915000	1869.182617	-218.440094
11818.443085	1417.915000	1868.194336	163.625244
11818.443085	1417.915000	1867.205078	115.214424
11818.443085	1417.915000	1866.216797	235.987228
11818.443085	1417.915000	1865.227539	170.614655
11818.443085	1417.915000	1864.238281	-160.529770
11818.443085	1417.915000	1863.249023	-35.022823
11818.443085	1417.915000	1862.259766	211.169067
11818.443085	1417.915000	1861.269531	-153.688400
11818.443085	1417.915000	1860.279297	172.045029
11818.443085	1417.915000	1859.290039	-117.895607
11818.443085	1417.915000	1858.298828	328.315277
11818.443085	1417.915000	1857.308594	103.539352
11818.443085	1417.915000	1856.318359	1.851849
11818.443085	1417.915000	1855.327148	194.432388
11818.443085	1417.915000	1854.335938	29.998510
11818.443085	1417.915000	1853.344727	-93.418175
11818.443085	1417.915000	1852.353516	-142.092697
11818.443085	1417.915000	1851.362305	69.517303
11818.443085	1417.915000	1850.370117	160.523911
11818.443085	1417.915000	1849.377930	-153.301483
11818.443085	1417.915000	1848.385742	291.738770
11818.443085	1417.915000	1847.393555	69.451668
11818.443085	1417.915000	1846.401367	336.020203
11818.443085	1417.915000	1845.408203	96.877594
11818.443085	1417.915000	1844.415039	28.684063
11818.443085	1417.915000	1843.421875	133.749573
11818.443085	1417.915000	1842.428711	39.027637
11818.443085	1417.915000	1841.435547	50.149487
11818.443085	1417.915000	1840.441406	97.301071
11818.443085	1417.915000	1839.448242	62.633106
11818.443085	1417.915000	1838.454102	-287.031769
11818.443085	1417.915000	1837.459961	-21.221493
11818.443085	1417.915000	1836.464844	25.732149
11818.443085	1417.915000	1835.470703	-28.297136
11818.443085	1417.915000	1834.475586	-94.366905
11818.443085	1417.915000	1833.480469	315.146454
11818.443085	1417.915000	1832.485352	68.825356
11818.443085	1417.915000	1831.490234	379.613586
11818.443085	1417.915000	1830.495117	212.499878
11818.443085	1417.915000	1829.499023	16.595482
11818.443085	1417.915000	1828.502930	-28.097818
11818.443085	1417.915000	1827.506836	138.316895
11818.443085	1417.915000	1826.510742	59.933796
11818.443085	1417.915000	1825.513672	166.204834
11818.443085	1417.915000	1824.517578	-29.756968
11818.443085	1417.915000	1823.520508	-156.172241
11818.443085	1417.915000	1822.523438	-95.619957
11818.443085	1417.915000	1821.526367	84.687454
11818.443085	1417.915000	1820.529297	269.665497
11818.443085	1417.915000	1819.531250	131.094910
11818.443085	1417.915000	1818.533203	57.193859
11818.443085	1417.915000	1817.535156	294.590729
11818.443085	1417.915000	1816.537109	52.970562
11818.443085	1417.915000	1815.539063	290.166870
11818.443085	1417.915000	1814.540039	98.785393
11818.443085	1417.915000	1813.541992	-44.717888
11818.443085	1417.915000	1812.542969	118.018341
11818.443085	1417.915000	1811.543945	-161.903595
11818.443085	1417.915000	1810.543945	53.288818
11818.443085	1417.915000	1809.544922	285.082306
11818.443085	1417.915000	1808.544922	69.656136
11818.443085	1417.915000	1807.544922	277.332581
11818.443085	1417.915000	1806.544922	116.833862
11818.443085	1417.915000	1805.544922	-55.611916
11818.443085	1417.915000	1804.544922	144.620789
11818.443085	1417.915000	1803.543945	96.308083
11818.443085	1417.915000	1802.542969	57.503002
11818.443085	1417.915000	1801.541992	-64.914948
11818.443085	1417.915000	1800.541016	65.684685
11818.443085	1417.915000	1799.539063	205.714508
11818.443085	1417.915000	1798.538086	-98.207542
11818.443085	1417.915000	1797.536133	141.872971
11818.443085	1417.915000	1796.534180	334.091553
11818.443085	1417.915000	1795.532227	199.443893
11818.443085	1417.915000	1794.529297	91.005455
11818.443085	1417.915000	1793.527344	366.365509
11818.443085	1417.915000	1792.524414	229.201538
11818.443085	1417.915000	1791.521484	101.553696
11818.443085	1417.915000	1790.518555	-150.008041
11818.443085	1417.915000	1789.514648	222.577805
11818.443085	1417.915000	1788.511719	171.016418
11818.443085	1417.915000	1787.507813	126.544266
11818.443085	1417.915000	1786.503906	77.257500
11818.443085	1417.915000	1785.500000	82.669518
11818.443085	1417.915000	1784.496094	54.691181
11818.443085	1417.915000	1783.491211	276.491058
11818.443085	1417.915000	1782.486328	162.696793
11818.443085	1417.915000	1781.481445	260.565979
11818.443085	1417.915000	1780.476563	-26.924061
11818.443085	1417.915000	1779.471680	132.621918
11818.443085	1417.915000	1778.465820	284.898590
11818.443085	1417.915000	1777.460938	156.596008
11818.443085	1417.915000	1776.455078	-7.380722
11818.443085	1417.915000	1775.449219	182.634659
11818.443085	1417.915000	1774.442383	13.814113
11818.443085	1417.915000	1773.436523	165.609024
11818.443085	1417.915000	1772.429688	246.033340
11818.443085	1417.915000	1771.422852	-79.607666
11818.443085	1417.915000	1770.416016	55.278618
11818.443085	1417.915000	1769.409180	178.175446
11818.443085	1417.915000	1768.402344	47.073914
11818.443085	1417.915000	1767.394531	108.092819
11818.443085	1417.915000	1766.386719	-30.215137
11818.443085	1417.915000	1765.378906	184.784714
11818.443085	1417.915000	1764.371094	-20.018080
11818.443085	1417.915000	1763.362305	95.184509
11818.443085	1417.915000	1762.354492	-161.810791
11818.443085	1417.915000	1761.345703	-91.795113
11818.443085	1417.915000	1760.336914	82.358902
11818.443085	1417.915000	1759.328125	-30.231586
11818.443085	1417.915000	1758.318359	91.587822
11818.443085	1417.915000	1757.308594	45.177166
11818.443085	1417.915000	1756.299805	105.244423
11818.443085	1417.915000	1755.290039	-78.576538
11818.443085	1417.915000	1754.279297	40.485569
11818.443085	1417.915000	1753.269531	220.949478
11818.443085	1417.915000	1752.258789	-164.088409
11818.443085	1417.915000	1751.249023	-52.390331
11818.443085	1417.915000	1750.238281	170.317581
11818.443085	1417.915000	1749.226563	120.981476
11818.443085	1417.915000	1748.215820	55.052444
11818.443085	1417.915000	1747.204102	-46.383518
11818.443085	1417.915000	1746.193359	-237.632828
11818.443085	1417.915000	1745.181641	-128.877319
11818.443085	1417.915000	1744.168945	1.009834
11818.443085	1417.915000	1743.157227	116.612320
11818.443085	1417.915000	1742.144531	26.682478
11818.443085	1417.915000	1741.132813	9.897053
11818.443085	1417.915000	1740.120117	-268.934265
11818.443085	1417.915000	1739.106445	-193.798813
11818.443085	1417.915000	1738.093750	-229.638565
11818.443085	1417.915000	1737.080078	-114.590500
11818.443085	1417.915000	1736.067383	-126.997635
11818.443085	1417.915000	1735.053711	-108.832153
11818.443085	1417.915000	1734.040039	48.337105
11818.443085	1417.915000	1733.025391	-46.828125
11818.443085	1417.915000	1732.011719	-64.257217
11818.443085	1417.915000	1730.997070	50.174809
11818.443085	1417.915000	1729.982422	148.000000
11818.443085	1417.915000	1728.967773	-60.451309
11818.443085	1417.915000	1727.952148	27.783094
11818.443085	1417.915000	1726.937500	90.023575
11818.443085	1417.915000	1725.921875	-57.327171
11818.443085	1417.915000	1724.906250	110.650970
11818.443085	1417.915000	1723.890625	-8.558312
11818.443085	1417.915000	1722.875000	-217.185196
11818.443085	1417.915000	1721.858398	-105.946487
11818.443085	1417.915000	1720.841797	-185.294815
11818.443085	1417.915000	1719.825195	-10.768907
11818.443085	1417.915000	1718.808594	-184.271774
11818.443085	1417.915000	1717.791992	-40.507153
11818.443085	1417.915000	1716.774414	-21.412846
11818.443085	1417.915000	1715.756836	-70.524109
11818.443085	1417.915000	1714.739258	164.519775
11818.443085	1417.915000	1713.721680	21.317806
11818.443085	1417.915000	1712.704102	70.630150
11818.443085	1417.915000	1711.685547	16.555866
11818.443085	1417.915000	1710.667969	166.635269
11818.443085	1417.915000	1709.649414	-4.902715
11818.443085	1417.915000	1708.630859	137.938416
11818.443085	1417.915000	1707.611328	198.548508
11818.443085	1417.915000	1706.592773	331.780914
11818.443085	1417.915000	1705.573242	-41.586063
11818.443085	1417.915000	1704.553711	72.743141
11818.443085	1417.915000	1703.534180	147.116669
11818.443085	1417.915000	1702.513672	85.466133
11818.443085	1417.915000	1701.494141	267.456024
11818.443085	1417.915000	1700.473633	32.330933
11818.443085	1417.915000	1699.453125	347.619171
11818.443085	1417.915000	1698.432617	119.465805
11818.443085	1417.915000	1697.412109	279.972900
11818.443085	1417.915000	1696.390625	-46.527817
11818.443085	1417.915000	1695.369141	102.111404
11818.443085	1417.915000	1694.347656	28.349102
11818.443085	1417.915000	1693.326172	29.413374
11818.443085	1417.915000	1692.304688	107.601654
11818.443085	1417.915000	1691.282227	19.656590
11818.443085	1417.915000	1690.260742	-152.471863
11818.443085	1417.915000	1689.238281	121.872864
11818.443085	1417.915000	1688.214844	73.517380
11818.443085	1417.915000	1687.192383	50.838737
11818.443085	1417.915000	1686.168945	268.730530
11818.443085	1417.915000	1685.146484	322.990906
11818.443085	1417.915000	1684.123047	173.985947
11818.443085	1417.915000	1683.099609	167.411957
11818.443085	1417.915000	1682.075195	219.134247
11818.443085	1417.915000	1681.051758	-16.285912
11818.443085	1417.915000	1680.027344	338.703735
11818.443085	1417.915000	1679.002930	264.213776
11818.443085	1417.915000	1677.978516	61.407932
11818.443085	1417.915000	1676.953125	210.774429
11818.443085	1417.915000	1675.928711	103.553719
11818.443085	1417.915000	1674.903320	287.721466
11818.443085	1417.915000	1673.877930	257.333832
11818.443085	1417.915000	1672.852539	441.301666
11818.443085	1417.915000	1671.826172	338.556335
11818.443085	1417.915000	1670.800781	305.700134
11818.443085	1417.915000	1669.774414	400.891876
11818.443085	1417.915000	1668.748047	444.773956
11818.443085	1417.915000	1667.721680	570.077576
11818.443085	1417.915000	1666.694336	641.737793
11818.443085	1417.915000	1665.667969	413.124939
11818.443085	1417.915000	1664.640625	473.065491
11818.443085	1417.915000	1663.613281	337.528168
11818.443085	1417.915000	1662.585938	539.253967
11818.443085	1417.915000	1661.557617	475.748199
11818.443085	1417.915000	1660.530273	642.414673
11818.443085	1417.915000	1659.501953	457.956573
11818.443085	1417.915000	1658.473633	689.542053
11818.443085	1417.915000	1657.444336	565.471191
11818.443085	1417.915000	1656.416016	827.073853
11818.443085	1417.915000	1655.386719	584.488586
11818.443085	1417.915000	1654.358398	729.797363
11818.443085	1417.915000	1653.328125	561.539246
11818.443085	1417.915000	1652.298828	938.854492
11818.443085	1417.915000	1651.269531	865.726807
11818.443085	1417.915000	1650.239258	774.014709
11818.443085	1417.915000	1649.208984	895.753906
11818.443085	1417.915000	1648.178711	829.525269
11818.443085	1417.915000	1647.148438	1157.548462
11818.443085	1417.915000	1646.117188	1255.849854
11818.443085	1417.915000	1645.086914	1511.738647
11818.443085	1417.915000	1644.055664	1531.073364
11818.443085	1417.915000	1643.024414	1573.544067
11818.443085	1417.915000	1641.992188	1537.185181
11818.443085	1417.915000	1640.960938	1769.538208
11818.443085	1417.915000	1639.928711	1575.617920
11818.443085	1417.915000	1638.896484	1780.024780
11818.443085	1417.915000	1637.864258	1701.886597
11818.443085	1417.915000	1636.832031	1570.518799
11818.443085	1417.915000	1635.798828	1453.052979
11818.443085	1417.915000	1634.766602	1377.275391
11818.443085	1417.915000	1633.733398	1484.245361
11818.443085	1417.915000	1632.699219	1202.581177
11818.443085	1417.915000	1631.666016	1441.316772
11818.443085	1417.915000	1630.632813	1411.753906
11818.443085	1417.915000	1629.598633	1497.750977
11818.443085	1417.915000	1628.564453	1331.791260
11818.443085	1417.915000	1627.530273	1403.879639
11818.443085	1417.915000	1626.495117	1432.019043
11818.443085	1417.915000	1625.460938	1286.919434
11818.443085	1417.915000	1624.425781	1495.171387
11818.443085	1417.915000	1623.390625	1317.758423
11818.443085	1417.915000	1622.355469	1364.320190
11818.443085	1417.915000	1621.319336	1327.754028
11818.443085	1417.915000	1620.284180	1392.738647
11818.443085	1417.915000	1619.248047	1568.417725
11818.443085	1417.915000	1618.211914	1331.143555
11818.443085	1417.915000	1617.174805	1686.620361
11818.443085	1417.915000	1616.138672	1546.247681
11818.443085	1417.915000	1615.101563	1883.098511
11818.443085	1417.915000	1614.065430	1874.111450
11818.443085	1417.915000	1613.027344	1694.578369
11818.443085	1417.915000	1611.990234	1581.943848
11818.443085	1417.915000	1610.953125	1741.161743
11818.443085	1417.915000	1609.915039	1787.457764
11818.443085	1417.915000	1608.876953	1750.850464
11818.443085	1417.915000	1607.838867	1783.323364
11818.443085	1417.915000	1606.800781	1785.867432
11818.443085	1417.915000	1605.761719	1852.839355
11818.443085	1417.915000	1604.723633	1968.120850
11818.443085	1417.915000	1603.684570	2085.652344
11818.443085	1417.915000	1602.644531	1763.862915
11818.443085	1417.915000	1601.605469	1977.983521
11818.443085	1417.915000	1600.566406	2178.239990
11818.443085	1417.915000	1599.526367	1895.729248
11818.443085	1417.915000	1598.486328	1935.071167
11818.443085	1417.915000	1597.446289	1783.712036
11818.443085	1417.915000	1596.405273	1788.619873
11818.443085	1417.915000	1595.365234	2174.811035
11818.443085	1417.915000	1594.324219	1894.937256
11818.443085	1417.915000	1593.283203	2033.032471
11818.443085	1417.915000	1592.242188	2015.005981
11818.443085	1417.915000	1591.200195	1801.927368
11818.443085	1417.915000	1590.159180	2167.173828
11818.443085	1417.915000	1589.117188	1715.614624
11818.443085	1417.915000	1588.075195	2050.951172
11818.443085	1417.915000	1587.032227	1870.214600
11818.443085	1417.915000	1585.990234	1905.099976
11818.443085	1417.915000	1584.947266	1962.908203
11818.443085	1417.915000	1583.904297	2194.895752
11818.443085	1417.915000	1582.861328	1870.028320
11818.443085	1417.915000	1581.818359	1563.644775
11818.443085	1417.915000	1580.775391	1907.894653
11818.443085	1417.915000	1579.731445	1887.922241
11818.443085	1417.915000	1578.687500	1542.876221
11818.443085	1417.915000	1577.643555	1795.450928
11818.443085	1417.915000	1576.598633	1688.630737
11818.443085	1417.915000	1575.554688	1577.326904
11818.443085	1417.915000	1574.509766	1534.722046
11818.443085	1417.915000	1573.464844	1448.712524
11818.443085	1417.915000	1572.419922	1730.959717
11818.443085	1417.915000	1571.374023	1414.086548
11818.443085	1417.915000	1570.329102	1449.426025
11818.443085	1417.915000	1569.283203	1247.090576
11818.443085	1417.915000	1568.237305	1538.447266
11818.443085	1417.915000	1567.191406	1521.313599
11818.443085	1417.915000	1566.144531	1447.115601
11818.443085	1417.915000	1565.098633	1368.435669
11818.443085	1417.915000	1564.051758	1257.857422
11818.443085	1417.915000	1563.004883	1416.739868
11818.443085	1417.915000	1561.957031	1525.386353
11818.443085	1417.915000	1560.910156	1266.664063
11818.443085	1417.915000	1559.862305	1363.990845
11818.443085	1417.915000	1558.814453	1228.667114
11818.443085	1417.915000	1557.766602	1271.334351
11818.443085	1417.915000	1556.718750	1106.546265
11818.443085	1417.915000	1555.669922	1493.547729
11818.443085	1417.915000	1554.621094	1463.355591
11818.443085	1417.915000	1553.573242	1503.884766
11818.443085	1417.915000	1552.523438	1050.034668
11818.443085	1417.915000	1551.474609	1503.030884
11818.443085	1417.915000	1550.424805	1502.687012
11818.443085	1417.915000	1549.375000	1333.907959
11818.443085	1417.915000	1548.325195	1436.163696
11818.443085	1417.915000	1547.275391	1278.966675
11818.443085	1417.915000	1546.225586	1394.974121
11818.443085	1417.915000	1545.174805	1156.058350
11818.443085	1417.915000	1544.124023	1313.106812
11818.443085	1417.915000	1543.073242	1265.473755
11818.443085	1417.915000	1542.022461	1151.984375
11818.443085	1417.915000	1540.970703	1065.876465
11818.443085	1417.915000	1539.919922	945.790344
11818.443085	1417.915000	1538.868164	1091.693115
11818.443085	1417.915000	1537.815430	942.230469
11818.443085	1417.915000	1536.763672	1090.491211
11818.443085	1417.915000	1535.710938	1095.671509
11818.443085	1417.915000	1534.659180	769.410645
11818.443085	1417.915000	1533.606445	813.393555
11818.443085	1417.915000	1532.552734	900.552795
11818.443085	1417.915000	1531.500000	1064.923828
11818.443085	1417.915000	1530.446289	770.973022
11818.443085	1417.915000	1529.393555	960.411194
11818.443085	1417.915000	1528.338867	1000.144287
11818.443085	1417.915000	1527.285156	831.334412
11818.443085	1417.915000	1526.231445	891.651855
11818.443085	1417.915000	1525.176758	702.681396
11818.443085	1417.915000	1524.122070	742.757996
11818.443085	1417.915000	1523.067383	642.425415
11818.443085	1417.915000	1522.012695	852.565247
11818.443085	1417.915000	1520.957031	562.157104
11818.443085	1417.915000	1519.901367	722.574707
11818.443085	1417.915000	1518.845703	427.951538
11818.443085	1417.915000	1517.790039	36.200550
11818.443085	1417.915000	1516.734375	208.205261
11818.443085	1417.915000	1515.677734	242.199509
11818.443085	1417.915000	1514.621094	373.542908
11818.443085	1417.915000	1513.564453	330.771332
11818.443085	1417.915000	1512.507813	195.395248
11818.443085	1417.915000	1511.450195	-100.364822
11818.443085	1417.915000	1510.393555	-9.375413
11818.443085	1417.915000	1509.335938	-119.475449
11818.443085	1417.915000	1508.278320	265.399170
11818.443085	1417.915000	1507.219727	-11.700628
11818.443085	1417.915000	1506.162109	178.949646
11818.443085	1417.915000	1505.103516	53.466881
11818.443085	1417.915000	1504.044922	-71.866486
11818.443085	1417.915000	1502.986328	177.655273
11818.443085	1417.915000	1501.926758	-17.426239
11818.443085	1417.915000	1500.868164	218.645706
11818.443085	1417.915000	1499.808594	-10.005271
11818.443085	1417.915000	1498.749023	205.865677
11818.443085	1417.915000	1497.688477	275.169647
11818.443085	1417.915000	1496.628906	-99.599174
11818.443085	1417.915000	1495.568359	-18.787090
11818.443085	1417.915000	1494.507813	48.574913
11818.443085	1417.915000	1493.447266	194.879990
11818.443085	1417.915000	1492.386719	-120.593918
11818.443085	1417.915000	1491.325195	57.422237
11818.443085	1417.915000	1490.263672	23.795486
11818.443085	1417.915000	1489.202148	-138.043930
11818.443085	1417.915000	1488.140625	-83.613060
11818.443085	1417.915000	1487.079102	-35.848854
11818.443085	1417.915000	1486.016602	133.504547
11818.443085	1417.915000	1484.954102	93.682777
11818.443085	1417.915000	1483.891602	76.479286
11818.443085	1417.915000	1482.829102	126.857483
11818.443085	1417.915000	1481.765625	37.927135
11818.443085	1417.915000	1480.702148	-145.246506
11818.443085	1417.915000	1479.638672	-45.073151
11818.443085	1417.915000	1478.575195	371.963318
11818.443085	1417.915000	1477.511719	238.603577
11818.443085	1417.915000	1476.447266	217.686417
11818.443085	1417.915000	1475.382813	378.801910
11818.443085	1417.915000	1474.318359	207.686768
11818.443085	1417.915000	1473.253906	431.792633
11818.443085	1417.915000	1472.189453	330.721436
11818.443085	1417.915000	1471.124023	483.044891
11818.443085	1417.915000	1470.058594	527.784180
11818.443085	1417.915000	1468.993164	669.170044
11818.443085	1417.915000	1467.927734	582.044678
11818.443085	1417.915000	1466.861328	481.659973
11818.443085	1417.915000	1465.794922	873.929077
11818.443085	1417.915000	1464.728516	824.959717
11818.443085	1417.915000	1463.662109	772.613647
11818.443085	1417.915000	1462.594727	748.807068
11818.443085	1417.915000	1461.528320	740.636292
11818.443085	1417.915000	1460.460938	869.300842
11818.443085	1417.915000	1459.393555	1032.035400
11818.443085	1417.915000	1458.326172	1093.254395
11818.443085	1417.915000	1457.257813	1021.224182
11818.443085	1417.915000	1456.189453	853.507324
11818.443085	1417.915000	1455.121094	1190.543457
11818.443085	1417.915000	1454.052734	1239.344482
11818.443085	1417.915000	1452.984375	914.901123
11818.443085	1417.915000	1451.915039	1070.964478
11818.443085	1417.915000	1450.845703	1295.868042
11818.443085	1417.915000	1449.776367	1173.965454
11818.443085	1417.915000	1448.707031	1306.667114
11818.443085	1417.915000	1447.636719	1297.693604
11818.443085	1417.915000	1446.567383	1194.133789
11818.443085	1417.915000	1445.497070	1205.067139
11818.443085	1417.915000	1444.425781	1010.896790
11818.443085	1417.915000	1443.355469	854.320251
11818.443085	1417.915000	1442.285156	917.159729
11818.443085	1417.915000	1441.213867	924.812134
11818.443085	1417.915000	1440.142578	1007.129211
11818.443085	1417.915000	1439.070313	786.918152
11818.443085	1417.915000	1437.999023	958.459412
11818.443085	1417.915000	1436.926758	670.887024
11818.443085	1417.915000	1435.854492	1060.126465
11818.443085	1417.915000	1434.782227	547.115112
11818.443085	1417.915000	1433.709961	476.169556
11818.443085	1417.915000	1432.636719	491.513763
11818.443085	1417.915000	1431.563477	405.965118
11818.443085	1417.915000	1430.490234	591.377136
11818.443085	1417.915000	1429.416992	553.669861
11818.443085	1417.915000	1428.343750	227.411545
11818.443085	1417.915000	1427.269531	338.899078
11818.443085	1417.915000	1426.195313	310.544830
11818.443085	1417.915000	1425.121094	81.018761
11818.443085	1417.915000	1424.046875	-13.681129
11818.443085	1417.915000	1422.971680	-29.439247
11818.443085	1417.915000	1421.896484	-62.394447
11818.443085	1417.915000	1420.821289	-57.173740
11818.443085	1417.915000	1419.746094	82.798988
11818.443085	1417.915000	1418.669922	171.526489
11818.443085	1417.915000	1417.594727	102.098862
11818.443085	1417.915000	1416.518555	16.088171
11818.443085	1417.915000	1415.442383	-121.004585
11818.443085	1417.915000	1414.365234	-218.678192
11818.443085	1417.915000	1413.289063	256.707275
11818.443085	1417.915000	1412.211914	162.029465
11818.443085	1417.915000	1411.134766	138.017380
11818.443085	1417.915000	1410.057617	130.366150
11818.443085	1417.915000	1408.979492	378.612732
11818.443085	1417.915000	1407.902344	246.952438
11818.443085	1417.915000	1406.824219	146.969131
11818.443085	1417.915000	1405.746094	528.793518
11818.443085	1417.915000	1404.666992	539.474609
11818.443085	1417.915000	1403.588867	512.331848
11818.443085	1417.915000	1402.509766	401.992920
11818.443085	1417.915000	1401.430664	259.427856
11818.443085	1417.915000	1400.351563	227.038727
11818.443085	1417.915000	1399.271484	699.064636
11818.443085	1417.915000	1398.192383	629.292480
11818.443085	1417.915000	1397.112305	617.376465
11818.443085	1417.915000	1396.031250	346.013916
11818.443085	1417.915000	1394.951172	572.049622
11818.443085	1417.915000	1393.871094	274.181732
11818.443085	1417.915000	1392.790039	441.210571
11818.443085	1417.915000	1391.708984	279.108917
11818.443085	1417.915000	1390.626953	660.409607
11818.443085	1417.915000	1389.545898	242.243393
11818.443085	1417.915000	1388.463867	504.482971
11818.443085	1417.915000	1387.381836	427.055786
11818.443085	1417.915000	1386.299805	368.273987
11818.443085	1417.915000	1385.217773	346.891083
11818.443085	1417.915000	1384.134766	500.188629
11818.443085	1417.915000	1383.051758	596.511475
11818.443085	1417.915000	1381.968750	412.976471
11818.443085	1417.915000	1380.885742	683.151489
11818.443085	1417.915000	1379.802734	377.227570
11818.443085	1417.915000	1378.718750	326.648895
11818.443085	1417.915000	1377.634766	867.691284
11818.443085	1417.915000	1376.550781	667.379822
11818.443085	1417.915000	1375.465820	618.358032
11818.443085	1417.915000	1374.381836	832.384277
11818.443085	1417.915000	1373.296875	651.043335
11818.443085	1417.915000	1372.211914	847.221802
11818.443085	1417.915000	1371.126953	730.528625
11818.443085	1417.915000	1370.041016	760.250488
11818.443085	1417.915000	1368.955078	777.539368
11818.443085	1417.915000	1367.869141	638.152527
11818.443085	1417.915000	1366.783203	931.950745
11818.443085	1417.915000	1365.697266	1079.011719
11818.443085	1417.915000	1364.610352	983.167542
11818.443085	1417.915000	1363.523438	892.010925
11818.443085	1417.915000	1362.436523	644.471069
11818.443085	1417.915000	1361.349609	818.678223
11818.443085	1417.915000	1360.261719	794.722839
11818.443085	1417.915000	1359.174805	980.643127
11818.443085	1417.915000	1358.086914	928.270996
11818.443085	1417.915000	1356.998047	1053.522095
11818.443085	1417.915000	1355.910156	872.668640
11818.443085	1417.915000	1354.821289	932.148315
11818.443085	1417.915000	1353.732422	853.427856
11818.443085	1417.915000	1352.643555	1002.446167
11818.443085	1417.915000	1351.554688	1182.798340
11818.443085	1417.915000	1350.464844	1070.253174
11818.443085	1417.915000	1349.375000	1378.652100
11818.443085	1417.915000	1348.285156	1120.762085
11818.443085	1417.915000	1347.195313	1191.580322
11818.443085	1417.915000	1346.105469	1175.272217
11818.443085	1417.915000	1345.014648	1137.691284
11818.443085	1417.915000	1343.923828	1402.693726
11818.443085	1417.915000	1342.833008	1298.841431
11818.443085	1417.915000	1341.741211	1382.953003
11818.443085	1417.915000	1340.650391	1539.525879
11818.443085	1417.915000	1339.558594	1114.963745
11818.443085	1417.915000	1338.466797	1275.147705
11818.443085	1417.915000	1337.374023	1169.996216
11818.443085	1417.915000	1336.282227	1154.066772
11818.443085	1417.915000	1335.189453	1220.907959
11818.443085	1417.915000	1334.096680	1395.170288
11818.443085	1417.915000	1333.003906	1324.636108
11818.443085	1417.915000	1331.910156	1605.702881
11818.443085	1417.915000	1330.817383	1459.641846
11818.443085	1417.915000	1329.723633	1275.438232
11818.443085	1417.915000	1328.629883	1413.460571
11818.443085	1417.915000	1327.535156	1228.276611
11818.443085	1417.915000	1326.441406	1372.569092
11818.443085	1417.915000	1325.346680	1171.718140
11818.443085	1417.915000	1324.251953	1204.707397
11818.443085	1417.915000	1323.156250	1278.331299
11818.443085	1417.915000	1322.061523	1232.465332
11818.443085	1417.915000	1320.965820	1040.296997
11818.443085	1417.915000	1319.870117	1187.983276
11818.443085	1417.915000	1318.774414	1344.462769
11818.443085	1417.915000	1317.678711	1188.742554
11818.443085	1417.915000	1316.582031	1196.094116
11818.443085	1417.915000	1315.485352	1046.382935
11818.443085	1417.915000	1314.388672	1129.227417
11818.443085	1417.915000	1313.291016	1152.037964
11818.443085	1417.915000	1312.194336	1272.356567
11818.443085	1417.915000	1311.096680	1362.450073
11818.443085	1417.915000	1309.999023	1543.207153
11818.443085	1417.915000	1308.901367	1240.783325
11818.443085	1417.915000	1307.802734	1548.624512
11818.443085	1417.915000	1306.705078	1468.056763
11818.443085	1417.915000	1305.606445	1445.213379
11818.443085	1417.915000	1304.506836	1305.513306
11818.443085	1417.915000	1303.408203	1423.235718
11818.443085	1417.915000	1302.308594	1372.846069
11818.443085	1417.915000	1301.208984	1102.484253
11818.443085	1417.915000	1300.109375	1232.850464
11818.443085	1417.915000	1299.009766	1295.229126
11818.443085	1417.915000	1297.909180	1188.908325
11818.443085	1417.915000	1296.808594	1026.412598
11818.443085	1417.915000	1295.708008	1022.346497
11818.443085	1417.915000	1294.607422	1083.789185
11818.443085	1417.915000	1293.506836	1010.940796
11818.443085	1417.915000	1292.405273	835.978638
11818.443085	1417.915000	1291.303711	760.854614
11818.443085	1417.915000	1290.202148	766.557922
11818.443085	1417.915000	1289.099609	721.076599
11818.443085	1417.915000	1287.998047	816.201416
11818.443085	1417.915000	1286.895508	795.588928
11818.443085	1417.915000	1285.792969	781.821594
11818.443085	1417.915000	1284.689453	669.453979
11818.443085	1417.915000	1283.586914	424.446411
11818.443085	1417.915000	1282.483398	635.022217
11818.443085	1417.915000	1281.379883	575.490234
11818.443085	1417.915000	1280.276367	441.714661
11818.443085	1417.915000	1279.171875	394.627289
11818.443085	1417.915000	1278.067383	547.630432
11818.443085	1417.915000	1276.962891	486.857880
11818.443085	1417.915000	1275.858398	512.851563
11818.443085	1417.915000	1274.753906	442.485596
11818.443085	1417.915000	1273.648438	384.439941
11818.443085	1417.915000	1272.542969	326.271027
11818.443085	1417.915000	1271.437500	359.225830
11818.443085	1417.915000	1270.331055	296.603729
11818.443085	1417.915000	1269.225586	378.996460
11818.443085	1417.915000	1268.119141	331.052582
11818.443085	1417.915000	1267.012695	179.078186
11818.443085	1417.915000	1265.906250	177.873047
11818.443085	1417.915000	1264.798828	306.349976
11818.443085	1417.915000	1263.691406	354.543457
11818.443085	1417.915000	1262.583984	476.907623
11818.443085	1417.915000	1261.476563	381.853485
11818.443085	1417.915000	1260.368164	91.417145
11818.443085	1417.915000	1259.260742	400.261871
11818.443085	1417.915000	1258.152344	112.214584
11818.443085	1417.915000	1257.043945	110.368172
11818.443085	1417.915000	1255.934570	177.684555
11818.443085	1417.915000	1254.825195	287.990875
11818.443085	1417.915000	1253.716797	314.465729
11818.443085	1417.915000	1252.606445	145.336899
11818.443085	1417.915000	1251.497070	322.636322
11818.443085	1417.915000	1250.387695	175.429489
11818.443085	1417.915000	1249.277344	270.772247
11818.443085	1417.915000	1248.166992	456.782593
11818.443085	1417.915000	1247.055664	458.192200
11818.443085	1417.915000	1245.945313	324.290588
11818.443085	1417.915000	1244.833984	302.930817
11818.443085	1417.915000	1243.722656	307.781555
11818.443085	1417.915000	1242.611328	260.410156
11818.443085	1417.915000	1241.499023	293.671478
11818.443085	1417.915000	1240.387695	185.903625
11818.443085	1417.915000	1239.275391	24.522406
11818.443085	1417.915000	1238.162109	74.688988
11818.443085	1417.915000	1237.049805	130.630051
11818.443085	1417.915000	1235.936523	147.831818
11818.443085	1417.915000	1234.823242	198.581909
11818.443085	1417.915000	1233.709961	106.894989
11818.443085	1417.915000	1232.596680	288.328644
11818.443085	1417.915000	1231.482422	63.821903
11818.443085	1417.915000	1230.369141	48.011387
11818.443085	1417.915000	1229.253906	210.243454
11818.443085	1417.915000	1228.139648	195.068237
11818.443085	1417.915000	1227.025391	108.739204
11818.443085	1417.915000	1225.910156	309.423950
11818.443085	1417.915000	1224.794922	-102.037277
11818.443085	1417.915000	1223.679688	1.670974
11818.443085	1417.915000	1222.563477	41.140137
11818.443085	1417.915000	1221.447266	57.069832
11818.443085	1417.915000	1220.331055	11.685657
11818.443085	1417.915000	1219.214844	2.605799
11818.443085	1417.915000	1218.098633	-132.881638
11818.443085	1417.915000	1216.981445	-121.821869
11818.443085	1417.915000	1215.864258	69.545219
11818.443085	1417.915000	1214.747070	81.164017
11818.443085	1417.915000	1213.629883	77.051163
11818.443085	1417.915000	1212.511719	57.569622
11818.443085	1417.915000	1211.393555	-145.657166
11818.443085	1417.915000	1210.275391	16.832775
11818.443085	1417.915000	1209.157227	84.720139
11818.443085	1417.915000	1208.038086	81.014412
11818.443085	1417.915000	1206.918945	-12.928550
11818.443085	1417.915000	1205.799805	69.626678
11818.443085	1417.915000	1204.680664	140.481934
11818.443085	1417.915000	1203.560547	-49.111164
11818.443085	1417.915000	1202.441406	112.556236
11818.443085	1417.915000	1201.321289	138.658249
11818.443085	1417.915000	1200.200195	65.924446
11818.443085	1417.915000	1199.080078	238.145721
11818.443085	1417.915000	1197.958984	59.005951
11818.443085	1417.915000	1196.837891	169.866943
11818.443085	1417.915000	1195.716797	21.331354
11818.443085	1417.915000	1194.594727	126.096092
11818.443085	1417.915000	1193.473633	112.686584
11818.443085	1417.915000	1192.351563	26.913557
11818.443085	1417.915000	1191.229492	-45.745857
11818.443085	1417.915000	1190.106445	47.992130
11818.443085	1417.915000	1188.984375	-11.705298
11818.443085	1417.915000	1187.861328	43.886520
11818.443085	1417.915000	1186.738281	97.421570
11818.443085	1417.915000	1185.614258	-70.088867
11818.443085	1417.915000	1184.491211	-100.243088
11818.443085	1417.915000	1183.367188	86.943230
11818.443085	1417.915000	1182.243164	-93.910995
11818.443085	1417.915000	1181.119141	-64.649345
11818.443085	1417.915000	1179.994141	-56.291870
11818.443085	1417.915000	1178.869141	-82.565262
11818.443085	1417.915000	1177.744141	-186.420502
11818.443085	1417.915000	1176.619141	-4.570290
11818.443085	1417.915000	1175.493164	-151.758377
11818.443085	1417.915000	1174.368164	-90.879471
11818.443085	1417.915000	1173.242188	-75.939857
11818.443085	1417.915000	1172.115234	-20.991152
11818.443085	1417.915000	1170.989258	-339.173004
11818.443085	1417.915000	1169.862305	-234.166626
11818.443085	1417.915000	1168.735352	-156.980698
11818.443085	1417.915000	1167.608398	-203.232132
11818.443085	1417.915000	1166.481445	-222.666779
11818.443085	1417.915000	1165.353516	-361.720978
11818.443085	1417.915000	1164.225586	-363.705963
11818.443085	1417.915000	1163.097656	-182.516953
11818.443085	1417.915000	1161.968750	-109.299355
11818.443085	1417.915000	1160.840820	-51.408043
11818.443085	1417.915000	1159.711914	-26.842113
11818.443085	1417.915000	1158.583008	-17.316910
11818.443085	1417.915000	1157.453125	-95.022858
11818.443085	1417.915000	1156.324219	-217.875076
11818.443085	1417.915000	1155.194336	-84.474464
11818.443085	1417.915000	1154.064453	-291.513763
11818.443085	1417.915000	1152.933594	97.124130
11818.443085	1417.915000	1151.803711	86.319328
11818.443085	1417.915000	1150.672852	51.939407
11818.443085	1417.915000	1149.541992	-44.481617
11818.443085	1417.915000	1148.411133	86.822258
11818.443085	1417.915000	1147.279297	126.760925
11818.443085	1417.915000	1146.147461	169.322632
11818.443085	1417.915000	1145.015625	-36.668976
11818.443085	1417.915000	1143.883789	76.125374
11818.443085	1417.915000	1142.750977	-56.070122
11818.443085	1417.915000	1141.619141	-254.958527
11818.443085	1417.915000	1140.486328	-178.892639
11818.443085	1417.915000	1139.352539	-59.114372
11818.443085	1417.915000	1138.219727	-181.064758
11818.443085	1417.915000	1137.085938	-55.636913
11818.443085	1417.915000	1135.952148	-75.346016
11818.443085	1417.915000	1134.818359	-137.592972
11818.443085	1417.915000	1133.683594	-52.430229
11818.443085	1417.915000	1132.549805	29.368618
11818.443085	1417.915000	1131.415039	133.968674
11818.443085	1417.915000	1130.279297	137.537277
11818.443085	1417.915000	1129.144531	53.472061
11818.443085	1417.915000	1128.008789	218.004257
11818.443085	1417.915000	1126.873047	-84.999054
11818.443085	1417.915000	1125.737305	174.975357
11818.443085	1417.915000	1124.601563	58.931927
11818.443085	1417.915000	1123.464844	155.894028
11818.443085	1417.915000	1122.328125	176.295380
11818.443085	1417.915000	1121.191406	284.194122
11818.443085	1417.915000	1120.054688	29.776442
11818.443085	1417.915000	1118.916992	17.045954
11818.443085	1417.915000	1117.779297	179.231537
11818.443085	1417.915000	1116.641602	180.699020
11818.443085	1417.915000	1115.503906	187.399231
11818.443085	1417.915000	1114.365234	14.286798
11818.443085	1417.915000	1113.226563	-0.557591
11818.443085	1417.915000	1112.087891	64.722160
11818.443085	1417.915000	1110.949219	-41.180912
11818.443085	1417.915000	1109.809570	126.321465
11818.443085	1417.915000	1108.669922	127.569954
11818.443085	1417.915000	1107.530273	134.629684
11818.443085	1417.915000	1106.390625	111.732788
11818.443085	1417.915000	1105.250000	117.225174
11818.443085	1417.915000	1104.109375	85.835449
11818.443085	1417.915000	1102.968750	85.694206
11818.443085	1417.915000	1101.828125	386.882233
11818.443085	1417.915000	1100.686523	305.576324
11818.443085	1417.915000	1099.544922	304.029755
11818.443085	1417.915000	1098.403320	266.991302
11818.443085	1417.915000	1097.261719	386.127747
11818.443085	1417.915000	1096.120117	381.028687
11818.443085	1417.915000	1094.977539	201.332626
11818.443085	1417.915000	1093.834961	116.101738
11818.443085	1417.915000	1092.691406	402.619904
11818.443085	1417.915000	1091.548828	143.710327
11818.443085	1417.915000	1090.405273	232.263199
11818.443085	1417.915000	1089.261719	461.564606
11818.443085	1417.915000	1088.118164	342.903473
11818.443085	1417.915000	1086.973633	349.900299
11818.443085	1417.915000	1085.829102	427.969299
11818.443085	1417.915000	1084.684570	333.890656
11818.443085	1417.915000	1083.540039	122.498230
11818.443085	1417.915000	1082.395508	131.517471
11818.443085	1417.915000	1081.250000	53.575527
11818.443085	1417.915000	1080.104492	-106.164040
11818.443085	1417.915000	1078.958984	-64.893700
11818.443085	1417.915000	1077.812500	142.633652
11818.443085	1417.915000	1076.666016	-186.894775
11818.443085	1417.915000	1075.519531	-68.975136
11818.443085	1417.915000	1074.373047	98.919861
11818.443085	1417.915000	1073.226563	130.244278
11818.443085	1417.915000	1072.079102	105.813309
11818.443085	1417.915000	1070.931641	-162.265564
11818.443085	1417.915000	1069.784180	243.098450
11818.443085	1417.915000	1068.635742	256.370789
11818.443085	1417.915000	1067.487305	15.081031
11818.443085	1417.915000	1066.338867	124.649071
11818.443085	1417.915000	1065.190430	412.554443
11818.443085	1417.915000	1064.041992	54.594006
11818.443085	1417.915000	1062.892578	175.919510
11818.443085	1417.915000	1061.743164	252.175079
11818.443085	1417.915000	1060.593750	248.741638
11818.443085	1417.915000	1059.443359	423.215057
11818.443085	1417.915000	1058.292969	91.835388
11818.443085	1417.915000	1057.142578	146.630051
11818.443085	1417.915000	1055.992188	216.272949
11818.443085	1417.915000	1054.841797	16.688005
11818.443085	1417.915000	1053.690430	28.512850
11818.443085	1417.915000	1052.539063	82.398018
11818.443085	1417.915000	1051.387695	158.921738
11818.443085	1417.915000	1050.235352	106.705872
11818.443085	1417.915000	1049.083984	-179.842606
11818.443085	1417.915000	1047.931641	162.303070
11818.443085	1417.915000	1046.778320	58.140923
11818.443085	1417.915000	1045.625977	-36.896332
11818.443085	1417.915000	1044.472656	49.006817
11818.443085	1417.915000	1043.319336	84.034630
11818.443085	1417.915000	1042.166016	234.878677
11818.443085	1417.915000	1041.012695	295.490295
11818.443085	1417.915000	1039.858398	372.487030
11818.443085	1417.915000	1038.704102	180.963516
11818.443085	1417.915000	1037.549805	232.189484
11818.443085	1417.915000	1036.394531	297.559662
11818.443085	1417.915000	1035.239258	134.359299
11818.443085	1417.915000	1034.083984	213.129654
11818.443085	1417.915000	1032.928711	191.464706
11818.443085	1417.915000	1031.773438	121.417427
11818.443085	1417.915000	1030.617188	105.282646
11818.443085	1417.915000	1029.460938	66.632103
11818.443085	1417.915000	1028.304688	-14.989998
11818.443085	1417.915000	1027.147461	208.958115
11818.443085	1417.915000	1025.991211	165.336975
11818.443085	1417.915000	1024.833984	-0.797520
11818.443085	1417.915000	1023.675781	-8.108332
11818.443085	1417.915000	1022.518555	13.918738
11818.443085	1417.915000	1021.360352	193.947678
11818.443085	1417.915000	1020.202148	10.521432
11818.443085	1417.915000	1019.043945	-81.197609
11818.443085	1417.915000	1017.884766	-79.160233
11818.443085	1417.915000	1016.726563	51.843632
11818.443085	1417.915000	1015.567383	-128.330139
11818.443085	1417.915000	1014.407227	-40.717506
11818.443085	1417.915000	1013.248047	-167.544586
11818.443085	1417.915000	1012.087891	152.460205
11818.443085	1417.915000	1010.927734	231.220139
11818.443085	1417.915000	1009.767578	250.861557
11818.443085	1417.915000	1008.606445	-2.065747
11818.443085	1417.915000	1007.446289	-74.113518
11818.443085	1417.915000	1006.285156	-88.896393
11818.443085	1417.915000	1005.123047	118.951073
11818.443085	1417.915000	1003.961914	-60.438953
11818.443085	1417.915000	1002.799805	97.175049
11818.443085	1417.915000	1001.637695	213.449219
11818.443085	1417.915000	1000.475586	199.959137
11818.443085	1417.915000	999.312500	143.434906
11818.443085	1417.915000	998.149414	104.958618
11818.443085	1417.915000	996.986328	112.580467
11818.443085	1417.915000	995.823242	201.931717
11818.443085	1417.915000	994.659180	187.391708
11818.443085	1417.915000	993.496094	73.926544
11818.443085	1417.915000	992.332031	20.491730
11818.443085	1417.915000	991.166992	248.184235
11818.443085	1417.915000	990.002930	-19.381149
11818.443085	1417.915000	988.837891	11.218630
11818.443085	1417.915000	987.672852	139.630569
11818.443085	1417.915000	986.506836	142.455399
11818.443085	1417.915000	985.341797	31.822950
11818.443085	1417.915000	984.175781	-64.761070
11818.443085	1417.915000	983.009766	177.609299
11818.443085	1417.915000	981.843750	153.064407
11818.443085	1417.915000	980.676758	74.574860
11818.443085	1417.915000	979.509766	-116.976631
11818.443085	1417.915000	978.342773	145.680862
11818.443085	1417.915000	977.175781	-52.598675
11818.443085	1417.915000	976.007813	-158.339905
11818.443085	1417.915000	974.839844	177.941620
11818.443085	1417.915000	973.671875	-194.667725
11818.443085	1417.915000	972.503906	167.395996
11818.443085	1417.915000	971.334961	150.712479
11818.443085	1417.915000	970.166016	97.609093
11818.443085	1417.915000	968.997070	208.232788
11818.443085	1417.915000	967.828125	122.905296
11818.443085	1417.915000	966.658203	157.276489
11818.443085	1417.915000	965.488281	-64.415947
11818.443085	1417.915000	964.318359	134.859711
11818.443085	1417.915000	963.148438	196.242584
11818.443085	1417.915000	961.977539	146.960510
11818.443085	1417.915000	960.806641	333.492554
11818.443085	1417.915000	959.635742	-26.185247
11818.443085	1417.915000	958.463867	282.184143
11818.443085	1417.915000	957.292969	171.709122
11818.443085	1417.915000	956.121094	171.908127
11818.443085	1417.915000	954.948242	5.198493
11818.443085	1417.915000	953.776367	-117.166649
11818.443085	1417.915000	952.603516	128.341690
11818.443085	1417.915000	951.430664	9.693075
11818.443085	1417.915000	950.257813	160.327438
11818.443085	1417.915000	949.084961	-106.235252
11818.443085	1417.915000	947.911133	197.106461
11818.443085	1417.915000	946.737305	67.426796
11818.443085	1417.915000	945.563477	79.627563
11818.443085	1417.915000	944.388672	16.917540
11818.443085	1417.915000	943.213867	-213.040115
11818.443085	1417.915000	942.039063	-104.991028
11818.443085	1417.915000	940.864258	4.242969
11818.443085	1417.915000	939.688477	72.944748
11818.443085	1417.915000	938.513672	-89.834869
11818.443085	1417.915000	937.337891	-61.559937
11818.443085	1417.915000	936.161133	-138.810181
11818.443085	1417.915000	934.985352	-76.903740
11818.443085	1417.915000	933.808594	142.367020
11818.443085	1417.915000	932.631836	313.973145
11818.443085	1417.915000	931.454102	26.582029
11818.443085	1417.915000	930.277344	-36.173061
11818.443085	1417.915000	929.099609	13.334214
11818.443085	1417.915000	927.921875	117.799606
11818.443085	1417.915000	926.743164	167.243927
11818.443085	1417.915000	925.565430	226.236176
11818.443085	1417.915000	924.386719	-46.681522
11818.443085	1417.915000	923.208008	-52.186352
11818.443085	1417.915000	922.028320	73.549011
11818.443085	1417.915000	920.849609	-99.048820
11818.443085	1417.915000	919.669922	-94.644958
11818.443085	1417.915000	919.474609	-146.818542
11818.443085	1417.915000	918.309570	38.362740
11818.443085	1417.915000	917.143555	-124.711609
11818.443085	1417.915000	915.977539	55.571365
11818.443085	1417.915000	914.810547	-112.257088
11818.443085	1417.915000	913.644531	-129.905853
11818.443085	1417.915000	912.477539	-11.757154
11818.443085	1417.915000	911.310547	-43.760464
11818.443085	1417.915000	910.143555	0.439069
11818.443085	1417.915000	908.975586	-88.750481
11818.443085	1417.915000	907.807617	62.529087
11818.443085	1417.915000	906.639648	18.539829
11818.443085	1417.915000	905.471680	36.419785
11818.443085	1417.915000	904.303711	-69.454750
11818.443085	1417.915000	903.134766	-34.956085
11818.443085	1417.915000	901.965820	223.068970
11818.443085	1417.915000	900.796875	-130.139999
11818.443085	1417.915000	899.626953	177.682297
11818.443085	1417.915000	898.457031	-47.063812
11818.443085	1417.915000	897.287109	-10.336050
11818.443085	1417.915000	896.117188	4.971354
11818.443085	1417.915000	894.947266	34.504192
11818.443085	1417.915000	893.776367	45.008118
11818.443085	1417.915000	892.605469	-1.500277
11818.443085	1417.915000	891.434570	96.802521
11818.443085	1417.915000	890.262695	119.096657
11818.443085	1417.915000	889.091797	34.573383
11818.443085	1417.915000	887.919922	-90.264709
11818.443085	1417.915000	886.748047	-56.144138
11818.443085	1417.915000	885.575195	177.155197
11818.443085	1417.915000	884.403320	-89.956612
11818.443085	1417.915000	883.230469	-20.353086
11818.443085	1417.915000	882.057617	148.748077
11818.443085	1417.915000	880.883789	-44.786644
11818.443085	1417.915000	879.710938	102.891457
11818.443085	1417.915000	878.537109	-168.756363
11818.443085	1417.915000	877.362305	42.797375
11818.443085	1417.915000	876.188477	-119.848564
11818.443085	1417.915000	875.013672	179.158569
11818.443085	1417.915000	873.839844	-16.617571
11818.443085	1417.915000	872.664063	26.662951
11818.443085	1417.915000	871.489258	181.096054
11818.443085	1417.915000	870.313477	-128.137527
11818.443085	1417.915000	869.138672	201.222229
11818.443085	1417.915000	867.962891	71.763214
11818.443085	1417.915000	866.786133	-95.477386
11818.443085	1417.915000	865.610352	106.008560
11818.443085	1417.915000	864.433594	139.636948
11818.443085	1417.915000	863.256836	50.393360
11818.443085	1417.915000	862.079102	-29.379511
11818.443085	1417.915000	860.902344	-142.196884
11818.443085	1417.915000	859.724609	-42.501411
11818.443085	1417.915000	858.546875	85.462044
11818.443085	1417.915000	857.368164	76.484337
11818.443085	1417.915000	856.190430	-133.061005
11818.443085	1417.915000	855.011719	-222.227112
11818.443085	1417.915000	853.833008	-155.711960
11818.443085	1417.915000	852.654297	40.448326
11818.443085	1417.915000	851.474609	92.708595
11818.443085	1417.915000	850.294922	27.079847
11818.443085	1417.915000	849.115234	15.662684
11818.443085	1417.915000	847.935547	-139.485275
11818.443085	1417.915000	846.754883	23.419802
11818.443085	1417.915000	845.575195	252.182266
11818.443085	1417.915000	844.393555	78.202431
11818.443085	1417.915000	843.212891	-50.995266
11818.443085	1417.915000	842.032227	-168.387772
11818.443085	1417.915000	840.850586	-95.140579
11818.443085	1417.915000	839.668945	32.171436
11818.443085	1417.915000	838.486328	72.386650
11818.443085	1417.915000	837.304688	107.864235
11818.443085	1417.915000	836.122070	119.800491
11818.443085	1417.915000	834.939453	183.431122
11818.443085	1417.915000	833.756836	77.801926
11818.443085	1417.915000	832.573242	-98.290833
11818.443085	1417.915000	831.389648	-309.566528
11818.443085	1417.915000	830.206055	-255.359253
11818.443085	1417.915000	829.022461	0.763457
11818.443085	1417.915000	827.838867	-1.497353
11818.443085	1417.915000	826.654297	71.342949
11818.443085	1417.915000	825.469727	-69.428139
11818.443085	1417.915000	824.284180	-172.615097
11818.443085	1417.915000	823.099609	90.178581
11818.443085	1417.915000	821.914063	1.038434
11818.443085	1417.915000	820.728516	247.240250
11818.443085	1417.915000	819.542969	139.311172
11818.443085	1417.915000	818.356445	29.066748
11818.443085	1417.915000	817.169922	-55.373478
11818.443085	1417.915000	815.983398	-43.735306
11818.443085	1417.915000	814.796875	47.524006
11818.443085	1417.915000	813.609375	84.861488
11818.443085	1417.915000	812.422852	152.600601
11818.443085	1417.915000	811.235352	189.860733
11818.443085	1417.915000	810.046875	-222.301819
11818.443085	1417.915000	808.859375	-25.895536
11818.443085	1417.915000	807.670898	1.959566
11818.443085	1417.915000	806.482422	249.659485
11818.443085	1417.915000	805.293945	-54.683754
11818.443085	1417.915000	804.104492	223.279251
11818.443085	1417.915000	802.915039	152.793167
11818.443085	1417.915000	801.725586	-53.243889
11818.443085	1417.915000	800.536133	63.245899
11818.443085	1417.915000	799.345703	107.242691
11818.443085	1417.915000	798.155273	-159.454102
11818.443085	1417.915000	796.964844	-96.794067
11818.443085	1417.915000	795.774414	12.509573
11818.443085	1417.915000	794.583008	30.709333
11818.443085	1417.915000	793.392578	202.904541
11818.443085	1417.915000	792.200195	13.342650
11818.443085	1417.915000	791.008789	283.399475
11818.443085	1417.915000	789.816406	14.547091
11818.443085	1417.915000	788.625000	83.897652
11818.443085	1417.915000	787.432617	183.503189
11818.443085	1417.915000	786.239258	14.987274
11818.443085	1417.915000	785.046875	177.429947
11818.443085	1417.915000	783.853516	190.663376
11818.443085	1417.915000	782.660156	227.156082
11818.443085	1417.915000	781.465820	26.051874
11818.443085	1417.915000	780.272461	132.359680
11818.443085	1417.915000	779.078125	178.065750
11818.443085	1417.915000	777.883789	-78.854485
11818.443085	1417.915000	776.688477	271.657684
11818.443085	1417.915000	775.494141	49.659260
11818.443085	1417.915000	774.298828	160.350082
11818.443085	1417.915000	773.103516	147.705688
11818.443085	1417.915000	771.907227	25.755375
11818.443085	1417.915000	770.711914	254.838516
11818.443085	1417.915000	769.515625	-13.571788
11818.443085	1417.915000	768.318359	-42.567909
11818.443085	1417.915000	767.122070	-252.796646
11818.443085	1417.915000	765.924805	-33.274342
11818.443085	1417.915000	764.727539	309.196350
11818.443085	1417.915000	763.530273	6.049528
11818.443085	1417.915000	762.333008	176.523926
11818.443085	1417.915000	761.134766	-36.033100
11818.443085	1417.915000	759.936523	104.140373
11818.443085	1417.915000	758.738281	100.389549
11818.443085	1417.915000	757.540039	-65.750954
11818.443085	1417.915000	756.340820	78.861023
11818.443085	1417.915000	755.141602	93.545128
11818.443085	1417.915000	753.942383	-54.067337
11818.443085	1417.915000	752.742188	412.444000
11818.443085	1417.915000	751.541992	125.728928
11818.443085	1417.915000	750.341797	133.275223
11818.443085	1417.915000	749.141602	108.350906
11818.443085	1417.915000	747.941406	115.809944
11818.443085	1417.915000	746.740234	516.763916
11818.443085	1417.915000	745.539063	480.069824
11818.443085	1417.915000	744.337891	128.643143
11818.443085	1417.915000	743.135742	47.997711
11818.443085	1417.915000	741.933594	106.120514
11818.443085	1417.915000	740.731445	150.296188
11818.443085	1417.915000	739.529297	94.986084
11818.443085	1417.915000	738.326172	136.738068
11818.443085	1417.915000	737.124023	379.488037
11818.443085	1417.915000	735.919922	289.359894
11818.443085	1417.915000	734.716797	226.939636
11818.443085	1417.915000	733.513672	192.210556
11818.443085	1417.915000	732.309570	427.617798
11818.443085	1417.915000	731.105469	452.783447
11818.443085	1417.915000	729.900391	417.873230
11818.443085	1417.915000	728.696289	292.923279
11818.443085	1417.915000	727.491211	361.780121
11818.443085	1417.915000	726.286133	532.050476
11818.443085	1417.915000	725.080078	335.498505
11818.443085	1417.915000	723.874023	254.262222
11818.443085	1417.915000	722.668945	179.920273
11818.443085	1417.915000	721.461914	333.729889
11818.443085	1417.915000	720.255859	224.722870
11818.443085	1417.915000	719.048828	270.062592
11818.443085	1417.915000	717.841797	75.775002
11818.443085	1417.915000	716.634766	54.225842
11818.443085	1417.915000	715.427734	9.603107
11818.443085	1417.915000	714.219727	-191.592072
11818.443085	1417.915000	713.011719	168.789490
11818.443085	1417.915000	711.803711	15.845022
11818.443085	1417.915000	710.594727	-160.102234
11818.443085	1417.915000	709.385742	-39.337479
11818.443085	1417.915000	708.176758	-169.333801
11818.443085	1417.915000	706.967773	-94.723488
11818.443085	1417.915000	705.758789	55.644417
11818.443085	1417.915000	704.548828	-138.825012
11818.443085	1417.915000	703.338867	-225.290710
11818.443085	1417.915000	702.127930	-88.966835
11818.443085	1417.915000	700.917969	-72.188057
11818.443085	1417.915000	699.707031	-275.911591
11818.443085	1417.915000	698.496094	-9.007111
11818.443085	1417.915000	697.285156	177.389297
11818.443085	1417.915000	696.073242	65.327934
11818.443085	1417.915000	694.861328	1.426622
11818.443085	1417.915000	693.649414	-172.615753
11818.443085	1417.915000	692.436523	-137.967789
11818.443085	1417.915000	691.224609	125.874657
11818.443085	1417.915000	690.011719	-9.320828
11818.443085	1417.915000	688.798828	169.448685
11818.443085	1417.915000	687.584961	137.270309
11818.443085	1417.915000	686.372070	-32.412899
11818.443085	1417.915000	685.158203	13.197540
11818.443085	1417.915000	683.943359	26.657856
11818.443085	1417.915000	682.729492	28.597029
11818.443085	1417.915000	681.514648	94.552505
11818.443085	1417.915000	680.299805	203.888992
11818.443085	1417.915000	679.084961	36.266468
11818.443085	1417.915000	677.869141	-14.698045
11818.443085	1417.915000	676.653320	236.168976
11818.443085	1417.915000	675.437500	201.045120
11818.443085	1417.915000	674.221680	195.581589
11818.443085	1417.915000	673.004883	190.046646
11818.443085	1417.915000	671.789063	216.434647
11818.443085	1417.915000	670.571289	368.385376
11818.443085	1417.915000	669.354492	223.268631
11818.443085	1417.915000	668.136719	18.764353
11818.443085	1417.915000	666.919922	85.968018
11818.443085	1417.915000	665.701172	150.783417
11818.443085	1417.915000	664.483398	-1.306571
11818.443085	1417.915000	663.264648	29.127592
11818.443085	1417.915000	662.045898	61.756386
11818.443085	1417.915000	660.827148	41.840595
11818.443085	1417.915000	659.608398	213.400772
11818.443085	1417.915000	658.388672	220.670517
11818.443085	1417.915000	657.168945	195.952408
11818.443085	1417.915000	655.949219	189.402832
11818.443085	1417.915000	654.728516	417.445648
11818.443085	1417.915000	653.507813	221.641556
11818.443085	1417.915000	652.287109	203.480927
11818.443085	1417.915000	651.066406	180.701248
11818.443085	1417.915000	649.844727	287.610046
11818.443085	1417.915000	648.623047	137.222427
11818.443085	1417.915000	647.401367	52.813969
11818.443085	1417.915000	646.179688	-86.230263
11818.443085	1417.915000	644.957031	288.738892
11818.443085	1417.915000	643.734375	85.885262
11818.443085	1417.915000	642.511719	-114.681473
11818.443085	1417.915000	641.289063	168.920898
11818.443085	1417.915000	640.065430	218.256424
11818.443085	1417.915000	638.841797	224.331039
11818.443085	1417.915000	637.618164	141.740860
11818.443085	1417.915000	636.393555	247.614304
11818.443085	1417.915000	635.168945	294.336426
11818.443085	1417.915000	633.944336	59.473141
11818.443085	1417.915000	632.719727	112.887238
11818.443085	1417.915000	631.494141	23.249037
11818.443085	1417.915000	630.269531	26.601286
11818.443085	1417.915000	629.042969	134.214508
11818.443085	1417.915000	627.817383	60.300781
11818.443085	1417.915000	626.590820	233.479340
11818.443085	1417.915000	625.365234	166.245575
11818.443085	1417.915000	624.137695	112.563843
11818.443085	1417.915000	622.911133	376.059021
11818.443085	1417.915000	621.683594	306.371490
11818.443085	1417.915000	620.456055	318.184113
11818.443085	1417.915000	619.228516	228.033707
11818.443085	1417.915000	618.000977	314.443542
11818.443085	1417.915000	616.772461	305.688110
11818.443085	1417.915000	615.543945	38.902611
11818.443085	1417.915000	614.314453	272.167175
11818.443085	1417.915000	613.085938	358.251831
11818.443085	1417.915000	611.856445	242.964371
11818.443085	1417.915000	610.626953	340.204956
11818.443085	1417.915000	609.397461	290.412994
11818.443085	1417.915000	608.166992	430.427277
11818.443085	1417.915000	606.936523	75.483147
11818.443085	1417.915000	605.706055	244.744659
11818.443085	1417.915000	604.474609	276.102325
11818.443085	1417.915000	603.244141	88.362160
11818.443085	1417.915000	602.012695	-171.597198
11818.443085	1417.915000	600.780273	367.535797
11818.443085	1417.915000	599.548828	193.285156
11818.443085	1417.915000	598.316406	219.857544
11818.443085	1417.915000	597.083984	165.168427
11818.443085	1417.915000	595.851563	205.176971
11818.443085	1417.915000	594.618164	136.891769
11818.443085	1417.915000	593.384766	23.508730
11818.443085	1417.915000	592.151367	-6.477752
11818.443085	1417.915000	590.917969	-38.744160
11818.443085	1417.915000	589.683594	-71.039749
11818.443085	1417.915000	588.449219	200.709503
11818.443085	1417.915000	587.214844	-178.487274
11818.443085	1417.915000	585.979492	0.785694
11818.443085	1417.915000	584.745117	67.407875
11818.443085	1417.915000	583.509766	-52.822735
11818.443085	1417.915000	582.273438	-220.287643
11818.443085	1417.915000	581.038086	-299.974335
11818.443085	1417.915000	579.801758	-172.752914
11818.443085	1417.915000	578.565430	-113.066574
11818.443085	1417.915000	577.329102	-17.462679
11818.443085	1417.915000	576.091797	-162.419052
11818.443085	1417.915000	574.854492	7.256929
11818.443085	1417.915000	573.617188	-133.192017
11818.443085	1417.915000	572.378906	-44.500546
11818.443085	1417.915000	571.141602	93.545380
11818.443085	1417.915000	569.903320	-28.929317
11818.443085	1417.915000	568.664063	-52.604763
11818.443085	1417.915000	567.425781	29.198986
11818.443085	1417.915000	566.186523	101.976952
11818.443085	1417.915000	564.947266	84.982506
11818.443085	1417.915000	563.708008	54.530697
11818.443085	1417.915000	562.467773	-23.008593
11818.443085	1417.915000	561.227539	13.812373
11818.443085	1417.915000	559.987305	-52.487228
11818.443085	1417.915000	558.747070	-150.133347
11818.443085	1417.915000	557.505859	153.284958
11818.443085	1417.915000	556.264648	1.874606
11818.443085	1417.915000	555.023438	-10.624503
11818.443085	1417.915000	553.781250	-74.614906
11818.443085	1417.915000	552.539063	47.220299
11818.443085	1417.915000	551.296875	193.628799
11818.443085	1417.915000	550.054688	243.771378
11818.443085	1417.915000	548.811523	184.283646
11818.443085	1417.915000	547.569336	149.441177
11818.443085	1417.915000	546.325195	-108.991058
11818.443085	1417.915000	545.082031	19.466366
11818.443085	1417.915000	543.837891	-62.220631
11818.443085	1417.915000	542.593750	113.128967
11818.443085	1417.915000	541.349609	241.506943
11818.443085	1417.915000	540.105469	23.632616
11818.443085	1417.915000	538.860352	67.152367
11818.443085	1417.915000	537.615234	43.697289
11818.443085	1417.915000	536.369141	118.492889
11818.443085	1417.915000	535.124023	206.679520
11818.443085	1417.915000	533.877930	2.554375
11818.443085	1417.915000	532.631836	39.473938
11818.443085	1417.915000	531.384766	-10.577459
11818.443085	1417.915000	530.138672	-69.488098
11818.443085	1417.915000	528.891602	14.337176
11818.443085	1417.915000	527.643555	-51.179325
11818.443085	1417.915000	526.396484	-63.141979
11818.443085	1417.915000	525.148438	31.874544
11818.443085	1417.915000	523.900391	244.946060
11818.443085	1417.915000	522.652344	199.638199
11818.443085	1417.915000	521.403320	-90.527618
11818.443085	1417.915000	520.154297	202.693161
11818.443085	1417.915000	518.905273	-96.163254
11818.443085	1417.915000	517.656250	-16.582207
11818.443085	1417.915000	516.406250	85.251671
11818.443085	1417.915000	515.156250	-57.562943
11818.443085	1417.915000	513.906250	-66.849411
11818.443085	1417.915000	512.655273	-169.459412
11818.443085	1417.915000	511.404297	-140.836533
11818.443085	1417.915000	510.153320	92.267944
11818.443085	1417.915000	508.902344	34.278446
11818.443085	1417.915000	507.650391	293.999481
11818.443085	1417.915000	506.398438	76.195999
11818.443085	1417.915000	505.146484	173.820557
11818.443085	1417.915000	503.893555	138.264481
11818.443085	1417.915000	502.641602	5.129838
11818.443085	1417.915000	501.388672	78.457634
11818.443085	1417.915000	500.134766	83.033249
11818.443085	1417.915000	498.881836	293.931854
11818.443085	1417.915000	497.627930	36.911251
11818.443085	1417.915000	496.374023	-38.154251
11818.443085	1417.915000	495.119141	-33.345306
11818.443085	1417.915000	493.865234	26.920326
11818.443085	1417.915000	492.610352	266.666046
11818.443085	1417.915000	491.355469	30.125923
11818.443085	1417.915000	490.099609	1.905563
11818.443085	1417.915000	488.843750	135.376404
11818.443085	1417.915000	487.587891	-45.491806
11818.443085	1417.915000	486.332031	389.017639
11818.443085	1417.915000	485.075195	245.881134
11818.443085	1417.915000	483.818359	240.007523
11818.443085	1417.915000	482.561523	322.650238
11818.443085	1417.915000	481.304688	221.769562
11818.443085	1417.915000	480.046875	397.314178
11818.443085	1417.915000	478.789063	515.356262
11818.443085	1417.915000	477.531250	308.545105
11818.443085	1417.915000	476.272461	320.578033
11818.443085	1417.915000	475.013672	449.709320
11818.443085	1417.915000	473.754883	424.229340
11818.443085	1417.915000	472.496094	434.115875
11818.443085	1417.915000	471.236328	371.175079
11818.443085	1417.915000	469.976563	542.219910
11818.443085	1417.915000	468.716797	384.446289
11818.443085	1417.915000	467.456055	564.270264
11818.443085	1417.915000	466.196289	609.495850
11818.443085	1417.915000	464.935547	312.926788
11818.443085	1417.915000	463.673828	494.876434
11818.443085	1417.915000	462.413086	689.975342
11818.443085	1417.915000	461.151367	567.662354
11818.443085	1417.915000	459.889648	681.128540
11818.443085	1417.915000	458.626953	666.774841
11818.443085	1417.915000	457.364258	760.315186
11818.443085	1417.915000	456.101563	930.849731
11818.443085	1417.915000	454.838867	766.694092
11818.443085	1417.915000	453.575195	639.981445
11818.443085	1417.915000	452.312500	929.138367
11818.443085	1417.915000	451.047852	784.753174
11818.443085	1417.915000	449.784180	829.520447
11818.443085	1417.915000	448.519531	1058.906250
11818.443085	1417.915000	447.254883	868.233093
11818.443085	1417.915000	445.990234	1079.779541
11818.443085	1417.915000	444.725586	957.141418
11818.443085	1417.915000	443.459961	1183.773193
11818.443085	1417.915000	442.194336	1274.023682
11818.443085	1417.915000	440.927734	1133.540283
11818.443085	1417.915000	439.662109	1186.206543
11818.443085	1417.915000	438.395508	1256.276367
11818.443085	1417.915000	437.127930	1122.076294
11818.443085	1417.915000	435.861328	1161.121582
11818.443085	1417.915000	434.593750	1022.301880
11818.443085	1417.915000	433.326172	1076.366577
11818.443085	1417.915000	432.058594	1149.958618
11818.443085	1417.915000	430.790039	1140.015259
11818.443085	1417.915000	429.521484	1261.372192
11818.443085	1417.915000	428.252930	1215.921021
11818.443085	1417.915000	426.984375	1143.966309
11818.443085	1417.915000	425.714844	1139.690063
11818.443085	1417.915000	424.445313	1314.720825
11818.443085	1417.915000	423.174805	1141.286865
11818.443085	1417.915000	421.905273	1204.042358
11818.443085	1417.915000	420.634766	1620.980835
11818.443085	1417.915000	419.364258	1317.588013
11818.443085	1417.915000	418.092773	1401.162109
11818.443085	1417.915000	416.822266	1289.711182
11818.443085	1417.915000	415.550781	1280.693970
11818.443085	1417.915000	414.278320	1555.467896
11818.443085	1417.915000	413.006836	1567.455566
11818.443085	1417.915000	411.734375	1450.081909
11818.443085	1417.915000	410.461914	1430.620850
11818.443085	1417.915000	409.188477	1465.294312
11818.443085	1417.915000	407.916016	1375.006714
11818.443085	1417.915000	406.642578	1471.993286
11818.443085	1417.915000	405.368164	1474.540161
11818.443085	1417.915000	404.094727	1544.192017
11818.443085	1417.915000	402.820313	1307.779297
11818.443085	1417.915000	401.545898	1537.666504
11818.443085	1417.915000	400.270508	1585.807373
11818.443085	1417.915000	398.996094	1554.799438
11818.443085	1417.915000	397.720703	1392.323608
11818.443085	1417.915000	396.444336	1416.630615
11818.443085	1417.915000	395.168945	1418.421509
11818.443085	1417.915000	393.892578	1373.694092
11818.443085	1417.915000	392.616211	1299.885742
11818.443085	1417.915000	391.339844	1255.778931
11818.443085	1417.915000	390.062500	1147.696533
11818.443085	1417.915000	388.785156	1239.026367
11818.443085	1417.915000	387.507813	1094.392578
11818.443085	1417.915000	386.229492	1246.920166
11818.443085	1417.915000	384.951172	1215.695679
11818.443085	1417.915000	383.672852	1126.933716
11818.443085	1417.915000	382.394531	993.684021
11818.443085	1417.915000	381.115234	1031.114990
11818.443085	1417.915000	379.835938	1002.214966
11818.443085	1417.915000	378.556641	1169.896484
11818.443085	1417.915000	377.277344	1140.804565
11818.443085	1417.915000	375.997070	906.316895
11818.443085	1417.915000	374.716797	942.077271
11818.443085	1417.915000	373.435547	1022.067078
11818.443085	1417.915000	372.155273	983.492004
11818.443085	1417.915000	370.874023	867.555542
11818.443085	1417.915000	369.591797	964.968933
11818.443085	1417.915000	368.310547	748.545532
11818.443085	1417.915000	367.028320	933.991150
11818.443085	1417.915000	365.746094	996.358643
11818.443085	1417.915000	364.463867	857.647278
11818.443085	1417.915000	363.180664	955.656128
11818.443085	1417.915000	361.897461	919.721436
11818.443085	1417.915000	360.614258	791.036621
11818.443085	1417.915000	359.330078	688.676270
11818.443085	1417.915000	358.045898	658.082703
11818.443085	1417.915000	356.761719	792.232788
11818.443085	1417.915000	355.477539	859.385315
11818.443085	1417.915000	354.192383	679.885559
11818.443085	1417.915000	352.907227	680.053650
11818.443085	1417.915000	351.622070	708.312500
11818.443085	1417.915000	350.336914	684.572449
11818.443085	1417.915000	349.050781	820.619873
11818.443085	1417.915000	347.764648	480.867920
11818.443085	1417.915000	346.477539	575.276306
11818.443085	1417.915000	345.191406	323.664154
11818.443085	1417.915000	343.904297	456.165131
11818.443085	1417.915000	342.616211	698.183105
11818.443085	1417.915000	341.329102	516.407776
11818.443085	1417.915000	340.041016	515.325684
11818.443085	1417.915000	338.752930	435.829529
11818.443085	1417.915000	337.463867	349.024475
11818.443085	1417.915000	336.175781	54.361134
11818.443085	1417.915000	334.886719	323.857269
11818.443085	1417.915000	333.596680	426.084625
11818.443085	1417.915000	332.307617	320.264740
11818.443085	1417.915000	331.017578	116.208641
11818.443085	1417.915000	329.727539	130.737427
11818.443085	1417.915000	328.436523	141.626709
11818.443085	1417.915000	327.146484	174.814819
11818.443085	1417.915000	325.855469	331.225739
11818.443085	1417.915000	324.563477	65.970726
11818.443085	1417.915000	323.272461	395.407593
11818.443085	1417.915000	321.980469	-36.929405
11818.443085	1417.915000	320.688477	-38.578117
11818.443085	1417.915000	319.395508	35.037720
11818.443085	1417.915000	318.103516	-127.859634
11818.443085	1417.915000	316.810547	-146.864059
11818.443085	1417.915000	315.516602	-103.877182
11818.443085	1417.915000	314.223633	-198.690277
11818.443085	1417.915000	312.929688	-132.888397
11818.443085	1417.915000	311.635742	-61.251030
11818.443085	1417.915000	310.340820	82.552490
11818.443085	1417.915000	309.045898	-143.869827
11818.443085	1417.915000	307.750977	-21.193695
11818.443085	1417.915000	306.456055	289.248718
11818.443085	1417.915000	305.160156	78.904068
11818.443085	1417.915000	303.865234	165.699814
11818.443085	1417.915000	302.568359	338.640839
11818.443085	1417.915000	301.272461	242.012680
11818.443085	1417.915000	299.975586	550.910461
11818.443085	1417.915000	298.678711	309.051605
