#X		#Y		#Wave		#Intensity
12150.562234	-218.845000	1999.980469	14.444215
12150.562234	-218.845000	1999.016602	-14.370288
12150.562234	-218.845000	1998.052734	21.749737
12150.562234	-218.845000	1997.087891	-6.722319
12150.562234	-218.845000	1996.123047	-136.915283
12150.562234	-218.845000	1995.158203	-9.573848
12150.562234	-218.845000	1994.193359	65.570892
12150.562234	-218.845000	1993.228516	-50.121441
12150.562234	-218.845000	1992.262695	-123.808449
12150.562234	-218.845000	1991.297852	89.545113
12150.562234	-218.845000	1990.332031	94.806183
12150.562234	-218.845000	1989.366211	137.063141
12150.562234	-218.845000	1988.399414	-53.363922
12150.562234	-218.845000	1987.433594	-75.633423
12150.562234	-218.845000	1986.466797	52.855667
12150.562234	-218.845000	1985.500977	45.198132
12150.562234	-218.845000	1984.534180	-29.306368
12150.562234	-218.845000	1983.567383	39.478634
12150.562234	-218.845000	1982.599609	98.258881
12150.562234	-218.845000	1981.632813	109.980263
12150.562234	-218.845000	1980.665039	59.850555
12150.562234	-218.845000	1979.697266	140.557098
12150.562234	-218.845000	1978.729492	21.129288
12150.562234	-218.845000	1977.761719	-2.044202
12150.562234	-218.845000	1976.792969	-91.935303
12150.562234	-218.845000	1975.825195	-9.106313
12150.562234	-218.845000	1974.856445	-44.821568
12150.562234	-218.845000	1973.887695	82.236267
12150.562234	-218.845000	1972.918945	317.714325
12150.562234	-218.845000	1971.949219	123.922249
12150.562234	-218.845000	1970.980469	191.510010
12150.562234	-218.845000	1970.010742	83.977921
12150.562234	-218.845000	1969.041016	62.698017
12150.562234	-218.845000	1968.071289	196.626709
12150.562234	-218.845000	1967.101563	-44.060909
12150.562234	-218.845000	1966.130859	153.784912
12150.562234	-218.845000	1965.161133	16.542980
12150.562234	-218.845000	1964.190430	-96.069618
12150.562234	-218.845000	1963.219727	99.075974
12150.562234	-218.845000	1962.249023	79.946556
12150.562234	-218.845000	1961.277344	23.865217
12150.562234	-218.845000	1960.306641	-42.075211
12150.562234	-218.845000	1959.334961	-21.920048
12150.562234	-218.845000	1958.363281	268.770050
12150.562234	-218.845000	1957.391602	-53.054977
12150.562234	-218.845000	1956.419922	217.796936
12150.562234	-218.845000	1955.447266	-32.668034
12150.562234	-218.845000	1954.474609	61.047989
12150.562234	-218.845000	1953.501953	-164.775177
12150.562234	-218.845000	1952.529297	-58.837269
12150.562234	-218.845000	1951.556641	-127.381989
12150.562234	-218.845000	1950.583984	236.355682
12150.562234	-218.845000	1949.610352	-16.438828
12150.562234	-218.845000	1948.636719	-55.554867
12150.562234	-218.845000	1947.663086	-72.583992
12150.562234	-218.845000	1946.689453	6.094122
12150.562234	-218.845000	1945.715820	20.925911
12150.562234	-218.845000	1944.741211	79.896317
12150.562234	-218.845000	1943.767578	55.431252
12150.562234	-218.845000	1942.792969	33.412491
12150.562234	-218.845000	1941.818359	-37.650650
12150.562234	-218.845000	1940.842773	6.523426
12150.562234	-218.845000	1939.868164	129.106674
12150.562234	-218.845000	1938.892578	9.018719
12150.562234	-218.845000	1937.916992	-91.433395
12150.562234	-218.845000	1936.941406	18.822399
12150.562234	-218.845000	1935.965820	-13.030530
12150.562234	-218.845000	1934.990234	8.996803
12150.562234	-218.845000	1934.013672	48.146626
12150.562234	-218.845000	1933.037109	-40.016323
12150.562234	-218.845000	1932.060547	55.408947
12150.562234	-218.845000	1931.083984	57.806805
12150.562234	-218.845000	1930.107422	-0.963816
12150.562234	-218.845000	1929.129883	-157.560287
12150.562234	-218.845000	1928.153320	-1.058946
12150.562234	-218.845000	1927.175781	-35.344452
12150.562234	-218.845000	1926.198242	-18.279987
12150.562234	-218.845000	1925.219727	-123.438087
12150.562234	-218.845000	1924.242188	133.127243
12150.562234	-218.845000	1923.263672	84.173828
12150.562234	-218.845000	1922.285156	135.397934
12150.562234	-218.845000	1921.306641	103.558609
12150.562234	-218.845000	1920.328125	64.405144
12150.562234	-218.845000	1919.349609	-23.565170
12150.562234	-218.845000	1918.370117	-77.328384
12150.562234	-218.845000	1917.391602	93.466599
12150.562234	-218.845000	1916.412109	-143.310287
12150.562234	-218.845000	1915.431641	103.064713
12150.562234	-218.845000	1914.452148	56.636951
12150.562234	-218.845000	1913.472656	78.514252
12150.562234	-218.845000	1912.492188	36.986061
12150.562234	-218.845000	1911.511719	-87.414711
12150.562234	-218.845000	1910.531250	53.912529
12150.562234	-218.845000	1909.550781	-158.173828
12150.562234	-218.845000	1908.569336	238.949585
12150.562234	-218.845000	1907.588867	78.066208
12150.562234	-218.845000	1906.607422	39.023331
12150.562234	-218.845000	1905.625977	17.042212
12150.562234	-218.845000	1904.644531	-102.319641
12150.562234	-218.845000	1903.662109	-48.805176
12150.562234	-218.845000	1902.680664	-99.963066
12150.562234	-218.845000	1901.698242	2.198420
12150.562234	-218.845000	1900.715820	-53.817329
12150.562234	-218.845000	1899.733398	182.080322
12150.562234	-218.845000	1898.750000	67.683479
12150.562234	-218.845000	1897.767578	11.685585
12150.562234	-218.845000	1896.784180	62.673996
12150.562234	-218.845000	1895.800781	-92.960289
12150.562234	-218.845000	1894.817383	159.727783
12150.562234	-218.845000	1893.833984	1.700816
12150.562234	-218.845000	1892.850586	59.933121
12150.562234	-218.845000	1891.866211	28.275312
12150.562234	-218.845000	1890.881836	-27.657057
12150.562234	-218.845000	1889.897461	110.659111
12150.562234	-218.845000	1888.913086	95.991058
12150.562234	-218.845000	1887.927734	40.066280
12150.562234	-218.845000	1886.943359	27.835911
12150.562234	-218.845000	1885.958008	-83.863846
12150.562234	-218.845000	1884.972656	170.740707
12150.562234	-218.845000	1883.987305	173.028076
12150.562234	-218.845000	1883.001953	-23.517757
12150.562234	-218.845000	1882.015625	-52.723106
12150.562234	-218.845000	1881.029297	12.603683
12150.562234	-218.845000	1880.042969	-28.728252
12150.562234	-218.845000	1879.056641	-11.903930
12150.562234	-218.845000	1878.070313	128.451202
12150.562234	-218.845000	1877.083984	50.767345
12150.562234	-218.845000	1876.096680	-19.633446
12150.562234	-218.845000	1875.109375	45.562534
12150.562234	-218.845000	1874.122070	-15.147141
12150.562234	-218.845000	1873.134766	122.608131
12150.562234	-218.845000	1872.146484	20.748972
12150.562234	-218.845000	1871.159180	61.653351
12150.562234	-218.845000	1870.170898	78.341690
12150.562234	-218.845000	1869.182617	22.460728
12150.562234	-218.845000	1868.194336	208.377136
12150.562234	-218.845000	1867.205078	-45.765892
12150.562234	-218.845000	1866.216797	-147.556122
12150.562234	-218.845000	1865.227539	33.412483
12150.562234	-218.845000	1864.238281	-5.566830
12150.562234	-218.845000	1863.249023	-85.612755
12150.562234	-218.845000	1862.259766	-56.962158
12150.562234	-218.845000	1861.269531	-127.344025
12150.562234	-218.845000	1860.279297	-163.916214
12150.562234	-218.845000	1859.290039	-33.939087
12150.562234	-218.845000	1858.298828	168.370117
12150.562234	-218.845000	1857.308594	40.016632
12150.562234	-218.845000	1856.318359	37.139572
12150.562234	-218.845000	1855.327148	200.669983
12150.562234	-218.845000	1854.335938	132.610260
12150.562234	-218.845000	1853.344727	38.032104
12150.562234	-218.845000	1852.353516	121.854889
12150.562234	-218.845000	1851.362305	-25.753965
12150.562234	-218.845000	1850.370117	207.406982
12150.562234	-218.845000	1849.377930	153.751358
12150.562234	-218.845000	1848.385742	18.191669
12150.562234	-218.845000	1847.393555	56.061371
12150.562234	-218.845000	1846.401367	166.129425
12150.562234	-218.845000	1845.408203	112.420433
12150.562234	-218.845000	1844.415039	-27.947798
12150.562234	-218.845000	1843.421875	41.081806
12150.562234	-218.845000	1842.428711	54.717690
12150.562234	-218.845000	1841.435547	15.394844
12150.562234	-218.845000	1840.441406	43.402378
12150.562234	-218.845000	1839.448242	20.871374
12150.562234	-218.845000	1838.454102	-18.512028
12150.562234	-218.845000	1837.459961	156.032303
12150.562234	-218.845000	1836.464844	27.649818
12150.562234	-218.845000	1835.470703	45.865383
12150.562234	-218.845000	1834.475586	217.799500
12150.562234	-218.845000	1833.480469	173.453110
12150.562234	-218.845000	1832.485352	179.522980
12150.562234	-218.845000	1831.490234	41.489056
12150.562234	-218.845000	1830.495117	-2.900156
12150.562234	-218.845000	1829.499023	-47.309956
12150.562234	-218.845000	1828.502930	13.852592
12150.562234	-218.845000	1827.506836	82.154366
12150.562234	-218.845000	1826.510742	47.242332
12150.562234	-218.845000	1825.513672	81.859268
12150.562234	-218.845000	1824.517578	42.089401
12150.562234	-218.845000	1823.520508	59.835747
12150.562234	-218.845000	1822.523438	55.963928
12150.562234	-218.845000	1821.526367	13.707848
12150.562234	-218.845000	1820.529297	-86.079445
12150.562234	-218.845000	1819.531250	106.407135
12150.562234	-218.845000	1818.533203	11.347843
12150.562234	-218.845000	1817.535156	47.998074
12150.562234	-218.845000	1816.537109	142.058563
12150.562234	-218.845000	1815.539063	145.072815
12150.562234	-218.845000	1814.540039	4.434606
12150.562234	-218.845000	1813.541992	-112.261169
12150.562234	-218.845000	1812.542969	127.531273
12150.562234	-218.845000	1811.543945	94.490540
12150.562234	-218.845000	1810.543945	-29.467262
12150.562234	-218.845000	1809.544922	-143.855301
12150.562234	-218.845000	1808.544922	42.986183
12150.562234	-218.845000	1807.544922	-54.732784
12150.562234	-218.845000	1806.544922	-80.765503
12150.562234	-218.845000	1805.544922	155.997025
12150.562234	-218.845000	1804.544922	168.065155
12150.562234	-218.845000	1803.543945	141.861603
12150.562234	-218.845000	1802.542969	5.772427
12150.562234	-218.845000	1801.541992	46.366623
12150.562234	-218.845000	1800.541016	-22.909863
12150.562234	-218.845000	1799.539063	-68.344460
12150.562234	-218.845000	1798.538086	57.999939
12150.562234	-218.845000	1797.536133	91.199165
12150.562234	-218.845000	1796.534180	48.005817
12150.562234	-218.845000	1795.532227	238.495773
12150.562234	-218.845000	1794.529297	18.740778
12150.562234	-218.845000	1793.527344	180.455780
12150.562234	-218.845000	1792.524414	82.252327
12150.562234	-218.845000	1791.521484	-4.049335
12150.562234	-218.845000	1790.518555	12.081786
12150.562234	-218.845000	1789.514648	90.088333
12150.562234	-218.845000	1788.511719	72.748276
12150.562234	-218.845000	1787.507813	36.308449
12150.562234	-218.845000	1786.503906	14.114783
12150.562234	-218.845000	1785.500000	65.668030
12150.562234	-218.845000	1784.496094	-130.363068
12150.562234	-218.845000	1783.491211	147.136719
12150.562234	-218.845000	1782.486328	74.762581
12150.562234	-218.845000	1781.481445	-71.373367
12150.562234	-218.845000	1780.476563	60.730652
12150.562234	-218.845000	1779.471680	-166.295670
12150.562234	-218.845000	1778.465820	96.409798
12150.562234	-218.845000	1777.460938	187.838120
12150.562234	-218.845000	1776.455078	141.347397
12150.562234	-218.845000	1775.449219	-52.482357
12150.562234	-218.845000	1774.442383	-34.888840
12150.562234	-218.845000	1773.436523	163.142914
12150.562234	-218.845000	1772.429688	123.590752
12150.562234	-218.845000	1771.422852	-143.911377
12150.562234	-218.845000	1770.416016	-62.448544
12150.562234	-218.845000	1769.409180	149.448898
12150.562234	-218.845000	1768.402344	211.731049
12150.562234	-218.845000	1767.394531	24.843544
12150.562234	-218.845000	1766.386719	-81.388977
12150.562234	-218.845000	1765.378906	-16.901125
12150.562234	-218.845000	1764.371094	113.891029
12150.562234	-218.845000	1763.362305	145.013977
12150.562234	-218.845000	1762.354492	211.621628
12150.562234	-218.845000	1761.345703	190.471054
12150.562234	-218.845000	1760.336914	-48.684978
12150.562234	-218.845000	1759.328125	93.543175
12150.562234	-218.845000	1758.318359	219.078278
12150.562234	-218.845000	1757.308594	76.955482
12150.562234	-218.845000	1756.299805	114.747307
12150.562234	-218.845000	1755.290039	-60.551476
12150.562234	-218.845000	1754.279297	-105.694878
12150.562234	-218.845000	1753.269531	-82.261375
12150.562234	-218.845000	1752.258789	85.395866
12150.562234	-218.845000	1751.249023	-16.675428
12150.562234	-218.845000	1750.238281	75.124527
12150.562234	-218.845000	1749.226563	-15.210202
12150.562234	-218.845000	1748.215820	-70.106163
12150.562234	-218.845000	1747.204102	-21.062502
12150.562234	-218.845000	1746.193359	172.042313
12150.562234	-218.845000	1745.181641	36.646454
12150.562234	-218.845000	1744.168945	-127.101669
12150.562234	-218.845000	1743.157227	101.158089
12150.562234	-218.845000	1742.144531	-57.930336
12150.562234	-218.845000	1741.132813	63.893818
12150.562234	-218.845000	1740.120117	-128.281357
12150.562234	-218.845000	1739.106445	31.139843
12150.562234	-218.845000	1738.093750	-116.242607
12150.562234	-218.845000	1737.080078	92.537018
12150.562234	-218.845000	1736.067383	86.584763
12150.562234	-218.845000	1735.053711	-65.611366
12150.562234	-218.845000	1734.040039	93.367996
12150.562234	-218.845000	1733.025391	33.031460
12150.562234	-218.845000	1732.011719	-86.241081
12150.562234	-218.845000	1730.997070	55.988216
12150.562234	-218.845000	1729.982422	-2.114948
12150.562234	-218.845000	1728.967773	123.450653
12150.562234	-218.845000	1727.952148	-52.491165
12150.562234	-218.845000	1726.937500	-162.494522
12150.562234	-218.845000	1725.921875	118.209991
12150.562234	-218.845000	1724.906250	48.108677
12150.562234	-218.845000	1723.890625	-123.191734
12150.562234	-218.845000	1722.875000	-99.228050
12150.562234	-218.845000	1721.858398	101.064522
12150.562234	-218.845000	1720.841797	-185.536484
12150.562234	-218.845000	1719.825195	80.421402
12150.562234	-218.845000	1718.808594	-455.334930
12150.562234	-218.845000	1717.791992	-128.425262
12150.562234	-218.845000	1716.774414	-60.167805
12150.562234	-218.845000	1715.756836	24.457436
12150.562234	-218.845000	1714.739258	-121.184929
12150.562234	-218.845000	1713.721680	90.131058
12150.562234	-218.845000	1712.704102	-100.178215
12150.562234	-218.845000	1711.685547	-27.554195
12150.562234	-218.845000	1710.667969	-25.409761
12150.562234	-218.845000	1709.649414	9.529014
12150.562234	-218.845000	1708.630859	-49.439194
12150.562234	-218.845000	1707.611328	114.399292
12150.562234	-218.845000	1706.592773	-68.957863
12150.562234	-218.845000	1705.573242	80.658447
12150.562234	-218.845000	1704.553711	-126.166771
12150.562234	-218.845000	1703.534180	32.685089
12150.562234	-218.845000	1702.513672	29.726366
12150.562234	-218.845000	1701.494141	176.680740
12150.562234	-218.845000	1700.473633	-9.112142
12150.562234	-218.845000	1699.453125	-23.906883
12150.562234	-218.845000	1698.432617	57.266712
12150.562234	-218.845000	1697.412109	42.375916
12150.562234	-218.845000	1696.390625	100.003189
12150.562234	-218.845000	1695.369141	52.252506
12150.562234	-218.845000	1694.347656	32.556007
12150.562234	-218.845000	1693.326172	-118.180534
12150.562234	-218.845000	1692.304688	-133.242752
12150.562234	-218.845000	1691.282227	8.330568
12150.562234	-218.845000	1690.260742	124.097023
12150.562234	-218.845000	1689.238281	34.065414
12150.562234	-218.845000	1688.214844	102.945160
12150.562234	-218.845000	1687.192383	17.546017
12150.562234	-218.845000	1686.168945	79.316071
12150.562234	-218.845000	1685.146484	-17.800991
12150.562234	-218.845000	1684.123047	193.337128
12150.562234	-218.845000	1683.099609	21.437454
12150.562234	-218.845000	1682.075195	115.683594
12150.562234	-218.845000	1681.051758	-53.874023
12150.562234	-218.845000	1680.027344	89.283615
12150.562234	-218.845000	1679.002930	10.707413
12150.562234	-218.845000	1677.978516	202.713394
12150.562234	-218.845000	1676.953125	177.710632
12150.562234	-218.845000	1675.928711	59.422729
12150.562234	-218.845000	1674.903320	-42.541725
12150.562234	-218.845000	1673.877930	23.321478
12150.562234	-218.845000	1672.852539	207.977783
12150.562234	-218.845000	1671.826172	73.321526
12150.562234	-218.845000	1670.800781	201.928131
12150.562234	-218.845000	1669.774414	106.859108
12150.562234	-218.845000	1668.748047	-18.473978
12150.562234	-218.845000	1667.721680	182.152161
12150.562234	-218.845000	1666.694336	226.709885
12150.562234	-218.845000	1665.667969	15.234848
12150.562234	-218.845000	1664.640625	185.399658
12150.562234	-218.845000	1663.613281	346.166809
12150.562234	-218.845000	1662.585938	311.472504
12150.562234	-218.845000	1661.557617	83.746048
12150.562234	-218.845000	1660.530273	95.566284
12150.562234	-218.845000	1659.501953	300.287292
12150.562234	-218.845000	1658.473633	232.986893
12150.562234	-218.845000	1657.444336	35.557266
12150.562234	-218.845000	1656.416016	279.598877
12150.562234	-218.845000	1655.386719	507.257690
12150.562234	-218.845000	1654.358398	319.124451
12150.562234	-218.845000	1653.328125	407.327332
12150.562234	-218.845000	1652.298828	548.878174
12150.562234	-218.845000	1651.269531	344.534393
12150.562234	-218.845000	1650.239258	660.035706
12150.562234	-218.845000	1649.208984	567.068481
12150.562234	-218.845000	1648.178711	678.245789
12150.562234	-218.845000	1647.148438	511.066284
12150.562234	-218.845000	1646.117188	585.073425
12150.562234	-218.845000	1645.086914	772.640442
12150.562234	-218.845000	1644.055664	515.093750
12150.562234	-218.845000	1643.024414	584.381531
12150.562234	-218.845000	1641.992188	885.311829
12150.562234	-218.845000	1640.960938	873.401489
12150.562234	-218.845000	1639.928711	977.275696
12150.562234	-218.845000	1638.896484	875.015503
12150.562234	-218.845000	1637.864258	657.028809
12150.562234	-218.845000	1636.832031	659.011719
12150.562234	-218.845000	1635.798828	876.198975
12150.562234	-218.845000	1634.766602	929.026428
12150.562234	-218.845000	1633.733398	986.444397
12150.562234	-218.845000	1632.699219	812.537659
12150.562234	-218.845000	1631.666016	1017.940247
12150.562234	-218.845000	1630.632813	1063.732666
12150.562234	-218.845000	1629.598633	1195.019897
12150.562234	-218.845000	1628.564453	917.193542
12150.562234	-218.845000	1627.530273	986.066833
12150.562234	-218.845000	1626.495117	980.977112
12150.562234	-218.845000	1625.460938	1098.313354
12150.562234	-218.845000	1624.425781	1160.172485
12150.562234	-218.845000	1623.390625	1134.272217
12150.562234	-218.845000	1622.355469	1025.281250
12150.562234	-218.845000	1621.319336	1250.976440
12150.562234	-218.845000	1620.284180	1206.619873
12150.562234	-218.845000	1619.248047	920.036804
12150.562234	-218.845000	1618.211914	1297.865967
12150.562234	-218.845000	1617.174805	1149.744629
12150.562234	-218.845000	1616.138672	1100.840942
12150.562234	-218.845000	1615.101563	1349.329956
12150.562234	-218.845000	1614.065430	1208.227539
12150.562234	-218.845000	1613.027344	1120.170532
12150.562234	-218.845000	1611.990234	1260.250977
12150.562234	-218.845000	1610.953125	1250.562378
12150.562234	-218.845000	1609.915039	1058.942993
12150.562234	-218.845000	1608.876953	1157.528564
12150.562234	-218.845000	1607.838867	1076.525024
12150.562234	-218.845000	1606.800781	1101.440674
12150.562234	-218.845000	1605.761719	1112.542847
12150.562234	-218.845000	1604.723633	1171.980103
12150.562234	-218.845000	1603.684570	1291.207764
12150.562234	-218.845000	1602.644531	1355.198486
12150.562234	-218.845000	1601.605469	1285.824097
12150.562234	-218.845000	1600.566406	1388.915527
12150.562234	-218.845000	1599.526367	1305.795410
12150.562234	-218.845000	1598.486328	1424.955078
12150.562234	-218.845000	1597.446289	1351.088379
12150.562234	-218.845000	1596.405273	1467.925781
12150.562234	-218.845000	1595.365234	1435.460815
12150.562234	-218.845000	1594.324219	1494.871216
12150.562234	-218.845000	1593.283203	1742.537598
12150.562234	-218.845000	1592.242188	1521.873657
12150.562234	-218.845000	1591.200195	1663.908569
12150.562234	-218.845000	1590.159180	1776.092041
12150.562234	-218.845000	1589.117188	1734.549072
12150.562234	-218.845000	1588.075195	1697.634766
12150.562234	-218.845000	1587.032227	1697.441772
12150.562234	-218.845000	1585.990234	2116.845459
12150.562234	-218.845000	1584.947266	2070.780518
12150.562234	-218.845000	1583.904297	1988.093994
12150.562234	-218.845000	1582.861328	1877.972290
12150.562234	-218.845000	1581.818359	1944.322266
12150.562234	-218.845000	1580.775391	2079.389893
12150.562234	-218.845000	1579.731445	2019.777588
12150.562234	-218.845000	1578.687500	2024.327515
12150.562234	-218.845000	1577.643555	1994.572754
12150.562234	-218.845000	1576.598633	2010.626709
12150.562234	-218.845000	1575.554688	1992.394165
12150.562234	-218.845000	1574.509766	1990.209106
12150.562234	-218.845000	1573.464844	2033.807007
12150.562234	-218.845000	1572.419922	1745.829956
12150.562234	-218.845000	1571.374023	1940.425171
12150.562234	-218.845000	1570.329102	1606.934204
12150.562234	-218.845000	1569.283203	1550.150635
12150.562234	-218.845000	1568.237305	1925.302612
12150.562234	-218.845000	1567.191406	1576.127319
12150.562234	-218.845000	1566.144531	1757.046143
12150.562234	-218.845000	1565.098633	1620.506104
12150.562234	-218.845000	1564.051758	1611.916992
12150.562234	-218.845000	1563.004883	1774.584351
12150.562234	-218.845000	1561.957031	1567.479492
12150.562234	-218.845000	1560.910156	1486.011841
12150.562234	-218.845000	1559.862305	1119.429688
12150.562234	-218.845000	1558.814453	962.890564
12150.562234	-218.845000	1557.766602	943.291626
12150.562234	-218.845000	1556.718750	900.945923
12150.562234	-218.845000	1555.669922	881.453247
12150.562234	-218.845000	1554.621094	595.346008
12150.562234	-218.845000	1553.573242	448.412262
12150.562234	-218.845000	1552.523438	661.546021
12150.562234	-218.845000	1551.474609	753.925720
12150.562234	-218.845000	1550.424805	529.747742
12150.562234	-218.845000	1549.375000	576.670105
12150.562234	-218.845000	1548.325195	370.928741
12150.562234	-218.845000	1547.275391	406.586792
12150.562234	-218.845000	1546.225586	428.628174
12150.562234	-218.845000	1545.174805	377.902130
12150.562234	-218.845000	1544.124023	443.260834
12150.562234	-218.845000	1543.073242	322.156036
12150.562234	-218.845000	1542.022461	178.414459
12150.562234	-218.845000	1540.970703	391.702881
12150.562234	-218.845000	1539.919922	134.468674
12150.562234	-218.845000	1538.868164	20.552792
12150.562234	-218.845000	1537.815430	227.093613
12150.562234	-218.845000	1536.763672	460.876038
12150.562234	-218.845000	1535.710938	326.689545
12150.562234	-218.845000	1534.659180	265.284637
12150.562234	-218.845000	1533.606445	428.712769
12150.562234	-218.845000	1532.552734	190.373032
12150.562234	-218.845000	1531.500000	337.986237
12150.562234	-218.845000	1530.446289	149.795609
12150.562234	-218.845000	1529.393555	129.614456
12150.562234	-218.845000	1528.338867	102.687172
12150.562234	-218.845000	1527.285156	209.626755
12150.562234	-218.845000	1526.231445	257.640656
12150.562234	-218.845000	1525.176758	158.360367
12150.562234	-218.845000	1524.122070	113.572433
12150.562234	-218.845000	1523.067383	50.740196
12150.562234	-218.845000	1522.012695	259.838715
12150.562234	-218.845000	1520.957031	72.559311
12150.562234	-218.845000	1519.901367	265.846436
12150.562234	-218.845000	1518.845703	402.523804
12150.562234	-218.845000	1517.790039	276.643555
12150.562234	-218.845000	1516.734375	148.616302
12150.562234	-218.845000	1515.677734	373.676605
12150.562234	-218.845000	1514.621094	334.039093
12150.562234	-218.845000	1513.564453	412.097748
12150.562234	-218.845000	1512.507813	257.279724
12150.562234	-218.845000	1511.450195	373.891083
12150.562234	-218.845000	1510.393555	167.293564
12150.562234	-218.845000	1509.335938	193.619537
12150.562234	-218.845000	1508.278320	190.632019
12150.562234	-218.845000	1507.219727	291.630524
12150.562234	-218.845000	1506.162109	24.510393
12150.562234	-218.845000	1505.103516	84.999214
12150.562234	-218.845000	1504.044922	77.806023
12150.562234	-218.845000	1502.986328	-209.214340
12150.562234	-218.845000	1501.926758	-71.766914
12150.562234	-218.845000	1500.868164	-146.395615
12150.562234	-218.845000	1499.808594	-22.402399
12150.562234	-218.845000	1498.749023	-38.223167
12150.562234	-218.845000	1497.688477	-67.497276
12150.562234	-218.845000	1496.628906	-83.152016
12150.562234	-218.845000	1495.568359	-143.811096
12150.562234	-218.845000	1494.507813	-37.596256
12150.562234	-218.845000	1493.447266	14.574825
12150.562234	-218.845000	1492.386719	-156.224319
12150.562234	-218.845000	1491.325195	112.326332
12150.562234	-218.845000	1490.263672	124.131096
12150.562234	-218.845000	1489.202148	-37.352741
12150.562234	-218.845000	1488.140625	102.941498
12150.562234	-218.845000	1487.079102	72.215233
12150.562234	-218.845000	1486.016602	3.325942
12150.562234	-218.845000	1484.954102	161.759567
12150.562234	-218.845000	1483.891602	194.252670
12150.562234	-218.845000	1482.829102	197.581848
12150.562234	-218.845000	1481.765625	344.886108
12150.562234	-218.845000	1480.702148	26.917643
12150.562234	-218.845000	1479.638672	113.688408
12150.562234	-218.845000	1478.575195	254.430038
12150.562234	-218.845000	1477.511719	175.047028
12150.562234	-218.845000	1476.447266	210.362335
12150.562234	-218.845000	1475.382813	135.691238
12150.562234	-218.845000	1474.318359	225.068069
12150.562234	-218.845000	1473.253906	184.157089
12150.562234	-218.845000	1472.189453	275.954559
12150.562234	-218.845000	1471.124023	156.893127
12150.562234	-218.845000	1470.058594	335.983978
12150.562234	-218.845000	1468.993164	304.493835
12150.562234	-218.845000	1467.927734	210.509750
12150.562234	-218.845000	1466.861328	134.561371
12150.562234	-218.845000	1465.794922	479.968109
12150.562234	-218.845000	1464.728516	437.499603
12150.562234	-218.845000	1463.662109	297.004639
12150.562234	-218.845000	1462.594727	335.214264
12150.562234	-218.845000	1461.528320	320.556335
12150.562234	-218.845000	1460.460938	357.117065
12150.562234	-218.845000	1459.393555	339.879395
12150.562234	-218.845000	1458.326172	269.056274
12150.562234	-218.845000	1457.257813	374.858673
12150.562234	-218.845000	1456.189453	257.979279
12150.562234	-218.845000	1455.121094	233.925949
12150.562234	-218.845000	1454.052734	170.500488
12150.562234	-218.845000	1452.984375	221.034012
12150.562234	-218.845000	1451.915039	231.649933
12150.562234	-218.845000	1450.845703	477.799286
12150.562234	-218.845000	1449.776367	573.206726
12150.562234	-218.845000	1448.707031	388.182800
12150.562234	-218.845000	1447.636719	438.127625
12150.562234	-218.845000	1446.567383	541.827026
12150.562234	-218.845000	1445.497070	679.607666
12150.562234	-218.845000	1444.425781	611.525452
12150.562234	-218.845000	1443.355469	686.761169
12150.562234	-218.845000	1442.285156	564.713196
12150.562234	-218.845000	1441.213867	628.824951
12150.562234	-218.845000	1440.142578	678.139404
12150.562234	-218.845000	1439.070313	590.494751
12150.562234	-218.845000	1437.999023	717.146240
12150.562234	-218.845000	1436.926758	483.040802
12150.562234	-218.845000	1435.854492	576.438843
12150.562234	-218.845000	1434.782227	430.595123
12150.562234	-218.845000	1433.709961	353.960846
12150.562234	-218.845000	1432.636719	473.112823
12150.562234	-218.845000	1431.563477	418.299408
12150.562234	-218.845000	1430.490234	200.959961
12150.562234	-218.845000	1429.416992	218.305298
12150.562234	-218.845000	1428.343750	520.473022
12150.562234	-218.845000	1427.269531	464.324646
12150.562234	-218.845000	1426.195313	493.052307
12150.562234	-218.845000	1425.121094	518.959595
12150.562234	-218.845000	1424.046875	444.889191
12150.562234	-218.845000	1422.971680	357.018280
12150.562234	-218.845000	1421.896484	474.622650
12150.562234	-218.845000	1420.821289	462.219818
12150.562234	-218.845000	1419.746094	744.434570
12150.562234	-218.845000	1418.669922	620.370178
12150.562234	-218.845000	1417.594727	685.373474
12150.562234	-218.845000	1416.518555	706.568176
12150.562234	-218.845000	1415.442383	565.702271
12150.562234	-218.845000	1414.365234	605.584290
12150.562234	-218.845000	1413.289063	630.625000
12150.562234	-218.845000	1412.211914	678.405701
12150.562234	-218.845000	1411.134766	454.779449
12150.562234	-218.845000	1410.057617	674.124023
12150.562234	-218.845000	1408.979492	801.530640
12150.562234	-218.845000	1407.902344	739.638550
12150.562234	-218.845000	1406.824219	667.341431
12150.562234	-218.845000	1405.746094	543.622864
12150.562234	-218.845000	1404.666992	706.945374
12150.562234	-218.845000	1403.588867	427.973999
12150.562234	-218.845000	1402.509766	744.430115
12150.562234	-218.845000	1401.430664	490.009857
12150.562234	-218.845000	1400.351563	543.904358
12150.562234	-218.845000	1399.271484	456.216217
12150.562234	-218.845000	1398.192383	465.582336
12150.562234	-218.845000	1397.112305	315.004120
12150.562234	-218.845000	1396.031250	469.834961
12150.562234	-218.845000	1394.951172	566.188904
12150.562234	-218.845000	1393.871094	315.704834
12150.562234	-218.845000	1392.790039	488.265900
12150.562234	-218.845000	1391.708984	481.027527
12150.562234	-218.845000	1390.626953	632.993225
12150.562234	-218.845000	1389.545898	611.385620
12150.562234	-218.845000	1388.463867	646.011902
12150.562234	-218.845000	1387.381836	878.475342
12150.562234	-218.845000	1386.299805	715.806824
12150.562234	-218.845000	1385.217773	734.700500
12150.562234	-218.845000	1384.134766	1119.737305
12150.562234	-218.845000	1383.051758	953.786865
12150.562234	-218.845000	1381.968750	845.769714
12150.562234	-218.845000	1380.885742	956.497070
12150.562234	-218.845000	1379.802734	1039.424683
12150.562234	-218.845000	1378.718750	914.976563
12150.562234	-218.845000	1377.634766	781.863831
12150.562234	-218.845000	1376.550781	709.319519
12150.562234	-218.845000	1375.465820	748.156616
12150.562234	-218.845000	1374.381836	694.535156
12150.562234	-218.845000	1373.296875	742.825745
12150.562234	-218.845000	1372.211914	595.582764
12150.562234	-218.845000	1371.126953	546.271667
12150.562234	-218.845000	1370.041016	576.060303
12150.562234	-218.845000	1368.955078	653.619019
12150.562234	-218.845000	1367.869141	327.182739
12150.562234	-218.845000	1366.783203	545.505981
12150.562234	-218.845000	1365.697266	450.195801
12150.562234	-218.845000	1364.610352	326.460297
12150.562234	-218.845000	1363.523438	309.757599
12150.562234	-218.845000	1362.436523	255.303131
12150.562234	-218.845000	1361.349609	264.851318
12150.562234	-218.845000	1360.261719	461.680939
12150.562234	-218.845000	1359.174805	424.304535
12150.562234	-218.845000	1358.086914	477.428528
12150.562234	-218.845000	1356.998047	277.822174
12150.562234	-218.845000	1355.910156	375.871704
12150.562234	-218.845000	1354.821289	520.193054
12150.562234	-218.845000	1353.732422	501.490814
12150.562234	-218.845000	1352.643555	476.573059
12150.562234	-218.845000	1351.554688	451.507751
12150.562234	-218.845000	1350.464844	334.739136
12150.562234	-218.845000	1349.375000	444.255707
12150.562234	-218.845000	1348.285156	502.430084
12150.562234	-218.845000	1347.195313	416.589874
12150.562234	-218.845000	1346.105469	408.240448
12150.562234	-218.845000	1345.014648	510.426971
12150.562234	-218.845000	1343.923828	438.039978
12150.562234	-218.845000	1342.833008	667.063354
12150.562234	-218.845000	1341.741211	779.052124
12150.562234	-218.845000	1340.650391	678.213135
12150.562234	-218.845000	1339.558594	763.389465
12150.562234	-218.845000	1338.466797	905.259460
12150.562234	-218.845000	1337.374023	796.689880
12150.562234	-218.845000	1336.282227	663.493469
12150.562234	-218.845000	1335.189453	648.408386
12150.562234	-218.845000	1334.096680	762.660522
12150.562234	-218.845000	1333.003906	636.825500
12150.562234	-218.845000	1331.910156	799.453064
12150.562234	-218.845000	1330.817383	608.639465
12150.562234	-218.845000	1329.723633	580.635193
12150.562234	-218.845000	1328.629883	571.060303
12150.562234	-218.845000	1327.535156	518.443237
12150.562234	-218.845000	1326.441406	346.450287
12150.562234	-218.845000	1325.346680	602.339966
12150.562234	-218.845000	1324.251953	413.006592
12150.562234	-218.845000	1323.156250	579.568665
12150.562234	-218.845000	1322.061523	424.697876
12150.562234	-218.845000	1320.965820	536.203918
12150.562234	-218.845000	1319.870117	457.583527
12150.562234	-218.845000	1318.774414	570.927917
12150.562234	-218.845000	1317.678711	406.039215
12150.562234	-218.845000	1316.582031	455.412201
12150.562234	-218.845000	1315.485352	400.241577
12150.562234	-218.845000	1314.388672	391.260162
12150.562234	-218.845000	1313.291016	358.827026
12150.562234	-218.845000	1312.194336	486.159882
12150.562234	-218.845000	1311.096680	603.854431
12150.562234	-218.845000	1309.999023	284.249725
12150.562234	-218.845000	1308.901367	543.114685
12150.562234	-218.845000	1307.802734	520.008850
12150.562234	-218.845000	1306.705078	606.640564
12150.562234	-218.845000	1305.606445	602.462585
12150.562234	-218.845000	1304.506836	459.147156
12150.562234	-218.845000	1303.408203	376.991425
12150.562234	-218.845000	1302.308594	353.734375
12150.562234	-218.845000	1301.208984	332.469513
12150.562234	-218.845000	1300.109375	339.950165
12150.562234	-218.845000	1299.009766	503.889587
12150.562234	-218.845000	1297.909180	486.879913
12150.562234	-218.845000	1296.808594	592.743958
12150.562234	-218.845000	1295.708008	488.887390
12150.562234	-218.845000	1294.607422	438.113342
12150.562234	-218.845000	1293.506836	449.837250
12150.562234	-218.845000	1292.405273	429.045868
12150.562234	-218.845000	1291.303711	300.141968
12150.562234	-218.845000	1290.202148	287.042877
12150.562234	-218.845000	1289.099609	380.346893
12150.562234	-218.845000	1287.998047	257.803040
12150.562234	-218.845000	1286.895508	304.639648
12150.562234	-218.845000	1285.792969	220.434082
12150.562234	-218.845000	1284.689453	361.784698
12150.562234	-218.845000	1283.586914	53.377789
12150.562234	-218.845000	1282.483398	198.709518
12150.562234	-218.845000	1281.379883	237.288757
12150.562234	-218.845000	1280.276367	243.755539
12150.562234	-218.845000	1279.171875	195.301117
12150.562234	-218.845000	1278.067383	36.168648
12150.562234	-218.845000	1276.962891	181.682739
12150.562234	-218.845000	1275.858398	-44.612301
12150.562234	-218.845000	1274.753906	95.704834
12150.562234	-218.845000	1273.648438	45.221031
12150.562234	-218.845000	1272.542969	34.346302
12150.562234	-218.845000	1271.437500	138.318344
12150.562234	-218.845000	1270.331055	35.028805
12150.562234	-218.845000	1269.225586	70.253151
12150.562234	-218.845000	1268.119141	59.676708
12150.562234	-218.845000	1267.012695	-67.407837
12150.562234	-218.845000	1265.906250	110.091690
12150.562234	-218.845000	1264.798828	-13.308891
12150.562234	-218.845000	1263.691406	38.173271
12150.562234	-218.845000	1262.583984	-99.342300
12150.562234	-218.845000	1261.476563	71.158455
12150.562234	-218.845000	1260.368164	54.430695
12150.562234	-218.845000	1259.260742	38.409618
12150.562234	-218.845000	1258.152344	37.759476
12150.562234	-218.845000	1257.043945	23.322557
12150.562234	-218.845000	1255.934570	78.293564
12150.562234	-218.845000	1254.825195	-4.135651
12150.562234	-218.845000	1253.716797	74.376137
12150.562234	-218.845000	1252.606445	-103.320099
12150.562234	-218.845000	1251.497070	25.359045
12150.562234	-218.845000	1250.387695	-0.656353
12150.562234	-218.845000	1249.277344	5.102920
12150.562234	-218.845000	1248.166992	-37.363750
12150.562234	-218.845000	1247.055664	19.809364
12150.562234	-218.845000	1245.945313	-21.764229
12150.562234	-218.845000	1244.833984	15.298883
12150.562234	-218.845000	1243.722656	99.782211
12150.562234	-218.845000	1242.611328	-13.884151
12150.562234	-218.845000	1241.499023	-87.970154
12150.562234	-218.845000	1240.387695	-58.670021
12150.562234	-218.845000	1239.275391	-310.173462
12150.562234	-218.845000	1238.162109	-2.775909
12150.562234	-218.845000	1237.049805	-166.328903
12150.562234	-218.845000	1235.936523	101.574608
12150.562234	-218.845000	1234.823242	10.097949
12150.562234	-218.845000	1233.709961	7.344065
12150.562234	-218.845000	1232.596680	-140.105576
12150.562234	-218.845000	1231.482422	-103.726852
12150.562234	-218.845000	1230.369141	-83.183891
12150.562234	-218.845000	1229.253906	59.937553
12150.562234	-218.845000	1228.139648	27.321745
12150.562234	-218.845000	1227.025391	24.299435
12150.562234	-218.845000	1225.910156	16.492422
12150.562234	-218.845000	1224.794922	15.536621
12150.562234	-218.845000	1223.679688	-32.126129
12150.562234	-218.845000	1222.563477	42.431656
12150.562234	-218.845000	1221.447266	-73.572090
12150.562234	-218.845000	1220.331055	-11.899627
12150.562234	-218.845000	1219.214844	133.063751
12150.562234	-218.845000	1218.098633	16.949366
12150.562234	-218.845000	1216.981445	48.245251
12150.562234	-218.845000	1215.864258	38.318752
12150.562234	-218.845000	1214.747070	50.638107
12150.562234	-218.845000	1213.629883	149.802399
12150.562234	-218.845000	1212.511719	49.203018
12150.562234	-218.845000	1211.393555	-4.645230
12150.562234	-218.845000	1210.275391	82.135078
12150.562234	-218.845000	1209.157227	107.144012
12150.562234	-218.845000	1208.038086	15.210467
12150.562234	-218.845000	1206.918945	12.117823
12150.562234	-218.845000	1205.799805	-12.122704
12150.562234	-218.845000	1204.680664	-32.072155
12150.562234	-218.845000	1203.560547	24.607143
12150.562234	-218.845000	1202.441406	19.413166
12150.562234	-218.845000	1201.321289	-2.448949
12150.562234	-218.845000	1200.200195	-58.817589
12150.562234	-218.845000	1199.080078	-104.997482
12150.562234	-218.845000	1197.958984	-78.286430
12150.562234	-218.845000	1196.837891	9.717161
12150.562234	-218.845000	1195.716797	107.914192
12150.562234	-218.845000	1194.594727	-15.318619
12150.562234	-218.845000	1193.473633	0.175992
12150.562234	-218.845000	1192.351563	-89.361748
12150.562234	-218.845000	1191.229492	-67.266518
12150.562234	-218.845000	1190.106445	-29.609856
12150.562234	-218.845000	1188.984375	-67.098679
12150.562234	-218.845000	1187.861328	-136.548477
12150.562234	-218.845000	1186.738281	37.802795
12150.562234	-218.845000	1185.614258	-45.952366
12150.562234	-218.845000	1184.491211	-109.351837
12150.562234	-218.845000	1183.367188	-113.008049
12150.562234	-218.845000	1182.243164	89.585243
12150.562234	-218.845000	1181.119141	25.801630
12150.562234	-218.845000	1179.994141	-69.183426
12150.562234	-218.845000	1178.869141	-42.807976
12150.562234	-218.845000	1177.744141	-192.643723
12150.562234	-218.845000	1176.619141	69.257172
12150.562234	-218.845000	1175.493164	45.475391
12150.562234	-218.845000	1174.368164	9.444017
12150.562234	-218.845000	1173.242188	21.407845
12150.562234	-218.845000	1172.115234	-68.134544
12150.562234	-218.845000	1170.989258	15.266630
12150.562234	-218.845000	1169.862305	73.750618
12150.562234	-218.845000	1168.735352	51.194958
12150.562234	-218.845000	1167.608398	-17.780611
12150.562234	-218.845000	1166.481445	121.983688
12150.562234	-218.845000	1165.353516	-56.935471
12150.562234	-218.845000	1164.225586	-84.843079
12150.562234	-218.845000	1163.097656	-85.556885
12150.562234	-218.845000	1161.968750	11.974353
12150.562234	-218.845000	1160.840820	-25.306082
12150.562234	-218.845000	1159.711914	-19.973076
12150.562234	-218.845000	1158.583008	20.152855
12150.562234	-218.845000	1157.453125	17.894384
12150.562234	-218.845000	1156.324219	-25.368523
12150.562234	-218.845000	1155.194336	-37.086861
12150.562234	-218.845000	1154.064453	-43.091801
12150.562234	-218.845000	1152.933594	30.352360
12150.562234	-218.845000	1151.803711	56.901150
12150.562234	-218.845000	1150.672852	12.995028
12150.562234	-218.845000	1149.541992	30.116405
12150.562234	-218.845000	1148.411133	-8.528980
12150.562234	-218.845000	1147.279297	39.770073
12150.562234	-218.845000	1146.147461	-46.115284
12150.562234	-218.845000	1145.015625	-9.025195
12150.562234	-218.845000	1143.883789	-98.144524
12150.562234	-218.845000	1142.750977	-107.510193
12150.562234	-218.845000	1141.619141	-23.174255
12150.562234	-218.845000	1140.486328	8.986994
12150.562234	-218.845000	1139.352539	47.814026
12150.562234	-218.845000	1138.219727	16.483456
12150.562234	-218.845000	1137.085938	-88.840126
12150.562234	-218.845000	1135.952148	84.307449
12150.562234	-218.845000	1134.818359	-7.941270
12150.562234	-218.845000	1133.683594	160.765320
12150.562234	-218.845000	1132.549805	160.122635
12150.562234	-218.845000	1131.415039	318.720825
12150.562234	-218.845000	1130.279297	187.862335
12150.562234	-218.845000	1129.144531	290.170471
12150.562234	-218.845000	1128.008789	303.402252
12150.562234	-218.845000	1126.873047	307.358978
12150.562234	-218.845000	1125.737305	280.678101
12150.562234	-218.845000	1124.601563	179.886780
12150.562234	-218.845000	1123.464844	304.527802
12150.562234	-218.845000	1122.328125	161.756134
12150.562234	-218.845000	1121.191406	222.987564
12150.562234	-218.845000	1120.054688	128.314667
12150.562234	-218.845000	1118.916992	86.215714
12150.562234	-218.845000	1117.779297	177.036209
12150.562234	-218.845000	1116.641602	237.878494
12150.562234	-218.845000	1115.503906	311.078308
12150.562234	-218.845000	1114.365234	324.848236
12150.562234	-218.845000	1113.226563	271.528046
12150.562234	-218.845000	1112.087891	235.568680
12150.562234	-218.845000	1110.949219	196.504196
12150.562234	-218.845000	1109.809570	189.896652
12150.562234	-218.845000	1108.669922	140.748062
12150.562234	-218.845000	1107.530273	221.668594
12150.562234	-218.845000	1106.390625	206.020432
12150.562234	-218.845000	1105.250000	58.235641
12150.562234	-218.845000	1104.109375	123.618126
12150.562234	-218.845000	1102.968750	140.170670
12150.562234	-218.845000	1101.828125	167.889252
12150.562234	-218.845000	1100.686523	65.045677
12150.562234	-218.845000	1099.544922	69.070938
12150.562234	-218.845000	1098.403320	128.104568
12150.562234	-218.845000	1097.261719	128.727493
12150.562234	-218.845000	1096.120117	223.146652
12150.562234	-218.845000	1094.977539	210.880783
12150.562234	-218.845000	1093.834961	226.370834
12150.562234	-218.845000	1092.691406	109.485130
12150.562234	-218.845000	1091.548828	202.755234
12150.562234	-218.845000	1090.405273	230.647369
12150.562234	-218.845000	1089.261719	150.690491
12150.562234	-218.845000	1088.118164	141.204834
12150.562234	-218.845000	1086.973633	137.237305
12150.562234	-218.845000	1085.829102	1.377481
12150.562234	-218.845000	1084.684570	-55.331718
12150.562234	-218.845000	1083.540039	149.323502
12150.562234	-218.845000	1082.395508	192.233704
12150.562234	-218.845000	1081.250000	104.815781
12150.562234	-218.845000	1080.104492	88.510086
12150.562234	-218.845000	1078.958984	110.207199
12150.562234	-218.845000	1077.812500	21.960653
12150.562234	-218.845000	1076.666016	1.062468
12150.562234	-218.845000	1075.519531	145.471588
12150.562234	-218.845000	1074.373047	83.437988
12150.562234	-218.845000	1073.226563	67.691116
12150.562234	-218.845000	1072.079102	7.958215
12150.562234	-218.845000	1070.931641	-99.452904
12150.562234	-218.845000	1069.784180	218.477264
12150.562234	-218.845000	1068.635742	188.126282
12150.562234	-218.845000	1067.487305	167.152634
12150.562234	-218.845000	1066.338867	187.871750
12150.562234	-218.845000	1065.190430	173.492615
12150.562234	-218.845000	1064.041992	270.276947
12150.562234	-218.845000	1062.892578	158.374619
12150.562234	-218.845000	1061.743164	134.240204
12150.562234	-218.845000	1060.593750	139.356140
12150.562234	-218.845000	1059.443359	198.230591
12150.562234	-218.845000	1058.292969	182.168839
12150.562234	-218.845000	1057.142578	239.233414
12150.562234	-218.845000	1055.992188	-24.474102
12150.562234	-218.845000	1054.841797	123.122498
12150.562234	-218.845000	1053.690430	81.951180
12150.562234	-218.845000	1052.539063	234.313477
12150.562234	-218.845000	1051.387695	49.436966
12150.562234	-218.845000	1050.235352	78.500511
12150.562234	-218.845000	1049.083984	17.479513
12150.562234	-218.845000	1047.931641	52.571457
12150.562234	-218.845000	1046.778320	130.279236
12150.562234	-218.845000	1045.625977	-43.370770
12150.562234	-218.845000	1044.472656	97.856834
12150.562234	-218.845000	1043.319336	25.425982
12150.562234	-218.845000	1042.166016	19.399233
12150.562234	-218.845000	1041.012695	40.934868
12150.562234	-218.845000	1039.858398	50.771053
12150.562234	-218.845000	1038.704102	61.380650
12150.562234	-218.845000	1037.549805	210.283264
12150.562234	-218.845000	1036.394531	30.383020
12150.562234	-218.845000	1035.239258	85.290550
12150.562234	-218.845000	1034.083984	134.518646
12150.562234	-218.845000	1032.928711	171.050797
12150.562234	-218.845000	1031.773438	178.651749
12150.562234	-218.845000	1030.617188	37.685440
12150.562234	-218.845000	1029.460938	46.426743
12150.562234	-218.845000	1028.304688	220.150177
12150.562234	-218.845000	1027.147461	83.155136
12150.562234	-218.845000	1025.991211	31.639029
12150.562234	-218.845000	1024.833984	-15.822927
12150.562234	-218.845000	1023.675781	68.401131
12150.562234	-218.845000	1022.518555	59.277348
12150.562234	-218.845000	1021.360352	-1.643643
12150.562234	-218.845000	1020.202148	114.675026
12150.562234	-218.845000	1019.043945	4.890698
12150.562234	-218.845000	1017.884766	-20.363451
12150.562234	-218.845000	1016.726563	-117.881721
12150.562234	-218.845000	1015.567383	-21.701647
12150.562234	-218.845000	1014.407227	-154.013596
12150.562234	-218.845000	1013.248047	-26.170300
12150.562234	-218.845000	1012.087891	62.249550
12150.562234	-218.845000	1010.927734	-23.455225
12150.562234	-218.845000	1009.767578	-106.898735
12150.562234	-218.845000	1008.606445	-89.434357
12150.562234	-218.845000	1007.446289	-135.179138
12150.562234	-218.845000	1006.285156	17.101387
12150.562234	-218.845000	1005.123047	157.722733
12150.562234	-218.845000	1003.961914	42.570950
12150.562234	-218.845000	1002.799805	43.551250
12150.562234	-218.845000	1001.637695	11.607245
12150.562234	-218.845000	1000.475586	-51.688641
12150.562234	-218.845000	999.312500	4.894977
12150.562234	-218.845000	998.149414	-86.460907
12150.562234	-218.845000	996.986328	15.033912
12150.562234	-218.845000	995.823242	207.534882
12150.562234	-218.845000	994.659180	7.770334
12150.562234	-218.845000	993.496094	-14.246211
12150.562234	-218.845000	992.332031	-10.381487
12150.562234	-218.845000	991.166992	-119.604149
12150.562234	-218.845000	990.002930	-195.424957
12150.562234	-218.845000	988.837891	-24.346516
12150.562234	-218.845000	987.672852	68.279205
12150.562234	-218.845000	986.506836	-163.811783
12150.562234	-218.845000	985.341797	-24.705244
12150.562234	-218.845000	984.175781	-80.955734
12150.562234	-218.845000	983.009766	4.755791
12150.562234	-218.845000	981.843750	10.792799
12150.562234	-218.845000	980.676758	3.016161
12150.562234	-218.845000	979.509766	-19.915146
12150.562234	-218.845000	978.342773	63.577190
12150.562234	-218.845000	977.175781	76.071480
12150.562234	-218.845000	976.007813	216.575958
12150.562234	-218.845000	974.839844	120.359093
12150.562234	-218.845000	973.671875	-20.727375
12150.562234	-218.845000	972.503906	7.120456
12150.562234	-218.845000	971.334961	-135.479889
12150.562234	-218.845000	970.166016	-28.185638
12150.562234	-218.845000	968.997070	-63.568867
12150.562234	-218.845000	967.828125	130.693863
12150.562234	-218.845000	966.658203	125.145760
12150.562234	-218.845000	965.488281	75.400200
12150.562234	-218.845000	964.318359	56.585312
12150.562234	-218.845000	963.148438	109.819450
12150.562234	-218.845000	961.977539	159.169174
12150.562234	-218.845000	960.806641	76.641518
12150.562234	-218.845000	959.635742	39.449551
12150.562234	-218.845000	958.463867	58.290638
12150.562234	-218.845000	957.292969	155.716919
12150.562234	-218.845000	956.121094	104.167816
12150.562234	-218.845000	954.948242	35.899303
12150.562234	-218.845000	953.776367	101.273239
12150.562234	-218.845000	952.603516	62.642956
12150.562234	-218.845000	951.430664	71.841843
12150.562234	-218.845000	950.257813	-103.038124
12150.562234	-218.845000	949.084961	107.962250
12150.562234	-218.845000	947.911133	83.784256
12150.562234	-218.845000	946.737305	64.741821
12150.562234	-218.845000	945.563477	162.490417
12150.562234	-218.845000	944.388672	160.884369
12150.562234	-218.845000	943.213867	159.294296
12150.562234	-218.845000	942.039063	-10.413383
12150.562234	-218.845000	940.864258	1.974403
12150.562234	-218.845000	939.688477	-40.719345
12150.562234	-218.845000	938.513672	101.674377
12150.562234	-218.845000	937.337891	60.592377
12150.562234	-218.845000	936.161133	55.101189
12150.562234	-218.845000	934.985352	130.066223
12150.562234	-218.845000	933.808594	70.883148
12150.562234	-218.845000	932.631836	-29.039158
12150.562234	-218.845000	931.454102	95.517685
12150.562234	-218.845000	930.277344	139.893829
12150.562234	-218.845000	929.099609	54.200619
12150.562234	-218.845000	927.921875	155.474945
12150.562234	-218.845000	926.743164	60.828629
12150.562234	-218.845000	925.565430	204.801224
12150.562234	-218.845000	924.386719	-99.898445
12150.562234	-218.845000	923.208008	156.158188
12150.562234	-218.845000	922.028320	182.554565
12150.562234	-218.845000	920.849609	-8.138404
12150.562234	-218.845000	919.669922	-3.130955
12150.562234	-218.845000	919.474609	-50.292492
12150.562234	-218.845000	918.309570	64.951675
12150.562234	-218.845000	917.143555	-36.801197
12150.562234	-218.845000	915.977539	-3.418349
12150.562234	-218.845000	914.810547	-16.275438
12150.562234	-218.845000	913.644531	-18.487883
12150.562234	-218.845000	912.477539	-45.586460
12150.562234	-218.845000	911.310547	62.309685
12150.562234	-218.845000	910.143555	58.258320
12150.562234	-218.845000	908.975586	-66.546951
12150.562234	-218.845000	907.807617	-86.578751
12150.562234	-218.845000	906.639648	12.298810
12150.562234	-218.845000	905.471680	-6.000051
12150.562234	-218.845000	904.303711	-40.276947
12150.562234	-218.845000	903.134766	-83.420387
12150.562234	-218.845000	901.965820	-64.492783
12150.562234	-218.845000	900.796875	-151.974442
12150.562234	-218.845000	899.626953	-122.432663
12150.562234	-218.845000	898.457031	-117.732513
12150.562234	-218.845000	897.287109	-52.801609
12150.562234	-218.845000	896.117188	72.323082
12150.562234	-218.845000	894.947266	186.752045
12150.562234	-218.845000	893.776367	26.629829
12150.562234	-218.845000	892.605469	63.090435
12150.562234	-218.845000	891.434570	157.936722
12150.562234	-218.845000	890.262695	132.383514
12150.562234	-218.845000	889.091797	117.439018
12150.562234	-218.845000	887.919922	6.956569
12150.562234	-218.845000	886.748047	59.229397
12150.562234	-218.845000	885.575195	134.459564
12150.562234	-218.845000	884.403320	13.387807
12150.562234	-218.845000	883.230469	235.283356
12150.562234	-218.845000	882.057617	126.586945
12150.562234	-218.845000	880.883789	63.863853
12150.562234	-218.845000	879.710938	40.013126
12150.562234	-218.845000	878.537109	-40.357262
12150.562234	-218.845000	877.362305	-157.788269
12150.562234	-218.845000	876.188477	3.759849
12150.562234	-218.845000	875.013672	-39.524948
12150.562234	-218.845000	873.839844	81.315086
12150.562234	-218.845000	872.664063	-101.381104
12150.562234	-218.845000	871.489258	45.859245
12150.562234	-218.845000	870.313477	36.058952
12150.562234	-218.845000	869.138672	-16.074150
12150.562234	-218.845000	867.962891	41.108688
12150.562234	-218.845000	866.786133	-37.463779
12150.562234	-218.845000	865.610352	9.098958
12150.562234	-218.845000	864.433594	104.966080
12150.562234	-218.845000	863.256836	-61.688114
12150.562234	-218.845000	862.079102	113.384033
12150.562234	-218.845000	860.902344	64.744034
12150.562234	-218.845000	859.724609	65.406647
12150.562234	-218.845000	858.546875	-118.753593
12150.562234	-218.845000	857.368164	-7.213683
12150.562234	-218.845000	856.190430	-50.560482
12150.562234	-218.845000	855.011719	-39.369164
12150.562234	-218.845000	853.833008	-68.645042
12150.562234	-218.845000	852.654297	-43.415421
12150.562234	-218.845000	851.474609	16.953955
12150.562234	-218.845000	850.294922	-40.472866
12150.562234	-218.845000	849.115234	-194.533737
12150.562234	-218.845000	847.935547	101.206924
12150.562234	-218.845000	846.754883	-73.920403
12150.562234	-218.845000	845.575195	-154.162048
12150.562234	-218.845000	844.393555	-42.998848
12150.562234	-218.845000	843.212891	-61.796597
12150.562234	-218.845000	842.032227	-63.049545
12150.562234	-218.845000	840.850586	55.006313
12150.562234	-218.845000	839.668945	23.884319
12150.562234	-218.845000	838.486328	22.582830
12150.562234	-218.845000	837.304688	-52.385071
12150.562234	-218.845000	836.122070	-85.254158
12150.562234	-218.845000	834.939453	-188.237610
12150.562234	-218.845000	833.756836	-16.047331
12150.562234	-218.845000	832.573242	-17.399895
12150.562234	-218.845000	831.389648	35.540375
12150.562234	-218.845000	830.206055	-133.985809
12150.562234	-218.845000	829.022461	-60.056580
12150.562234	-218.845000	827.838867	19.080984
12150.562234	-218.845000	826.654297	-141.620331
12150.562234	-218.845000	825.469727	-90.520584
12150.562234	-218.845000	824.284180	-51.699253
12150.562234	-218.845000	823.099609	-35.650330
12150.562234	-218.845000	821.914063	-47.600594
12150.562234	-218.845000	820.728516	-66.553154
12150.562234	-218.845000	819.542969	-71.526115
12150.562234	-218.845000	818.356445	89.536743
12150.562234	-218.845000	817.169922	-121.689934
12150.562234	-218.845000	815.983398	-76.019173
12150.562234	-218.845000	814.796875	27.262360
12150.562234	-218.845000	813.609375	-73.836052
12150.562234	-218.845000	812.422852	-35.227657
12150.562234	-218.845000	811.235352	1.609074
12150.562234	-218.845000	810.046875	-75.024681
12150.562234	-218.845000	808.859375	49.023811
12150.562234	-218.845000	807.670898	-72.973999
12150.562234	-218.845000	806.482422	31.811886
12150.562234	-218.845000	805.293945	-116.317818
12150.562234	-218.845000	804.104492	49.431713
12150.562234	-218.845000	802.915039	4.179076
12150.562234	-218.845000	801.725586	-60.239372
12150.562234	-218.845000	800.536133	65.277855
12150.562234	-218.845000	799.345703	68.787239
12150.562234	-218.845000	798.155273	82.731636
12150.562234	-218.845000	796.964844	89.690071
12150.562234	-218.845000	795.774414	94.890976
12150.562234	-218.845000	794.583008	7.824852
12150.562234	-218.845000	793.392578	-32.236145
12150.562234	-218.845000	792.200195	92.999908
12150.562234	-218.845000	791.008789	136.407913
12150.562234	-218.845000	789.816406	75.436142
12150.562234	-218.845000	788.625000	7.516527
12150.562234	-218.845000	787.432617	21.318977
12150.562234	-218.845000	786.239258	-76.134186
12150.562234	-218.845000	785.046875	-48.448555
12150.562234	-218.845000	783.853516	102.564728
12150.562234	-218.845000	782.660156	-29.631313
12150.562234	-218.845000	781.465820	74.397499
12150.562234	-218.845000	780.272461	-101.176987
12150.562234	-218.845000	779.078125	-61.437508
12150.562234	-218.845000	777.883789	170.916397
12150.562234	-218.845000	776.688477	68.266129
12150.562234	-218.845000	775.494141	24.623955
12150.562234	-218.845000	774.298828	107.603310
12150.562234	-218.845000	773.103516	-59.182293
12150.562234	-218.845000	771.907227	53.222683
12150.562234	-218.845000	770.711914	115.293022
12150.562234	-218.845000	769.515625	61.208939
12150.562234	-218.845000	768.318359	19.261288
12150.562234	-218.845000	767.122070	-10.562372
12150.562234	-218.845000	765.924805	122.415154
12150.562234	-218.845000	764.727539	52.722996
12150.562234	-218.845000	763.530273	52.291199
12150.562234	-218.845000	762.333008	5.107915
12150.562234	-218.845000	761.134766	2.922479
12150.562234	-218.845000	759.936523	146.052155
12150.562234	-218.845000	758.738281	-41.286873
12150.562234	-218.845000	757.540039	55.061020
12150.562234	-218.845000	756.340820	-42.304317
12150.562234	-218.845000	755.141602	50.511108
12150.562234	-218.845000	753.942383	-115.985031
12150.562234	-218.845000	752.742188	-38.780815
12150.562234	-218.845000	751.541992	133.391800
12150.562234	-218.845000	750.341797	22.199680
12150.562234	-218.845000	749.141602	-44.065819
12150.562234	-218.845000	747.941406	103.769974
12150.562234	-218.845000	746.740234	125.513321
12150.562234	-218.845000	745.539063	93.727272
12150.562234	-218.845000	744.337891	41.228100
12150.562234	-218.845000	743.135742	-33.694103
12150.562234	-218.845000	741.933594	96.640472
12150.562234	-218.845000	740.731445	101.019272
12150.562234	-218.845000	739.529297	146.752228
12150.562234	-218.845000	738.326172	14.908166
12150.562234	-218.845000	737.124023	148.486679
12150.562234	-218.845000	735.919922	331.958160
12150.562234	-218.845000	734.716797	396.470093
12150.562234	-218.845000	733.513672	302.487305
12150.562234	-218.845000	732.309570	513.296814
12150.562234	-218.845000	731.105469	395.185455
12150.562234	-218.845000	729.900391	356.277161
12150.562234	-218.845000	728.696289	461.907715
12150.562234	-218.845000	727.491211	300.805450
12150.562234	-218.845000	726.286133	291.114807
12150.562234	-218.845000	725.080078	174.785217
12150.562234	-218.845000	723.874023	202.907455
12150.562234	-218.845000	722.668945	148.480484
12150.562234	-218.845000	721.461914	107.806587
12150.562234	-218.845000	720.255859	128.981674
12150.562234	-218.845000	719.048828	74.538521
12150.562234	-218.845000	717.841797	85.361412
12150.562234	-218.845000	716.634766	87.569839
12150.562234	-218.845000	715.427734	110.355080
12150.562234	-218.845000	714.219727	74.748512
12150.562234	-218.845000	713.011719	-53.537891
12150.562234	-218.845000	711.803711	-59.976410
12150.562234	-218.845000	710.594727	158.283112
12150.562234	-218.845000	709.385742	0.831630
12150.562234	-218.845000	708.176758	-53.697670
12150.562234	-218.845000	706.967773	-94.514381
12150.562234	-218.845000	705.758789	0.063991
12150.562234	-218.845000	704.548828	77.443184
12150.562234	-218.845000	703.338867	144.484756
12150.562234	-218.845000	702.127930	-21.477837
12150.562234	-218.845000	700.917969	-106.909676
12150.562234	-218.845000	699.707031	-48.508060
12150.562234	-218.845000	698.496094	28.673140
12150.562234	-218.845000	697.285156	-68.771446
12150.562234	-218.845000	696.073242	-31.024118
12150.562234	-218.845000	694.861328	-73.723625
12150.562234	-218.845000	693.649414	5.004941
12150.562234	-218.845000	692.436523	40.925022
12150.562234	-218.845000	691.224609	87.060204
12150.562234	-218.845000	690.011719	25.464794
12150.562234	-218.845000	688.798828	143.306320
12150.562234	-218.845000	687.584961	-61.847645
12150.562234	-218.845000	686.372070	175.483688
12150.562234	-218.845000	685.158203	182.128891
12150.562234	-218.845000	683.943359	-16.154360
12150.562234	-218.845000	682.729492	74.123154
12150.562234	-218.845000	681.514648	43.155613
12150.562234	-218.845000	680.299805	155.512070
12150.562234	-218.845000	679.084961	129.603119
12150.562234	-218.845000	677.869141	231.605515
12150.562234	-218.845000	676.653320	-21.172798
12150.562234	-218.845000	675.437500	162.601593
12150.562234	-218.845000	674.221680	138.307556
12150.562234	-218.845000	673.004883	120.813202
12150.562234	-218.845000	671.789063	67.515427
12150.562234	-218.845000	670.571289	176.049866
12150.562234	-218.845000	669.354492	166.990280
12150.562234	-218.845000	668.136719	115.336014
12150.562234	-218.845000	666.919922	-19.746294
12150.562234	-218.845000	665.701172	52.858719
12150.562234	-218.845000	664.483398	-7.333033
12150.562234	-218.845000	663.264648	95.806564
12150.562234	-218.845000	662.045898	161.451447
12150.562234	-218.845000	660.827148	198.128464
12150.562234	-218.845000	659.608398	98.736511
12150.562234	-218.845000	658.388672	114.955009
12150.562234	-218.845000	657.168945	-9.927750
12150.562234	-218.845000	655.949219	172.774277
12150.562234	-218.845000	654.728516	73.358101
12150.562234	-218.845000	653.507813	108.137993
12150.562234	-218.845000	652.287109	69.853226
12150.562234	-218.845000	651.066406	165.682007
12150.562234	-218.845000	649.844727	49.262142
12150.562234	-218.845000	648.623047	87.296646
12150.562234	-218.845000	647.401367	96.442284
12150.562234	-218.845000	646.179688	154.749863
12150.562234	-218.845000	644.957031	119.723770
12150.562234	-218.845000	643.734375	-73.010963
12150.562234	-218.845000	642.511719	58.106243
12150.562234	-218.845000	641.289063	65.409897
12150.562234	-218.845000	640.065430	94.711449
12150.562234	-218.845000	638.841797	184.963165
12150.562234	-218.845000	637.618164	39.702705
12150.562234	-218.845000	636.393555	-3.914798
12150.562234	-218.845000	635.168945	50.658710
12150.562234	-218.845000	633.944336	89.946243
12150.562234	-218.845000	632.719727	139.342392
12150.562234	-218.845000	631.494141	112.547150
12150.562234	-218.845000	630.269531	-69.902252
12150.562234	-218.845000	629.042969	-76.403137
12150.562234	-218.845000	627.817383	84.478104
12150.562234	-218.845000	626.590820	54.222332
12150.562234	-218.845000	625.365234	-62.252670
12150.562234	-218.845000	624.137695	66.330345
12150.562234	-218.845000	622.911133	-43.395531
12150.562234	-218.845000	621.683594	41.153923
12150.562234	-218.845000	620.456055	2.354208
12150.562234	-218.845000	619.228516	-88.798965
12150.562234	-218.845000	618.000977	2.375173
12150.562234	-218.845000	616.772461	-16.221470
12150.562234	-218.845000	615.543945	14.096773
12150.562234	-218.845000	614.314453	-11.298010
12150.562234	-218.845000	613.085938	-2.975846
12150.562234	-218.845000	611.856445	-28.410950
12150.562234	-218.845000	610.626953	42.237713
12150.562234	-218.845000	609.397461	52.147022
12150.562234	-218.845000	608.166992	-71.109856
12150.562234	-218.845000	606.936523	28.065022
12150.562234	-218.845000	605.706055	-93.503998
12150.562234	-218.845000	604.474609	-115.681305
12150.562234	-218.845000	603.244141	-141.243118
12150.562234	-218.845000	602.012695	-180.288971
12150.562234	-218.845000	600.780273	-66.182564
12150.562234	-218.845000	599.548828	-39.653107
12150.562234	-218.845000	598.316406	77.687538
12150.562234	-218.845000	597.083984	82.256340
12150.562234	-218.845000	595.851563	-135.183868
12150.562234	-218.845000	594.618164	-19.657297
12150.562234	-218.845000	593.384766	-132.815765
12150.562234	-218.845000	592.151367	-98.059044
12150.562234	-218.845000	590.917969	-59.982193
12150.562234	-218.845000	589.683594	-116.020645
12150.562234	-218.845000	588.449219	22.764690
12150.562234	-218.845000	587.214844	-55.147053
12150.562234	-218.845000	585.979492	-106.189880
12150.562234	-218.845000	584.745117	-46.457783
12150.562234	-218.845000	583.509766	-42.153408
12150.562234	-218.845000	582.273438	-91.563797
12150.562234	-218.845000	581.038086	-58.785744
12150.562234	-218.845000	579.801758	-141.760803
12150.562234	-218.845000	578.565430	-11.788507
12150.562234	-218.845000	577.329102	56.080963
12150.562234	-218.845000	576.091797	-68.837547
12150.562234	-218.845000	574.854492	62.638401
12150.562234	-218.845000	573.617188	-30.446644
12150.562234	-218.845000	572.378906	72.444267
12150.562234	-218.845000	571.141602	16.188726
12150.562234	-218.845000	569.903320	-43.415386
12150.562234	-218.845000	568.664063	77.752098
12150.562234	-218.845000	567.425781	-57.191887
12150.562234	-218.845000	566.186523	-69.967155
12150.562234	-218.845000	564.947266	-54.323776
12150.562234	-218.845000	563.708008	18.150431
12150.562234	-218.845000	562.467773	127.354050
12150.562234	-218.845000	561.227539	174.636169
12150.562234	-218.845000	559.987305	41.374271
12150.562234	-218.845000	558.747070	203.903870
12150.562234	-218.845000	557.505859	65.633705
12150.562234	-218.845000	556.264648	44.316212
12150.562234	-218.845000	555.023438	136.535889
12150.562234	-218.845000	553.781250	272.099335
12150.562234	-218.845000	552.539063	112.140396
12150.562234	-218.845000	551.296875	192.535019
12150.562234	-218.845000	550.054688	249.513168
12150.562234	-218.845000	548.811523	-62.204098
12150.562234	-218.845000	547.569336	-91.964256
12150.562234	-218.845000	546.325195	-6.687671
12150.562234	-218.845000	545.082031	-8.155258
12150.562234	-218.845000	543.837891	-27.979712
12150.562234	-218.845000	542.593750	-22.825031
12150.562234	-218.845000	541.349609	113.913666
12150.562234	-218.845000	540.105469	-39.242260
12150.562234	-218.845000	538.860352	47.435333
12150.562234	-218.845000	537.615234	-75.722435
12150.562234	-218.845000	536.369141	-125.613968
12150.562234	-218.845000	535.124023	-35.718372
12150.562234	-218.845000	533.877930	29.156427
12150.562234	-218.845000	532.631836	-14.146236
12150.562234	-218.845000	531.384766	17.382315
12150.562234	-218.845000	530.138672	-24.287247
12150.562234	-218.845000	528.891602	57.050106
12150.562234	-218.845000	527.643555	-54.469257
12150.562234	-218.845000	526.396484	133.133682
12150.562234	-218.845000	525.148438	-114.635445
12150.562234	-218.845000	523.900391	-55.048550
12150.562234	-218.845000	522.652344	69.247986
12150.562234	-218.845000	521.403320	-68.855675
12150.562234	-218.845000	520.154297	53.672756
12150.562234	-218.845000	518.905273	31.740522
12150.562234	-218.845000	517.656250	33.017052
12150.562234	-218.845000	516.406250	12.696527
12150.562234	-218.845000	515.156250	105.129066
12150.562234	-218.845000	513.906250	-19.720093
12150.562234	-218.845000	512.655273	-64.977722
12150.562234	-218.845000	511.404297	-106.933388
12150.562234	-218.845000	510.153320	-82.623390
12150.562234	-218.845000	508.902344	49.326546
12150.562234	-218.845000	507.650391	3.956899
12150.562234	-218.845000	506.398438	-6.653272
12150.562234	-218.845000	505.146484	20.783306
12150.562234	-218.845000	503.893555	23.340599
12150.562234	-218.845000	502.641602	52.338768
12150.562234	-218.845000	501.388672	-46.116482
12150.562234	-218.845000	500.134766	32.426918
12150.562234	-218.845000	498.881836	34.820923
12150.562234	-218.845000	497.627930	27.248569
12150.562234	-218.845000	496.374023	166.763916
12150.562234	-218.845000	495.119141	41.730473
12150.562234	-218.845000	493.865234	24.113537
12150.562234	-218.845000	492.610352	56.016609
12150.562234	-218.845000	491.355469	-9.592242
12150.562234	-218.845000	490.099609	65.138916
12150.562234	-218.845000	488.843750	12.661030
12150.562234	-218.845000	487.587891	171.433609
12150.562234	-218.845000	486.332031	285.525970
12150.562234	-218.845000	485.075195	120.675880
12150.562234	-218.845000	483.818359	168.632111
12150.562234	-218.845000	482.561523	101.064384
12150.562234	-218.845000	481.304688	206.594513
12150.562234	-218.845000	480.046875	307.068298
12150.562234	-218.845000	478.789063	374.470703
12150.562234	-218.845000	477.531250	263.817444
12150.562234	-218.845000	476.272461	355.774750
12150.562234	-218.845000	475.013672	337.267029
12150.562234	-218.845000	473.754883	387.857574
12150.562234	-218.845000	472.496094	324.751312
12150.562234	-218.845000	471.236328	245.132523
12150.562234	-218.845000	469.976563	280.664795
12150.562234	-218.845000	468.716797	207.508820
12150.562234	-218.845000	467.456055	356.365112
12150.562234	-218.845000	466.196289	311.010742
12150.562234	-218.845000	464.935547	459.602783
12150.562234	-218.845000	463.673828	593.239990
12150.562234	-218.845000	462.413086	429.249298
12150.562234	-218.845000	461.151367	352.315552
12150.562234	-218.845000	459.889648	401.810211
12150.562234	-218.845000	458.626953	498.806702
12150.562234	-218.845000	457.364258	533.253601
12150.562234	-218.845000	456.101563	326.236603
12150.562234	-218.845000	454.838867	368.687897
12150.562234	-218.845000	453.575195	458.587463
12150.562234	-218.845000	452.312500	356.371338
12150.562234	-218.845000	451.047852	477.151581
12150.562234	-218.845000	449.784180	466.555908
12150.562234	-218.845000	448.519531	352.531036
12150.562234	-218.845000	447.254883	430.213013
12150.562234	-218.845000	445.990234	404.468903
12150.562234	-218.845000	444.725586	581.772156
12150.562234	-218.845000	443.459961	613.043335
12150.562234	-218.845000	442.194336	457.433197
12150.562234	-218.845000	440.927734	526.062073
12150.562234	-218.845000	439.662109	586.318176
12150.562234	-218.845000	438.395508	680.747070
12150.562234	-218.845000	437.127930	563.856323
12150.562234	-218.845000	435.861328	566.276733
12150.562234	-218.845000	434.593750	524.342712
12150.562234	-218.845000	433.326172	537.840759
12150.562234	-218.845000	432.058594	601.823059
12150.562234	-218.845000	430.790039	577.301392
12150.562234	-218.845000	429.521484	464.330780
12150.562234	-218.845000	428.252930	545.637878
12150.562234	-218.845000	426.984375	402.888611
12150.562234	-218.845000	425.714844	558.854370
12150.562234	-218.845000	424.445313	454.892822
12150.562234	-218.845000	423.174805	603.774658
12150.562234	-218.845000	421.905273	370.425507
12150.562234	-218.845000	420.634766	407.802734
12150.562234	-218.845000	419.364258	603.158630
12150.562234	-218.845000	418.092773	498.031952
12150.562234	-218.845000	416.822266	417.148132
12150.562234	-218.845000	415.550781	520.247375
12150.562234	-218.845000	414.278320	621.376221
12150.562234	-218.845000	413.006836	456.533325
12150.562234	-218.845000	411.734375	524.446350
12150.562234	-218.845000	410.461914	458.440033
12150.562234	-218.845000	409.188477	418.191986
12150.562234	-218.845000	407.916016	410.207825
12150.562234	-218.845000	406.642578	439.321899
12150.562234	-218.845000	405.368164	459.928955
12150.562234	-218.845000	404.094727	499.707428
12150.562234	-218.845000	402.820313	391.047119
12150.562234	-218.845000	401.545898	493.507599
12150.562234	-218.845000	400.270508	532.105957
12150.562234	-218.845000	398.996094	487.387115
12150.562234	-218.845000	397.720703	471.528931
12150.562234	-218.845000	396.444336	445.498718
12150.562234	-218.845000	395.168945	315.079987
12150.562234	-218.845000	393.892578	375.947937
12150.562234	-218.845000	392.616211	364.881378
12150.562234	-218.845000	391.339844	374.467804
12150.562234	-218.845000	390.062500	269.928833
12150.562234	-218.845000	388.785156	358.087494
12150.562234	-218.845000	387.507813	405.144806
12150.562234	-218.845000	386.229492	328.363525
12150.562234	-218.845000	384.951172	264.067932
12150.562234	-218.845000	383.672852	268.993500
12150.562234	-218.845000	382.394531	343.081390
12150.562234	-218.845000	381.115234	418.179565
12150.562234	-218.845000	379.835938	345.200745
12150.562234	-218.845000	378.556641	292.725952
12150.562234	-218.845000	377.277344	430.807648
12150.562234	-218.845000	375.997070	441.872833
12150.562234	-218.845000	374.716797	272.577057
12150.562234	-218.845000	373.435547	253.230545
12150.562234	-218.845000	372.155273	181.456558
12150.562234	-218.845000	370.874023	222.276031
12150.562234	-218.845000	369.591797	165.296646
12150.562234	-218.845000	368.310547	86.622330
12150.562234	-218.845000	367.028320	104.248436
12150.562234	-218.845000	365.746094	43.519291
12150.562234	-218.845000	364.463867	101.655159
12150.562234	-218.845000	363.180664	55.537506
12150.562234	-218.845000	361.897461	57.104088
12150.562234	-218.845000	360.614258	56.232361
12150.562234	-218.845000	359.330078	107.785263
12150.562234	-218.845000	358.045898	121.321396
12150.562234	-218.845000	356.761719	219.521835
12150.562234	-218.845000	355.477539	69.862228
12150.562234	-218.845000	354.192383	17.741421
12150.562234	-218.845000	352.907227	58.262093
12150.562234	-218.845000	351.622070	-76.378593
12150.562234	-218.845000	350.336914	-42.641064
12150.562234	-218.845000	349.050781	-132.474701
12150.562234	-218.845000	347.764648	78.093597
12150.562234	-218.845000	346.477539	87.672585
12150.562234	-218.845000	345.191406	33.374420
12150.562234	-218.845000	343.904297	-42.974907
12150.562234	-218.845000	342.616211	-10.949180
12150.562234	-218.845000	341.329102	-60.550762
12150.562234	-218.845000	340.041016	101.126915
12150.562234	-218.845000	338.752930	152.102509
12150.562234	-218.845000	337.463867	45.724724
12150.562234	-218.845000	336.175781	86.165474
12150.562234	-218.845000	334.886719	-1.781227
12150.562234	-218.845000	333.596680	-17.078445
12150.562234	-218.845000	332.307617	-27.235535
12150.562234	-218.845000	331.017578	-90.225510
12150.562234	-218.845000	329.727539	-54.961113
12150.562234	-218.845000	328.436523	-177.009247
12150.562234	-218.845000	327.146484	67.384796
12150.562234	-218.845000	325.855469	-6.194017
12150.562234	-218.845000	324.563477	-42.778107
12150.562234	-218.845000	323.272461	-11.829384
12150.562234	-218.845000	321.980469	1.427015
12150.562234	-218.845000	320.688477	-91.219528
12150.562234	-218.845000	319.395508	-151.844818
12150.562234	-218.845000	318.103516	-172.376068
12150.562234	-218.845000	316.810547	-177.034698
12150.562234	-218.845000	315.516602	-273.267609
12150.562234	-218.845000	314.223633	26.257753
12150.562234	-218.845000	312.929688	-57.569393
12150.562234	-218.845000	311.635742	-71.137650
12150.562234	-218.845000	310.340820	-102.677834
12150.562234	-218.845000	309.045898	-1.643476
12150.562234	-218.845000	307.750977	148.594910
12150.562234	-218.845000	306.456055	389.580261
12150.562234	-218.845000	305.160156	188.290100
12150.562234	-218.845000	303.865234	541.790710
12150.562234	-218.845000	302.568359	366.632874
12150.562234	-218.845000	301.272461	651.579590
12150.562234	-218.845000	299.975586	691.090515
12150.562234	-218.845000	298.678711	712.327332
