#X		#Y		#Wave		#Intensity
11673.836702	1484.020000	1999.980469	27.473177
11673.836702	1484.020000	1999.016602	-0.820987
11673.836702	1484.020000	1998.052734	2.674636
11673.836702	1484.020000	1997.087891	30.961275
11673.836702	1484.020000	1996.123047	-0.214393
11673.836702	1484.020000	1995.158203	-16.503448
11673.836702	1484.020000	1994.193359	-3.053798
11673.836702	1484.020000	1993.228516	2.973228
11673.836702	1484.020000	1992.262695	65.952713
11673.836702	1484.020000	1991.297852	74.462776
11673.836702	1484.020000	1990.332031	-11.067013
11673.836702	1484.020000	1989.366211	27.168306
11673.836702	1484.020000	1988.399414	10.971111
11673.836702	1484.020000	1987.433594	101.153328
11673.836702	1484.020000	1986.466797	67.657570
11673.836702	1484.020000	1985.500977	56.438782
11673.836702	1484.020000	1984.534180	-28.931715
11673.836702	1484.020000	1983.567383	93.361969
11673.836702	1484.020000	1982.599609	5.563443
11673.836702	1484.020000	1981.632813	9.226711
11673.836702	1484.020000	1980.665039	-48.861248
11673.836702	1484.020000	1979.697266	-20.473204
11673.836702	1484.020000	1978.729492	27.668503
11673.836702	1484.020000	1977.761719	-74.804947
11673.836702	1484.020000	1976.792969	37.526157
11673.836702	1484.020000	1975.825195	51.103161
11673.836702	1484.020000	1974.856445	64.682892
11673.836702	1484.020000	1973.887695	56.061378
11673.836702	1484.020000	1972.918945	81.984314
11673.836702	1484.020000	1971.949219	-84.458870
11673.836702	1484.020000	1970.980469	-38.778076
11673.836702	1484.020000	1970.010742	-12.829907
11673.836702	1484.020000	1969.041016	-21.391613
11673.836702	1484.020000	1968.071289	-111.267059
11673.836702	1484.020000	1967.101563	-48.339691
11673.836702	1484.020000	1966.130859	-22.381113
11673.836702	1484.020000	1965.161133	25.742002
11673.836702	1484.020000	1964.190430	54.152641
11673.836702	1484.020000	1963.219727	18.545444
11673.836702	1484.020000	1962.249023	19.881931
11673.836702	1484.020000	1961.277344	11.378830
11673.836702	1484.020000	1960.306641	17.649870
11673.836702	1484.020000	1959.334961	-5.599124
11673.836702	1484.020000	1958.363281	42.500038
11673.836702	1484.020000	1957.391602	4.510210
11673.836702	1484.020000	1956.419922	32.929783
11673.836702	1484.020000	1955.447266	-17.325741
11673.836702	1484.020000	1954.474609	-77.389404
11673.836702	1484.020000	1953.501953	-4.720337
11673.836702	1484.020000	1952.529297	-0.870668
11673.836702	1484.020000	1951.556641	17.721970
11673.836702	1484.020000	1950.583984	-2.985772
11673.836702	1484.020000	1949.610352	72.089615
11673.836702	1484.020000	1948.636719	26.835564
11673.836702	1484.020000	1947.663086	-42.944832
11673.836702	1484.020000	1946.689453	78.740730
11673.836702	1484.020000	1945.715820	8.984895
11673.836702	1484.020000	1944.741211	-31.300920
11673.836702	1484.020000	1943.767578	-56.849586
11673.836702	1484.020000	1942.792969	67.215569
11673.836702	1484.020000	1941.818359	-14.731969
11673.836702	1484.020000	1940.842773	30.835451
11673.836702	1484.020000	1939.868164	29.818716
11673.836702	1484.020000	1938.892578	16.551809
11673.836702	1484.020000	1937.916992	76.798836
11673.836702	1484.020000	1936.941406	-19.756981
11673.836702	1484.020000	1935.965820	55.175751
11673.836702	1484.020000	1934.990234	49.272202
11673.836702	1484.020000	1934.013672	21.337637
11673.836702	1484.020000	1933.037109	10.551184
11673.836702	1484.020000	1932.060547	-39.388054
11673.836702	1484.020000	1931.083984	-8.555142
11673.836702	1484.020000	1930.107422	66.306152
11673.836702	1484.020000	1929.129883	45.743538
11673.836702	1484.020000	1928.153320	-40.841183
11673.836702	1484.020000	1927.175781	-22.249447
11673.836702	1484.020000	1926.198242	-8.552380
11673.836702	1484.020000	1925.219727	76.024544
11673.836702	1484.020000	1924.242188	31.049860
11673.836702	1484.020000	1923.263672	-11.463638
11673.836702	1484.020000	1922.285156	58.413158
11673.836702	1484.020000	1921.306641	98.956017
11673.836702	1484.020000	1920.328125	63.783005
11673.836702	1484.020000	1919.349609	21.299524
11673.836702	1484.020000	1918.370117	-23.608797
11673.836702	1484.020000	1917.391602	38.888279
11673.836702	1484.020000	1916.412109	45.238384
11673.836702	1484.020000	1915.431641	2.792004
11673.836702	1484.020000	1914.452148	155.502899
11673.836702	1484.020000	1913.472656	47.205208
11673.836702	1484.020000	1912.492188	-22.038452
11673.836702	1484.020000	1911.511719	-42.498436
11673.836702	1484.020000	1910.531250	44.296597
11673.836702	1484.020000	1909.550781	101.815292
11673.836702	1484.020000	1908.569336	-13.681471
11673.836702	1484.020000	1907.588867	-14.639577
11673.836702	1484.020000	1906.607422	67.212837
11673.836702	1484.020000	1905.625977	73.544380
11673.836702	1484.020000	1904.644531	-7.776397
11673.836702	1484.020000	1903.662109	-45.251545
11673.836702	1484.020000	1902.680664	24.373978
11673.836702	1484.020000	1901.698242	62.339073
11673.836702	1484.020000	1900.715820	58.929790
11673.836702	1484.020000	1899.733398	-5.289999
11673.836702	1484.020000	1898.750000	-71.919525
11673.836702	1484.020000	1897.767578	19.524296
11673.836702	1484.020000	1896.784180	-20.345613
11673.836702	1484.020000	1895.800781	34.592003
11673.836702	1484.020000	1894.817383	-36.860699
11673.836702	1484.020000	1893.833984	35.064255
11673.836702	1484.020000	1892.850586	36.512527
11673.836702	1484.020000	1891.866211	74.389771
11673.836702	1484.020000	1890.881836	66.112663
11673.836702	1484.020000	1889.897461	-12.572299
11673.836702	1484.020000	1888.913086	112.674873
11673.836702	1484.020000	1887.927734	21.871172
11673.836702	1484.020000	1886.943359	30.587347
11673.836702	1484.020000	1885.958008	-31.058569
11673.836702	1484.020000	1884.972656	48.001968
11673.836702	1484.020000	1883.987305	88.227852
11673.836702	1484.020000	1883.001953	-36.443985
11673.836702	1484.020000	1882.015625	23.170908
11673.836702	1484.020000	1881.029297	0.351774
11673.836702	1484.020000	1880.042969	-51.542095
11673.836702	1484.020000	1879.056641	8.033902
11673.836702	1484.020000	1878.070313	67.584564
11673.836702	1484.020000	1877.083984	22.964298
11673.836702	1484.020000	1876.096680	-65.230339
11673.836702	1484.020000	1875.109375	20.922485
11673.836702	1484.020000	1874.122070	-50.300934
11673.836702	1484.020000	1873.134766	26.129353
11673.836702	1484.020000	1872.146484	-1.520682
11673.836702	1484.020000	1871.159180	77.284164
11673.836702	1484.020000	1870.170898	20.601791
11673.836702	1484.020000	1869.182617	-21.552677
11673.836702	1484.020000	1868.194336	-37.098259
11673.836702	1484.020000	1867.205078	68.230019
11673.836702	1484.020000	1866.216797	-24.678095
11673.836702	1484.020000	1865.227539	-49.892921
11673.836702	1484.020000	1864.238281	7.044539
11673.836702	1484.020000	1863.249023	30.137875
11673.836702	1484.020000	1862.259766	-21.652536
11673.836702	1484.020000	1861.269531	42.478798
11673.836702	1484.020000	1860.279297	87.267250
11673.836702	1484.020000	1859.290039	-49.001488
11673.836702	1484.020000	1858.298828	82.658997
11673.836702	1484.020000	1857.308594	122.575386
11673.836702	1484.020000	1856.318359	-32.937321
11673.836702	1484.020000	1855.327148	21.447842
11673.836702	1484.020000	1854.335938	39.634243
11673.836702	1484.020000	1853.344727	-43.457043
11673.836702	1484.020000	1852.353516	47.044529
11673.836702	1484.020000	1851.362305	123.045876
11673.836702	1484.020000	1850.370117	42.379547
11673.836702	1484.020000	1849.377930	-79.219269
11673.836702	1484.020000	1848.385742	-56.247711
11673.836702	1484.020000	1847.393555	-23.656273
11673.836702	1484.020000	1846.401367	37.812798
11673.836702	1484.020000	1845.408203	-9.083901
11673.836702	1484.020000	1844.415039	25.870291
11673.836702	1484.020000	1843.421875	63.212666
11673.836702	1484.020000	1842.428711	76.473930
11673.836702	1484.020000	1841.435547	99.347389
11673.836702	1484.020000	1840.441406	105.369408
11673.836702	1484.020000	1839.448242	41.645786
11673.836702	1484.020000	1838.454102	146.241257
11673.836702	1484.020000	1837.459961	0.790487
11673.836702	1484.020000	1836.464844	50.063705
11673.836702	1484.020000	1835.470703	-30.446510
11673.836702	1484.020000	1834.475586	107.694145
11673.836702	1484.020000	1833.480469	56.015156
11673.836702	1484.020000	1832.485352	21.160498
11673.836702	1484.020000	1831.490234	91.963135
11673.836702	1484.020000	1830.495117	6.687915
11673.836702	1484.020000	1829.499023	130.258347
11673.836702	1484.020000	1828.502930	37.795254
11673.836702	1484.020000	1827.506836	108.515129
11673.836702	1484.020000	1826.510742	131.224335
11673.836702	1484.020000	1825.513672	41.191566
11673.836702	1484.020000	1824.517578	-39.221313
11673.836702	1484.020000	1823.520508	-26.107700
11673.836702	1484.020000	1822.523438	56.509209
11673.836702	1484.020000	1821.526367	110.328835
11673.836702	1484.020000	1820.529297	-3.610286
11673.836702	1484.020000	1819.531250	33.416088
11673.836702	1484.020000	1818.533203	-13.412568
11673.836702	1484.020000	1817.535156	35.561909
11673.836702	1484.020000	1816.537109	70.144653
11673.836702	1484.020000	1815.539063	-0.624330
11673.836702	1484.020000	1814.540039	103.347588
11673.836702	1484.020000	1813.541992	99.589149
11673.836702	1484.020000	1812.542969	107.786613
11673.836702	1484.020000	1811.543945	17.897820
11673.836702	1484.020000	1810.543945	35.659176
11673.836702	1484.020000	1809.544922	34.277946
11673.836702	1484.020000	1808.544922	23.325840
11673.836702	1484.020000	1807.544922	57.786362
11673.836702	1484.020000	1806.544922	46.819641
11673.836702	1484.020000	1805.544922	11.955676
11673.836702	1484.020000	1804.544922	-15.735736
11673.836702	1484.020000	1803.543945	169.150223
11673.836702	1484.020000	1802.542969	62.618580
11673.836702	1484.020000	1801.541992	3.871460
11673.836702	1484.020000	1800.541016	124.173729
11673.836702	1484.020000	1799.539063	-18.112541
11673.836702	1484.020000	1798.538086	-67.288719
11673.836702	1484.020000	1797.536133	-16.252466
11673.836702	1484.020000	1796.534180	-91.665222
11673.836702	1484.020000	1795.532227	26.117537
11673.836702	1484.020000	1794.529297	7.935134
11673.836702	1484.020000	1793.527344	111.335403
11673.836702	1484.020000	1792.524414	2.554646
11673.836702	1484.020000	1791.521484	101.133865
11673.836702	1484.020000	1790.518555	-7.619348
11673.836702	1484.020000	1789.514648	145.697800
11673.836702	1484.020000	1788.511719	32.198391
11673.836702	1484.020000	1787.507813	47.321056
11673.836702	1484.020000	1786.503906	95.761620
11673.836702	1484.020000	1785.500000	144.175827
11673.836702	1484.020000	1784.496094	18.830524
11673.836702	1484.020000	1783.491211	136.228302
11673.836702	1484.020000	1782.486328	127.486649
11673.836702	1484.020000	1781.481445	-26.351719
11673.836702	1484.020000	1780.476563	-6.538025
11673.836702	1484.020000	1779.471680	75.079086
11673.836702	1484.020000	1778.465820	2.137931
11673.836702	1484.020000	1777.460938	-47.014599
11673.836702	1484.020000	1776.455078	27.409834
11673.836702	1484.020000	1775.449219	25.770960
11673.836702	1484.020000	1774.442383	50.252964
11673.836702	1484.020000	1773.436523	60.468914
11673.836702	1484.020000	1772.429688	-0.562683
11673.836702	1484.020000	1771.422852	-4.602422
11673.836702	1484.020000	1770.416016	102.910492
11673.836702	1484.020000	1769.409180	25.269266
11673.836702	1484.020000	1768.402344	101.874550
11673.836702	1484.020000	1767.394531	59.829666
11673.836702	1484.020000	1766.386719	-62.848351
11673.836702	1484.020000	1765.378906	6.590747
11673.836702	1484.020000	1764.371094	-35.436283
11673.836702	1484.020000	1763.362305	45.806187
11673.836702	1484.020000	1762.354492	100.941162
11673.836702	1484.020000	1761.345703	66.003601
11673.836702	1484.020000	1760.336914	47.654865
11673.836702	1484.020000	1759.328125	79.046349
11673.836702	1484.020000	1758.318359	46.475891
11673.836702	1484.020000	1757.308594	80.206207
11673.836702	1484.020000	1756.299805	9.756630
11673.836702	1484.020000	1755.290039	-37.007156
11673.836702	1484.020000	1754.279297	13.259574
11673.836702	1484.020000	1753.269531	-42.966766
11673.836702	1484.020000	1752.258789	7.265902
11673.836702	1484.020000	1751.249023	-13.478089
11673.836702	1484.020000	1750.238281	-22.400253
11673.836702	1484.020000	1749.226563	18.318258
11673.836702	1484.020000	1748.215820	-28.441282
11673.836702	1484.020000	1747.204102	12.247262
11673.836702	1484.020000	1746.193359	5.658257
11673.836702	1484.020000	1745.181641	13.236364
11673.836702	1484.020000	1744.168945	-2.816016
11673.836702	1484.020000	1743.157227	21.275528
11673.836702	1484.020000	1742.144531	-32.563423
11673.836702	1484.020000	1741.132813	36.359058
11673.836702	1484.020000	1740.120117	98.166031
11673.836702	1484.020000	1739.106445	-14.671795
11673.836702	1484.020000	1738.093750	-47.261028
11673.836702	1484.020000	1737.080078	-13.802374
11673.836702	1484.020000	1736.067383	21.995525
11673.836702	1484.020000	1735.053711	48.339413
11673.836702	1484.020000	1734.040039	-14.914316
11673.836702	1484.020000	1733.025391	-23.943542
11673.836702	1484.020000	1732.011719	-37.688541
11673.836702	1484.020000	1730.997070	21.599859
11673.836702	1484.020000	1729.982422	-60.476303
11673.836702	1484.020000	1728.967773	-50.678715
11673.836702	1484.020000	1727.952148	-19.701393
11673.836702	1484.020000	1726.937500	-19.346849
11673.836702	1484.020000	1725.921875	79.857422
11673.836702	1484.020000	1724.906250	-11.602487
11673.836702	1484.020000	1723.890625	-15.978475
11673.836702	1484.020000	1722.875000	-20.359856
11673.836702	1484.020000	1721.858398	8.179676
11673.836702	1484.020000	1720.841797	67.270782
11673.836702	1484.020000	1719.825195	-68.806458
11673.836702	1484.020000	1718.808594	-37.944824
11673.836702	1484.020000	1717.791992	-44.704323
11673.836702	1484.020000	1716.774414	33.120384
11673.836702	1484.020000	1715.756836	-58.239185
11673.836702	1484.020000	1714.739258	28.939684
11673.836702	1484.020000	1713.721680	45.627502
11673.836702	1484.020000	1712.704102	-15.179099
11673.836702	1484.020000	1711.685547	55.487888
11673.836702	1484.020000	1710.667969	-38.168953
11673.836702	1484.020000	1709.649414	-0.389951
11673.836702	1484.020000	1708.630859	-4.861987
11673.836702	1484.020000	1707.611328	100.906364
11673.836702	1484.020000	1706.592773	35.428024
11673.836702	1484.020000	1705.573242	63.757805
11673.836702	1484.020000	1704.553711	-41.555801
11673.836702	1484.020000	1703.534180	-60.112103
11673.836702	1484.020000	1702.513672	-34.143818
11673.836702	1484.020000	1701.494141	10.553686
11673.836702	1484.020000	1700.473633	-97.037582
11673.836702	1484.020000	1699.453125	-21.911583
11673.836702	1484.020000	1698.432617	78.937363
11673.836702	1484.020000	1697.412109	1.812544
11673.836702	1484.020000	1696.390625	39.405289
11673.836702	1484.020000	1695.369141	16.131083
11673.836702	1484.020000	1694.347656	16.258062
11673.836702	1484.020000	1693.326172	11.700846
11673.836702	1484.020000	1692.304688	60.935089
11673.836702	1484.020000	1691.282227	-20.811277
11673.836702	1484.020000	1690.260742	68.145988
11673.836702	1484.020000	1689.238281	40.183323
11673.836702	1484.020000	1688.214844	-8.809804
11673.836702	1484.020000	1687.192383	-64.797806
11673.836702	1484.020000	1686.168945	-90.399879
11673.836702	1484.020000	1685.146484	159.626617
11673.836702	1484.020000	1684.123047	10.208632
11673.836702	1484.020000	1683.099609	28.954817
11673.836702	1484.020000	1682.075195	3.333067
11673.836702	1484.020000	1681.051758	17.395864
11673.836702	1484.020000	1680.027344	101.452690
11673.836702	1484.020000	1679.002930	78.150803
11673.836702	1484.020000	1677.978516	15.198534
11673.836702	1484.020000	1676.953125	-19.749231
11673.836702	1484.020000	1675.928711	-57.018147
11673.836702	1484.020000	1674.903320	33.942211
11673.836702	1484.020000	1673.877930	1.328915
11673.836702	1484.020000	1672.852539	59.609097
11673.836702	1484.020000	1671.826172	17.673708
11673.836702	1484.020000	1670.800781	31.660028
11673.836702	1484.020000	1669.774414	43.306435
11673.836702	1484.020000	1668.748047	-54.499302
11673.836702	1484.020000	1667.721680	80.542953
11673.836702	1484.020000	1666.694336	52.589527
11673.836702	1484.020000	1665.667969	78.171280
11673.836702	1484.020000	1664.640625	15.320275
11673.836702	1484.020000	1663.613281	50.196266
11673.836702	1484.020000	1662.585938	40.863548
11673.836702	1484.020000	1661.557617	22.227961
11673.836702	1484.020000	1660.530273	-28.952076
11673.836702	1484.020000	1659.501953	47.733158
11673.836702	1484.020000	1658.473633	-63.866127
11673.836702	1484.020000	1657.444336	5.817757
11673.836702	1484.020000	1656.416016	-77.857628
11673.836702	1484.020000	1655.386719	87.029152
11673.836702	1484.020000	1654.358398	8.009971
11673.836702	1484.020000	1653.328125	17.245483
11673.836702	1484.020000	1652.298828	47.369419
11673.836702	1484.020000	1651.269531	-94.270988
11673.836702	1484.020000	1650.239258	0.830658
11673.836702	1484.020000	1649.208984	-40.989567
11673.836702	1484.020000	1648.178711	-41.043098
11673.836702	1484.020000	1647.148438	72.540283
11673.836702	1484.020000	1646.117188	46.953747
11673.836702	1484.020000	1645.086914	16.740433
11673.836702	1484.020000	1644.055664	14.349337
11673.836702	1484.020000	1643.024414	44.400467
11673.836702	1484.020000	1641.992188	62.852375
11673.836702	1484.020000	1640.960938	113.727707
11673.836702	1484.020000	1639.928711	108.996193
11673.836702	1484.020000	1638.896484	34.798370
11673.836702	1484.020000	1637.864258	11.560840
11673.836702	1484.020000	1636.832031	154.987076
11673.836702	1484.020000	1635.798828	-0.178730
11673.836702	1484.020000	1634.766602	154.761368
11673.836702	1484.020000	1633.733398	62.114021
11673.836702	1484.020000	1632.699219	68.953552
11673.836702	1484.020000	1631.666016	27.230831
11673.836702	1484.020000	1630.632813	1.707876
11673.836702	1484.020000	1629.598633	22.423080
11673.836702	1484.020000	1628.564453	-95.534058
11673.836702	1484.020000	1627.530273	43.033585
11673.836702	1484.020000	1626.495117	19.833593
11673.836702	1484.020000	1625.460938	31.290462
11673.836702	1484.020000	1624.425781	28.885422
11673.836702	1484.020000	1623.390625	61.114460
11673.836702	1484.020000	1622.355469	10.229392
11673.836702	1484.020000	1621.319336	104.762756
11673.836702	1484.020000	1620.284180	86.195198
11673.836702	1484.020000	1619.248047	162.222061
11673.836702	1484.020000	1618.211914	118.278061
11673.836702	1484.020000	1617.174805	44.370346
11673.836702	1484.020000	1616.138672	118.058159
11673.836702	1484.020000	1615.101563	71.844490
11673.836702	1484.020000	1614.065430	129.367432
11673.836702	1484.020000	1613.027344	48.605286
11673.836702	1484.020000	1611.990234	27.779173
11673.836702	1484.020000	1610.953125	94.493423
11673.836702	1484.020000	1609.915039	55.243988
11673.836702	1484.020000	1608.876953	165.677216
11673.836702	1484.020000	1607.838867	80.391129
11673.836702	1484.020000	1606.800781	84.904366
11673.836702	1484.020000	1605.761719	-18.739983
11673.836702	1484.020000	1604.723633	13.404226
11673.836702	1484.020000	1603.684570	105.344673
11673.836702	1484.020000	1602.644531	86.856865
11673.836702	1484.020000	1601.605469	190.249237
11673.836702	1484.020000	1600.566406	125.779716
11673.836702	1484.020000	1599.526367	144.082947
11673.836702	1484.020000	1598.486328	72.757416
11673.836702	1484.020000	1597.446289	95.665031
11673.836702	1484.020000	1596.405273	136.942413
11673.836702	1484.020000	1595.365234	-35.386211
11673.836702	1484.020000	1594.324219	113.831650
11673.836702	1484.020000	1593.283203	83.920792
11673.836702	1484.020000	1592.242188	58.615936
11673.836702	1484.020000	1591.200195	70.041504
11673.836702	1484.020000	1590.159180	109.001945
11673.836702	1484.020000	1589.117188	63.070232
11673.836702	1484.020000	1588.075195	108.903633
11673.836702	1484.020000	1587.032227	138.669571
11673.836702	1484.020000	1585.990234	83.600670
11673.836702	1484.020000	1584.947266	111.076088
11673.836702	1484.020000	1583.904297	69.791664
11673.836702	1484.020000	1582.861328	115.598816
11673.836702	1484.020000	1581.818359	188.883148
11673.836702	1484.020000	1580.775391	186.559067
11673.836702	1484.020000	1579.731445	99.509346
11673.836702	1484.020000	1578.687500	152.160767
11673.836702	1484.020000	1577.643555	108.654770
11673.836702	1484.020000	1576.598633	101.787735
11673.836702	1484.020000	1575.554688	175.016800
11673.836702	1484.020000	1574.509766	188.739777
11673.836702	1484.020000	1573.464844	163.578461
11673.836702	1484.020000	1572.419922	209.325195
11673.836702	1484.020000	1571.374023	227.621124
11673.836702	1484.020000	1570.329102	120.189896
11673.836702	1484.020000	1569.283203	165.933792
11673.836702	1484.020000	1568.237305	204.810760
11673.836702	1484.020000	1567.191406	275.662964
11673.836702	1484.020000	1566.144531	268.830505
11673.836702	1484.020000	1565.098633	70.176888
11673.836702	1484.020000	1564.051758	195.829559
11673.836702	1484.020000	1563.004883	122.834328
11673.836702	1484.020000	1561.957031	65.849457
11673.836702	1484.020000	1560.910156	157.220078
11673.836702	1484.020000	1559.862305	136.767792
11673.836702	1484.020000	1558.814453	93.520531
11673.836702	1484.020000	1557.766602	93.628067
11673.836702	1484.020000	1556.718750	18.498449
11673.836702	1484.020000	1555.669922	187.329788
11673.836702	1484.020000	1554.621094	107.665871
11673.836702	1484.020000	1553.573242	23.484798
11673.836702	1484.020000	1552.523438	146.669571
11673.836702	1484.020000	1551.474609	149.087128
11673.836702	1484.020000	1550.424805	99.129250
11673.836702	1484.020000	1549.375000	110.677345
11673.836702	1484.020000	1548.325195	37.996883
11673.836702	1484.020000	1547.275391	85.985901
11673.836702	1484.020000	1546.225586	93.002411
11673.836702	1484.020000	1545.174805	200.131790
11673.836702	1484.020000	1544.124023	38.806927
11673.836702	1484.020000	1543.073242	120.904121
11673.836702	1484.020000	1542.022461	68.820442
11673.836702	1484.020000	1540.970703	134.981400
11673.836702	1484.020000	1539.919922	101.116066
11673.836702	1484.020000	1538.868164	99.086876
11673.836702	1484.020000	1537.815430	108.426407
11673.836702	1484.020000	1536.763672	233.624435
11673.836702	1484.020000	1535.710938	249.765335
11673.836702	1484.020000	1534.659180	245.473633
11673.836702	1484.020000	1533.606445	259.354004
11673.836702	1484.020000	1532.552734	266.427338
11673.836702	1484.020000	1531.500000	278.047302
11673.836702	1484.020000	1530.446289	210.258804
11673.836702	1484.020000	1529.393555	289.958527
11673.836702	1484.020000	1528.338867	188.192108
11673.836702	1484.020000	1527.285156	256.545135
11673.836702	1484.020000	1526.231445	177.517715
11673.836702	1484.020000	1525.176758	193.730988
11673.836702	1484.020000	1524.122070	194.084000
11673.836702	1484.020000	1523.067383	87.955452
11673.836702	1484.020000	1522.012695	83.819077
11673.836702	1484.020000	1520.957031	102.342247
11673.836702	1484.020000	1519.901367	109.546478
11673.836702	1484.020000	1518.845703	-21.345247
11673.836702	1484.020000	1517.790039	69.652977
11673.836702	1484.020000	1516.734375	24.839809
11673.836702	1484.020000	1515.677734	2.680531
11673.836702	1484.020000	1514.621094	211.285461
11673.836702	1484.020000	1513.564453	35.320465
11673.836702	1484.020000	1512.507813	40.340763
11673.836702	1484.020000	1511.450195	2.412519
11673.836702	1484.020000	1510.393555	43.626060
11673.836702	1484.020000	1509.335938	111.952988
11673.836702	1484.020000	1508.278320	10.800422
11673.836702	1484.020000	1507.219727	-8.975154
11673.836702	1484.020000	1506.162109	43.545357
11673.836702	1484.020000	1505.103516	32.826553
11673.836702	1484.020000	1504.044922	-72.700554
11673.836702	1484.020000	1502.986328	29.495104
11673.836702	1484.020000	1501.926758	52.671909
11673.836702	1484.020000	1500.868164	1.391910
11673.836702	1484.020000	1499.808594	-158.141418
11673.836702	1484.020000	1498.749023	-4.087449
11673.836702	1484.020000	1497.688477	7.849343
11673.836702	1484.020000	1496.628906	51.358597
11673.836702	1484.020000	1495.568359	-40.386391
11673.836702	1484.020000	1494.507813	54.973503
11673.836702	1484.020000	1493.447266	-11.925682
11673.836702	1484.020000	1492.386719	-31.477446
11673.836702	1484.020000	1491.325195	-26.233843
11673.836702	1484.020000	1490.263672	-32.239368
11673.836702	1484.020000	1489.202148	-56.241528
11673.836702	1484.020000	1488.140625	-35.201450
11673.836702	1484.020000	1487.079102	64.612602
11673.836702	1484.020000	1486.016602	-22.360651
11673.836702	1484.020000	1484.954102	16.694834
11673.836702	1484.020000	1483.891602	-94.949905
11673.836702	1484.020000	1482.829102	22.837021
11673.836702	1484.020000	1481.765625	-32.531261
11673.836702	1484.020000	1480.702148	-18.182611
11673.836702	1484.020000	1479.638672	-8.319868
11673.836702	1484.020000	1478.575195	3.801397
11673.836702	1484.020000	1477.511719	-2.062428
11673.836702	1484.020000	1476.447266	32.547016
11673.836702	1484.020000	1475.382813	-20.443516
11673.836702	1484.020000	1474.318359	41.096386
11673.836702	1484.020000	1473.253906	-20.734116
11673.836702	1484.020000	1472.189453	7.130929
11673.836702	1484.020000	1471.124023	10.379917
11673.836702	1484.020000	1470.058594	116.692223
11673.836702	1484.020000	1468.993164	50.391129
11673.836702	1484.020000	1467.927734	-38.234035
11673.836702	1484.020000	1466.861328	21.108206
11673.836702	1484.020000	1465.794922	53.423588
11673.836702	1484.020000	1464.728516	56.733624
11673.836702	1484.020000	1463.662109	-175.040024
11673.836702	1484.020000	1462.594727	14.077506
11673.836702	1484.020000	1461.528320	-13.893453
11673.836702	1484.020000	1460.460938	116.918449
11673.836702	1484.020000	1459.393555	-0.524349
11673.836702	1484.020000	1458.326172	-37.168846
11673.836702	1484.020000	1457.257813	-0.362377
11673.836702	1484.020000	1456.189453	9.866241
11673.836702	1484.020000	1455.121094	37.791931
11673.836702	1484.020000	1454.052734	112.410561
11673.836702	1484.020000	1452.984375	111.382797
11673.836702	1484.020000	1451.915039	94.576935
11673.836702	1484.020000	1450.845703	84.594460
11673.836702	1484.020000	1449.776367	13.041836
11673.836702	1484.020000	1448.707031	174.439331
11673.836702	1484.020000	1447.636719	92.200966
11673.836702	1484.020000	1446.567383	-48.436047
11673.836702	1484.020000	1445.497070	19.832130
11673.836702	1484.020000	1444.425781	5.393249
11673.836702	1484.020000	1443.355469	104.505440
11673.836702	1484.020000	1442.285156	32.362038
11673.836702	1484.020000	1441.213867	28.603186
11673.836702	1484.020000	1440.142578	55.409813
11673.836702	1484.020000	1439.070313	75.869858
11673.836702	1484.020000	1437.999023	-44.220116
11673.836702	1484.020000	1436.926758	-20.156887
11673.836702	1484.020000	1435.854492	-3.413150
11673.836702	1484.020000	1434.782227	53.465927
11673.836702	1484.020000	1433.709961	45.055050
11673.836702	1484.020000	1432.636719	67.158287
11673.836702	1484.020000	1431.563477	60.778236
11673.836702	1484.020000	1430.490234	-76.824615
11673.836702	1484.020000	1429.416992	-27.138803
11673.836702	1484.020000	1428.343750	21.562235
11673.836702	1484.020000	1427.269531	8.112412
11673.836702	1484.020000	1426.195313	0.570401
11673.836702	1484.020000	1425.121094	-9.852385
11673.836702	1484.020000	1424.046875	-74.385201
11673.836702	1484.020000	1422.971680	25.812500
11673.836702	1484.020000	1421.896484	2.981470
11673.836702	1484.020000	1420.821289	-67.671036
11673.836702	1484.020000	1419.746094	10.592031
11673.836702	1484.020000	1418.669922	3.783880
11673.836702	1484.020000	1417.594727	-19.483280
11673.836702	1484.020000	1416.518555	84.028427
11673.836702	1484.020000	1415.442383	110.288666
11673.836702	1484.020000	1414.365234	-75.525726
11673.836702	1484.020000	1413.289063	0.442943
11673.836702	1484.020000	1412.211914	-73.352982
11673.836702	1484.020000	1411.134766	-47.182423
11673.836702	1484.020000	1410.057617	21.331785
11673.836702	1484.020000	1408.979492	-56.433018
11673.836702	1484.020000	1407.902344	48.875118
11673.836702	1484.020000	1406.824219	-64.104088
11673.836702	1484.020000	1405.746094	49.866222
11673.836702	1484.020000	1404.666992	6.092398
11673.836702	1484.020000	1403.588867	-34.114014
11673.836702	1484.020000	1402.509766	-47.037746
11673.836702	1484.020000	1401.430664	-0.137551
11673.836702	1484.020000	1400.351563	104.770615
11673.836702	1484.020000	1399.271484	45.618645
11673.836702	1484.020000	1398.192383	32.601013
11673.836702	1484.020000	1397.112305	30.399410
11673.836702	1484.020000	1396.031250	-6.850909
11673.836702	1484.020000	1394.951172	60.775410
11673.836702	1484.020000	1393.871094	-44.566582
11673.836702	1484.020000	1392.790039	-11.288922
11673.836702	1484.020000	1391.708984	24.187115
11673.836702	1484.020000	1390.626953	1.202442
11673.836702	1484.020000	1389.545898	-25.500334
11673.836702	1484.020000	1388.463867	-21.153875
11673.836702	1484.020000	1387.381836	45.876392
11673.836702	1484.020000	1386.299805	102.581871
11673.836702	1484.020000	1385.217773	50.878536
11673.836702	1484.020000	1384.134766	-39.457085
11673.836702	1484.020000	1383.051758	-31.725777
11673.836702	1484.020000	1381.968750	73.366356
11673.836702	1484.020000	1380.885742	66.235764
11673.836702	1484.020000	1379.802734	-13.382264
11673.836702	1484.020000	1378.718750	79.210258
11673.836702	1484.020000	1377.634766	67.175117
11673.836702	1484.020000	1376.550781	-10.863466
11673.836702	1484.020000	1375.465820	40.976349
11673.836702	1484.020000	1374.381836	49.414589
11673.836702	1484.020000	1373.296875	103.703056
11673.836702	1484.020000	1372.211914	58.111141
11673.836702	1484.020000	1371.126953	49.094601
11673.836702	1484.020000	1370.041016	83.790215
11673.836702	1484.020000	1368.955078	71.713928
11673.836702	1484.020000	1367.869141	62.393501
11673.836702	1484.020000	1366.783203	46.336929
11673.836702	1484.020000	1365.697266	55.903759
11673.836702	1484.020000	1364.610352	59.576286
11673.836702	1484.020000	1363.523438	40.689732
11673.836702	1484.020000	1362.436523	120.054077
11673.836702	1484.020000	1361.349609	20.267401
11673.836702	1484.020000	1360.261719	75.384300
11673.836702	1484.020000	1359.174805	124.634232
11673.836702	1484.020000	1358.086914	53.943619
11673.836702	1484.020000	1356.998047	99.396896
11673.836702	1484.020000	1355.910156	34.841122
11673.836702	1484.020000	1354.821289	37.357082
11673.836702	1484.020000	1353.732422	74.496925
11673.836702	1484.020000	1352.643555	-33.746510
11673.836702	1484.020000	1351.554688	-75.619881
11673.836702	1484.020000	1350.464844	43.498882
11673.836702	1484.020000	1349.375000	121.761742
11673.836702	1484.020000	1348.285156	73.092918
11673.836702	1484.020000	1347.195313	204.174469
11673.836702	1484.020000	1346.105469	261.559052
11673.836702	1484.020000	1345.014648	93.046730
11673.836702	1484.020000	1343.923828	331.283813
11673.836702	1484.020000	1342.833008	387.927948
11673.836702	1484.020000	1341.741211	656.756531
11673.836702	1484.020000	1340.650391	754.052124
11673.836702	1484.020000	1339.558594	592.642151
11673.836702	1484.020000	1338.466797	694.952759
11673.836702	1484.020000	1337.374023	493.836517
11673.836702	1484.020000	1336.282227	334.762817
11673.836702	1484.020000	1335.189453	213.073044
11673.836702	1484.020000	1334.096680	154.953690
11673.836702	1484.020000	1333.003906	233.497192
11673.836702	1484.020000	1331.910156	182.459549
11673.836702	1484.020000	1330.817383	131.585327
11673.836702	1484.020000	1329.723633	181.998184
11673.836702	1484.020000	1328.629883	176.212708
11673.836702	1484.020000	1327.535156	144.356766
11673.836702	1484.020000	1326.441406	58.346905
11673.836702	1484.020000	1325.346680	184.020065
11673.836702	1484.020000	1324.251953	52.998646
11673.836702	1484.020000	1323.156250	124.310959
11673.836702	1484.020000	1322.061523	130.549515
11673.836702	1484.020000	1320.965820	110.970505
11673.836702	1484.020000	1319.870117	126.054192
11673.836702	1484.020000	1318.774414	72.067581
11673.836702	1484.020000	1317.678711	106.254211
11673.836702	1484.020000	1316.582031	55.785015
11673.836702	1484.020000	1315.485352	104.123390
11673.836702	1484.020000	1314.388672	74.912064
11673.836702	1484.020000	1313.291016	120.809776
11673.836702	1484.020000	1312.194336	47.080273
11673.836702	1484.020000	1311.096680	136.147110
11673.836702	1484.020000	1309.999023	66.737068
11673.836702	1484.020000	1308.901367	134.535355
11673.836702	1484.020000	1307.802734	153.138733
11673.836702	1484.020000	1306.705078	179.151215
11673.836702	1484.020000	1305.606445	120.251038
11673.836702	1484.020000	1304.506836	99.930084
11673.836702	1484.020000	1303.408203	55.462467
11673.836702	1484.020000	1302.308594	141.205200
11673.836702	1484.020000	1301.208984	167.651138
11673.836702	1484.020000	1300.109375	90.487892
11673.836702	1484.020000	1299.009766	76.931190
11673.836702	1484.020000	1297.909180	39.102261
11673.836702	1484.020000	1296.808594	16.227310
11673.836702	1484.020000	1295.708008	-17.304123
11673.836702	1484.020000	1294.607422	51.625034
11673.836702	1484.020000	1293.506836	43.865013
11673.836702	1484.020000	1292.405273	119.413055
11673.836702	1484.020000	1291.303711	-1.353792
11673.836702	1484.020000	1290.202148	16.077549
11673.836702	1484.020000	1289.099609	23.900618
11673.836702	1484.020000	1287.998047	51.534874
11673.836702	1484.020000	1286.895508	44.040619
11673.836702	1484.020000	1285.792969	121.504845
11673.836702	1484.020000	1284.689453	38.442150
11673.836702	1484.020000	1283.586914	-7.459487
11673.836702	1484.020000	1282.483398	-11.302568
11673.836702	1484.020000	1281.379883	-70.547493
11673.836702	1484.020000	1280.276367	-27.778358
11673.836702	1484.020000	1279.171875	-8.529610
11673.836702	1484.020000	1278.067383	-8.732851
11673.836702	1484.020000	1276.962891	-36.993183
11673.836702	1484.020000	1275.858398	-6.052418
11673.836702	1484.020000	1274.753906	59.690151
11673.836702	1484.020000	1273.648438	48.794346
11673.836702	1484.020000	1272.542969	39.265793
11673.836702	1484.020000	1271.437500	59.676636
11673.836702	1484.020000	1270.331055	62.337193
11673.836702	1484.020000	1269.225586	49.201672
11673.836702	1484.020000	1268.119141	8.505823
11673.836702	1484.020000	1267.012695	-84.514038
11673.836702	1484.020000	1265.906250	43.563110
11673.836702	1484.020000	1264.798828	-42.766354
11673.836702	1484.020000	1263.691406	-60.195576
11673.836702	1484.020000	1262.583984	-91.980286
11673.836702	1484.020000	1261.476563	-80.225830
11673.836702	1484.020000	1260.368164	34.666954
11673.836702	1484.020000	1259.260742	52.102409
11673.836702	1484.020000	1258.152344	-77.390686
11673.836702	1484.020000	1257.043945	11.915898
11673.836702	1484.020000	1255.934570	-63.906250
11673.836702	1484.020000	1254.825195	-33.903812
11673.836702	1484.020000	1253.716797	-29.626888
11673.836702	1484.020000	1252.606445	-25.223251
11673.836702	1484.020000	1251.497070	12.361366
11673.836702	1484.020000	1250.387695	-50.688160
11673.836702	1484.020000	1249.277344	54.515450
11673.836702	1484.020000	1248.166992	33.151333
11673.836702	1484.020000	1247.055664	-35.358566
11673.836702	1484.020000	1245.945313	-93.042336
11673.836702	1484.020000	1244.833984	-22.547657
11673.836702	1484.020000	1243.722656	23.991123
11673.836702	1484.020000	1242.611328	43.157867
11673.836702	1484.020000	1241.499023	-14.517064
11673.836702	1484.020000	1240.387695	-36.864273
11673.836702	1484.020000	1239.275391	-37.974049
11673.836702	1484.020000	1238.162109	-22.005198
11673.836702	1484.020000	1237.049805	-42.997311
11673.836702	1484.020000	1235.936523	-41.074608
11673.836702	1484.020000	1234.823242	-9.990344
11673.836702	1484.020000	1233.709961	-64.423828
11673.836702	1484.020000	1232.596680	-9.210637
11673.836702	1484.020000	1231.482422	-119.984467
11673.836702	1484.020000	1230.369141	-56.744862
11673.836702	1484.020000	1229.253906	32.276737
11673.836702	1484.020000	1228.139648	9.450444
11673.836702	1484.020000	1227.025391	-12.074476
11673.836702	1484.020000	1225.910156	-24.116785
11673.836702	1484.020000	1224.794922	-30.749067
11673.836702	1484.020000	1223.679688	-66.795166
11673.836702	1484.020000	1222.563477	60.836796
11673.836702	1484.020000	1221.447266	-56.357159
11673.836702	1484.020000	1220.331055	24.603817
11673.836702	1484.020000	1219.214844	-2.663208
11673.836702	1484.020000	1218.098633	1.744242
11673.836702	1484.020000	1216.981445	4.200277
11673.836702	1484.020000	1215.864258	72.927727
11673.836702	1484.020000	1214.747070	9.795867
11673.836702	1484.020000	1213.629883	12.850967
11673.836702	1484.020000	1212.511719	-27.802637
11673.836702	1484.020000	1211.393555	70.016388
11673.836702	1484.020000	1210.275391	26.549377
11673.836702	1484.020000	1209.157227	-3.624913
11673.836702	1484.020000	1208.038086	108.481140
11673.836702	1484.020000	1206.918945	65.263245
11673.836702	1484.020000	1205.799805	65.357498
11673.836702	1484.020000	1204.680664	49.309715
11673.836702	1484.020000	1203.560547	18.211508
11673.836702	1484.020000	1202.441406	6.436678
11673.836702	1484.020000	1201.321289	32.677372
11673.836702	1484.020000	1200.200195	60.536987
11673.836702	1484.020000	1199.080078	82.549019
11673.836702	1484.020000	1197.958984	90.013252
11673.836702	1484.020000	1196.837891	63.893768
11673.836702	1484.020000	1195.716797	110.626259
11673.836702	1484.020000	1194.594727	113.915611
11673.836702	1484.020000	1193.473633	70.364922
11673.836702	1484.020000	1192.351563	55.932404
11673.836702	1484.020000	1191.229492	71.655159
11673.836702	1484.020000	1190.106445	52.772976
11673.836702	1484.020000	1188.984375	100.097229
11673.836702	1484.020000	1187.861328	129.642014
11673.836702	1484.020000	1186.738281	77.572388
11673.836702	1484.020000	1185.614258	88.740906
11673.836702	1484.020000	1184.491211	52.863277
11673.836702	1484.020000	1183.367188	3.734588
11673.836702	1484.020000	1182.243164	2.718134
11673.836702	1484.020000	1181.119141	-24.498680
11673.836702	1484.020000	1179.994141	28.644468
11673.836702	1484.020000	1178.869141	57.740379
11673.836702	1484.020000	1177.744141	-71.625343
11673.836702	1484.020000	1176.619141	-44.567776
11673.836702	1484.020000	1175.493164	14.280018
11673.836702	1484.020000	1174.368164	10.094273
11673.836702	1484.020000	1173.242188	-3.533363
11673.836702	1484.020000	1172.115234	-35.617886
11673.836702	1484.020000	1170.989258	-20.237429
11673.836702	1484.020000	1169.862305	21.844404
11673.836702	1484.020000	1168.735352	24.839361
11673.836702	1484.020000	1167.608398	-106.013626
11673.836702	1484.020000	1166.481445	-35.158501
11673.836702	1484.020000	1165.353516	50.483814
11673.836702	1484.020000	1164.225586	0.026214
11673.836702	1484.020000	1163.097656	42.578720
11673.836702	1484.020000	1161.968750	10.480886
11673.836702	1484.020000	1160.840820	-10.542103
11673.836702	1484.020000	1159.711914	34.755836
11673.836702	1484.020000	1158.583008	28.062086
11673.836702	1484.020000	1157.453125	78.251099
11673.836702	1484.020000	1156.324219	51.446289
11673.836702	1484.020000	1155.194336	71.268707
11673.836702	1484.020000	1154.064453	-25.983637
11673.836702	1484.020000	1152.933594	9.966508
11673.836702	1484.020000	1151.803711	-10.526912
11673.836702	1484.020000	1150.672852	84.661499
11673.836702	1484.020000	1149.541992	-11.333075
11673.836702	1484.020000	1148.411133	24.422653
11673.836702	1484.020000	1147.279297	29.292097
11673.836702	1484.020000	1146.147461	-45.708183
11673.836702	1484.020000	1145.015625	-45.024540
11673.836702	1484.020000	1143.883789	31.357115
11673.836702	1484.020000	1142.750977	33.625862
11673.836702	1484.020000	1141.619141	31.633081
11673.836702	1484.020000	1140.486328	0.396882
11673.836702	1484.020000	1139.352539	43.829536
11673.836702	1484.020000	1138.219727	-5.537851
11673.836702	1484.020000	1137.085938	31.673637
11673.836702	1484.020000	1135.952148	31.596596
11673.836702	1484.020000	1134.818359	-0.757808
11673.836702	1484.020000	1133.683594	-38.007908
11673.836702	1484.020000	1132.549805	30.689238
11673.836702	1484.020000	1131.415039	-3.823893
11673.836702	1484.020000	1130.279297	-10.045177
11673.836702	1484.020000	1129.144531	92.718475
11673.836702	1484.020000	1128.008789	98.360275
11673.836702	1484.020000	1126.873047	104.169136
11673.836702	1484.020000	1125.737305	67.155991
11673.836702	1484.020000	1124.601563	46.011467
11673.836702	1484.020000	1123.464844	62.471176
11673.836702	1484.020000	1122.328125	92.807938
11673.836702	1484.020000	1121.191406	31.566147
11673.836702	1484.020000	1120.054688	16.738674
11673.836702	1484.020000	1118.916992	49.771069
11673.836702	1484.020000	1117.779297	23.253328
11673.836702	1484.020000	1116.641602	95.061142
11673.836702	1484.020000	1115.503906	14.373914
11673.836702	1484.020000	1114.365234	27.810263
11673.836702	1484.020000	1113.226563	96.254166
11673.836702	1484.020000	1112.087891	126.064949
11673.836702	1484.020000	1110.949219	28.616865
11673.836702	1484.020000	1109.809570	125.273117
11673.836702	1484.020000	1108.669922	69.970459
11673.836702	1484.020000	1107.530273	34.080685
11673.836702	1484.020000	1106.390625	-2.603027
11673.836702	1484.020000	1105.250000	49.606491
11673.836702	1484.020000	1104.109375	81.590843
11673.836702	1484.020000	1102.968750	-10.208097
11673.836702	1484.020000	1101.828125	-30.481527
11673.836702	1484.020000	1100.686523	-36.234928
11673.836702	1484.020000	1099.544922	90.948982
11673.836702	1484.020000	1098.403320	15.299191
11673.836702	1484.020000	1097.261719	26.410151
11673.836702	1484.020000	1096.120117	42.652447
11673.836702	1484.020000	1094.977539	4.301326
11673.836702	1484.020000	1093.834961	91.248238
11673.836702	1484.020000	1092.691406	94.136810
11673.836702	1484.020000	1091.548828	15.445593
11673.836702	1484.020000	1090.405273	87.709908
11673.836702	1484.020000	1089.261719	88.043419
11673.836702	1484.020000	1088.118164	19.382626
11673.836702	1484.020000	1086.973633	79.797653
11673.836702	1484.020000	1085.829102	27.766190
11673.836702	1484.020000	1084.684570	63.572170
11673.836702	1484.020000	1083.540039	81.476318
11673.836702	1484.020000	1082.395508	-1.655643
11673.836702	1484.020000	1081.250000	46.568630
11673.836702	1484.020000	1080.104492	6.098557
11673.836702	1484.020000	1078.958984	84.708305
11673.836702	1484.020000	1077.812500	62.383709
11673.836702	1484.020000	1076.666016	29.578121
11673.836702	1484.020000	1075.519531	34.837196
11673.836702	1484.020000	1074.373047	59.112595
11673.836702	1484.020000	1073.226563	-13.852278
11673.836702	1484.020000	1072.079102	-15.326259
11673.836702	1484.020000	1070.931641	8.757821
11673.836702	1484.020000	1069.784180	37.409245
11673.836702	1484.020000	1068.635742	91.595474
11673.836702	1484.020000	1067.487305	56.779221
11673.836702	1484.020000	1066.338867	26.386028
11673.836702	1484.020000	1065.190430	-2.483022
11673.836702	1484.020000	1064.041992	-23.919960
11673.836702	1484.020000	1062.892578	-18.032553
11673.836702	1484.020000	1061.743164	-61.498425
11673.836702	1484.020000	1060.593750	-57.230167
11673.836702	1484.020000	1059.443359	41.093884
11673.836702	1484.020000	1058.292969	-0.186540
11673.836702	1484.020000	1057.142578	4.739855
11673.836702	1484.020000	1055.992188	52.130901
11673.836702	1484.020000	1054.841797	40.710247
11673.836702	1484.020000	1053.690430	15.495072
11673.836702	1484.020000	1052.539063	21.738243
11673.836702	1484.020000	1051.387695	-18.692545
11673.836702	1484.020000	1050.235352	-28.160017
11673.836702	1484.020000	1049.083984	-17.948181
11673.836702	1484.020000	1047.931641	-6.606737
11673.836702	1484.020000	1046.778320	11.657530
11673.836702	1484.020000	1045.625977	18.336052
11673.836702	1484.020000	1044.472656	-2.698063
11673.836702	1484.020000	1043.319336	44.036884
11673.836702	1484.020000	1042.166016	9.755763
11673.836702	1484.020000	1041.012695	24.108997
11673.836702	1484.020000	1039.858398	72.329750
11673.836702	1484.020000	1038.704102	30.139490
11673.836702	1484.020000	1037.549805	-26.099434
11673.836702	1484.020000	1036.394531	22.168377
11673.836702	1484.020000	1035.239258	122.011841
11673.836702	1484.020000	1034.083984	-114.437660
11673.836702	1484.020000	1032.928711	-27.661772
11673.836702	1484.020000	1031.773438	54.072445
11673.836702	1484.020000	1030.617188	18.468319
11673.836702	1484.020000	1029.460938	-95.207687
11673.836702	1484.020000	1028.304688	22.626019
11673.836702	1484.020000	1027.147461	-48.863647
11673.836702	1484.020000	1025.991211	69.703941
11673.836702	1484.020000	1024.833984	-20.685795
11673.836702	1484.020000	1023.675781	-31.611946
11673.836702	1484.020000	1022.518555	-3.606920
11673.836702	1484.020000	1021.360352	-1.190474
11673.836702	1484.020000	1020.202148	-13.513553
11673.836702	1484.020000	1019.043945	-66.424988
11673.836702	1484.020000	1017.884766	28.450352
11673.836702	1484.020000	1016.726563	-39.781448
11673.836702	1484.020000	1015.567383	-23.718096
11673.836702	1484.020000	1014.407227	-10.239193
11673.836702	1484.020000	1013.248047	6.445229
11673.836702	1484.020000	1012.087891	32.351196
11673.836702	1484.020000	1010.927734	31.847847
11673.836702	1484.020000	1009.767578	56.560722
11673.836702	1484.020000	1008.606445	-87.115082
11673.836702	1484.020000	1007.446289	77.289680
11673.836702	1484.020000	1006.285156	78.588333
11673.836702	1484.020000	1005.123047	-8.061621
11673.836702	1484.020000	1003.961914	37.285915
11673.836702	1484.020000	1002.799805	103.330948
11673.836702	1484.020000	1001.637695	78.440468
11673.836702	1484.020000	1000.475586	10.591109
11673.836702	1484.020000	999.312500	5.270200
11673.836702	1484.020000	998.149414	4.300085
11673.836702	1484.020000	996.986328	53.338539
11673.836702	1484.020000	995.823242	54.579231
11673.836702	1484.020000	994.659180	-26.555719
11673.836702	1484.020000	993.496094	-30.565649
11673.836702	1484.020000	992.332031	58.728336
11673.836702	1484.020000	991.166992	-90.865120
11673.836702	1484.020000	990.002930	-35.562119
11673.836702	1484.020000	988.837891	-8.788046
11673.836702	1484.020000	987.672852	-57.458775
11673.836702	1484.020000	986.506836	33.130005
11673.836702	1484.020000	985.341797	4.753215
11673.836702	1484.020000	984.175781	-40.732353
11673.836702	1484.020000	983.009766	-100.756462
11673.836702	1484.020000	981.843750	12.612355
11673.836702	1484.020000	980.676758	-44.617664
11673.836702	1484.020000	979.509766	15.221880
11673.836702	1484.020000	978.342773	-49.030319
11673.836702	1484.020000	977.175781	-48.008228
11673.836702	1484.020000	976.007813	13.649646
11673.836702	1484.020000	974.839844	60.136387
11673.836702	1484.020000	973.671875	45.427402
11673.836702	1484.020000	972.503906	59.999821
11673.836702	1484.020000	971.334961	-24.926249
11673.836702	1484.020000	970.166016	-9.123519
11673.836702	1484.020000	968.997070	-53.138065
11673.836702	1484.020000	967.828125	-7.656821
11673.836702	1484.020000	966.658203	26.108177
11673.836702	1484.020000	965.488281	-50.020550
11673.836702	1484.020000	964.318359	-0.680382
11673.836702	1484.020000	963.148438	76.138031
11673.836702	1484.020000	961.977539	11.180896
11673.836702	1484.020000	960.806641	-34.600834
11673.836702	1484.020000	959.635742	1.974799
11673.836702	1484.020000	958.463867	-33.454411
11673.836702	1484.020000	957.292969	80.351547
11673.836702	1484.020000	956.121094	8.978974
11673.836702	1484.020000	954.948242	77.697464
11673.836702	1484.020000	953.776367	36.034889
11673.836702	1484.020000	952.603516	13.826313
11673.836702	1484.020000	951.430664	79.477554
11673.836702	1484.020000	950.257813	96.448410
11673.836702	1484.020000	949.084961	-14.093813
11673.836702	1484.020000	947.911133	-8.294073
11673.836702	1484.020000	946.737305	-15.600531
11673.836702	1484.020000	945.563477	-67.785568
11673.836702	1484.020000	944.388672	-1.404811
11673.836702	1484.020000	943.213867	80.148529
11673.836702	1484.020000	942.039063	-24.070778
11673.836702	1484.020000	940.864258	-5.139816
11673.836702	1484.020000	939.688477	33.074265
11673.836702	1484.020000	938.513672	34.666832
11673.836702	1484.020000	937.337891	126.993095
11673.836702	1484.020000	936.161133	9.779690
11673.836702	1484.020000	934.985352	30.706957
11673.836702	1484.020000	933.808594	-23.879429
11673.836702	1484.020000	932.631836	16.619289
11673.836702	1484.020000	931.454102	20.294430
11673.836702	1484.020000	930.277344	116.803909
11673.836702	1484.020000	929.099609	118.339554
11673.836702	1484.020000	927.921875	137.132477
11673.836702	1484.020000	926.743164	89.031525
11673.836702	1484.020000	925.565430	-2.203293
11673.836702	1484.020000	924.386719	10.110308
11673.836702	1484.020000	923.208008	28.883118
11673.836702	1484.020000	922.028320	95.074348
11673.836702	1484.020000	920.849609	59.928635
11673.836702	1484.020000	919.669922	59.822327
11673.836702	1484.020000	919.474609	26.928143
11673.836702	1484.020000	918.309570	-3.889153
11673.836702	1484.020000	917.143555	85.942062
11673.836702	1484.020000	915.977539	-20.264824
11673.836702	1484.020000	914.810547	-7.994708
11673.836702	1484.020000	913.644531	47.326649
11673.836702	1484.020000	912.477539	66.029678
11673.836702	1484.020000	911.310547	54.593552
11673.836702	1484.020000	910.143555	-19.238264
11673.836702	1484.020000	908.975586	-47.867420
11673.836702	1484.020000	907.807617	-20.567677
11673.836702	1484.020000	906.639648	-23.385839
11673.836702	1484.020000	905.471680	16.792410
11673.836702	1484.020000	904.303711	-50.520660
11673.836702	1484.020000	903.134766	56.261566
11673.836702	1484.020000	901.965820	-43.265278
11673.836702	1484.020000	900.796875	130.059753
11673.836702	1484.020000	899.626953	67.064987
11673.836702	1484.020000	898.457031	-13.084138
11673.836702	1484.020000	897.287109	14.138571
11673.836702	1484.020000	896.117188	2.713396
11673.836702	1484.020000	894.947266	51.377457
11673.836702	1484.020000	893.776367	37.799870
11673.836702	1484.020000	892.605469	-37.980850
11673.836702	1484.020000	891.434570	4.222361
11673.836702	1484.020000	890.262695	7.811287
11673.836702	1484.020000	889.091797	22.116077
11673.836702	1484.020000	887.919922	77.136276
11673.836702	1484.020000	886.748047	5.702396
11673.836702	1484.020000	885.575195	49.988419
11673.836702	1484.020000	884.403320	49.272751
11673.836702	1484.020000	883.230469	16.432362
11673.836702	1484.020000	882.057617	82.096344
11673.836702	1484.020000	880.883789	2.164762
11673.836702	1484.020000	879.710938	46.399899
11673.836702	1484.020000	878.537109	39.259777
11673.836702	1484.020000	877.362305	44.957821
11673.836702	1484.020000	876.188477	-28.488552
11673.836702	1484.020000	875.013672	-27.058092
11673.836702	1484.020000	873.839844	36.375015
11673.836702	1484.020000	872.664063	-75.505043
11673.836702	1484.020000	871.489258	58.437702
11673.836702	1484.020000	870.313477	68.392464
11673.836702	1484.020000	869.138672	78.342720
11673.836702	1484.020000	867.962891	-48.408802
11673.836702	1484.020000	866.786133	2.133061
11673.836702	1484.020000	865.610352	-58.367058
11673.836702	1484.020000	864.433594	122.363785
11673.836702	1484.020000	863.256836	-91.795326
11673.836702	1484.020000	862.079102	-11.416771
11673.836702	1484.020000	860.902344	43.329132
11673.836702	1484.020000	859.724609	48.997299
11673.836702	1484.020000	858.546875	16.279552
11673.836702	1484.020000	857.368164	-16.425289
11673.836702	1484.020000	856.190430	19.091349
11673.836702	1484.020000	855.011719	46.068462
11673.836702	1484.020000	853.833008	-35.628056
11673.836702	1484.020000	852.654297	38.213257
11673.836702	1484.020000	851.474609	3.405750
11673.836702	1484.020000	850.294922	51.656143
11673.836702	1484.020000	849.115234	29.633165
11673.836702	1484.020000	847.935547	33.160320
11673.836702	1484.020000	846.754883	9.021671
11673.836702	1484.020000	845.575195	50.847656
11673.836702	1484.020000	844.393555	7.570721
11673.836702	1484.020000	843.212891	6.845376
11673.836702	1484.020000	842.032227	-6.637100
11673.836702	1484.020000	840.850586	-11.611210
11673.836702	1484.020000	839.668945	25.924675
11673.836702	1484.020000	838.486328	6.071011
11673.836702	1484.020000	837.304688	105.198708
11673.836702	1484.020000	836.122070	34.359005
11673.836702	1484.020000	834.939453	61.236141
11673.836702	1484.020000	833.756836	88.102097
11673.836702	1484.020000	832.573242	85.237999
11673.836702	1484.020000	831.389648	95.109322
11673.836702	1484.020000	830.206055	81.635750
11673.836702	1484.020000	829.022461	87.260910
11673.836702	1484.020000	827.838867	92.883713
11673.836702	1484.020000	826.654297	58.213024
11673.836702	1484.020000	825.469727	51.118610
11673.836702	1484.020000	824.284180	65.224106
11673.836702	1484.020000	823.099609	75.085472
11673.836702	1484.020000	821.914063	-86.682587
11673.836702	1484.020000	820.728516	12.178611
11673.836702	1484.020000	819.542969	28.398558
11673.836702	1484.020000	818.356445	-29.501162
11673.836702	1484.020000	817.169922	-87.377098
11673.836702	1484.020000	815.983398	-1.297128
11673.836702	1484.020000	814.796875	48.771946
11673.836702	1484.020000	813.609375	-89.483749
11673.836702	1484.020000	812.422852	34.619659
11673.836702	1484.020000	811.235352	-38.014069
11673.836702	1484.020000	810.046875	-68.328552
11673.836702	1484.020000	808.859375	72.605690
11673.836702	1484.020000	807.670898	46.507835
11673.836702	1484.020000	806.482422	22.534264
11673.836702	1484.020000	805.293945	21.810205
11673.836702	1484.020000	804.104492	-31.720650
11673.836702	1484.020000	802.915039	7.691579
11673.836702	1484.020000	801.725586	9.082028
11673.836702	1484.020000	800.536133	-6.415777
11673.836702	1484.020000	799.345703	24.524178
11673.836702	1484.020000	798.155273	36.460114
11673.836702	1484.020000	796.964844	10.417397
11673.836702	1484.020000	795.774414	-45.143787
11673.836702	1484.020000	794.583008	-5.787324
11673.836702	1484.020000	793.392578	1.927710
11673.836702	1484.020000	792.200195	39.149555
11673.836702	1484.020000	791.008789	0.487000
11673.836702	1484.020000	789.816406	-8.661583
11673.836702	1484.020000	788.625000	-74.684616
11673.836702	1484.020000	787.432617	-90.133194
11673.836702	1484.020000	786.239258	-4.500998
11673.836702	1484.020000	785.046875	-38.905945
11673.836702	1484.020000	783.853516	27.735636
11673.836702	1484.020000	782.660156	33.320820
11673.836702	1484.020000	781.465820	137.790100
11673.836702	1484.020000	780.272461	90.760437
11673.836702	1484.020000	779.078125	62.677540
11673.836702	1484.020000	777.883789	-1.139885
11673.836702	1484.020000	776.688477	-18.682247
11673.836702	1484.020000	775.494141	77.278725
11673.836702	1484.020000	774.298828	-76.862778
11673.836702	1484.020000	773.103516	-56.564400
11673.836702	1484.020000	771.907227	72.949783
11673.836702	1484.020000	770.711914	-39.096592
11673.836702	1484.020000	769.515625	67.262451
11673.836702	1484.020000	768.318359	28.732910
11673.836702	1484.020000	767.122070	-22.373926
11673.836702	1484.020000	765.924805	-107.033745
11673.836702	1484.020000	764.727539	39.106098
11673.836702	1484.020000	763.530273	-60.215683
11673.836702	1484.020000	762.333008	-25.289665
11673.836702	1484.020000	761.134766	24.296064
11673.836702	1484.020000	759.936523	6.784031
11673.836702	1484.020000	758.738281	27.000357
11673.836702	1484.020000	757.540039	-0.984211
11673.836702	1484.020000	756.340820	-52.001419
11673.836702	1484.020000	755.141602	-33.884918
11673.836702	1484.020000	753.942383	65.886246
11673.836702	1484.020000	752.742188	-16.520670
11673.836702	1484.020000	751.541992	-13.079439
11673.836702	1484.020000	750.341797	-36.845779
11673.836702	1484.020000	749.141602	37.729317
11673.836702	1484.020000	747.941406	114.363083
11673.836702	1484.020000	746.740234	40.387581
11673.836702	1484.020000	745.539063	6.167399
11673.836702	1484.020000	744.337891	76.482277
11673.836702	1484.020000	743.135742	61.074650
11673.836702	1484.020000	741.933594	68.656792
11673.836702	1484.020000	740.731445	-21.956415
11673.836702	1484.020000	739.529297	23.231787
11673.836702	1484.020000	738.326172	76.751686
11673.836702	1484.020000	737.124023	32.118702
11673.836702	1484.020000	735.919922	-12.498321
11673.836702	1484.020000	734.716797	57.683556
11673.836702	1484.020000	733.513672	-14.050509
11673.836702	1484.020000	732.309570	76.957687
11673.836702	1484.020000	731.105469	82.413345
11673.836702	1484.020000	729.900391	48.244431
11673.836702	1484.020000	728.696289	37.019615
11673.836702	1484.020000	727.491211	-7.553291
11673.836702	1484.020000	726.286133	10.406698
11673.836702	1484.020000	725.080078	-29.981293
11673.836702	1484.020000	723.874023	108.785789
11673.836702	1484.020000	722.668945	43.396572
11673.836702	1484.020000	721.461914	23.838655
11673.836702	1484.020000	720.255859	6.367468
11673.836702	1484.020000	719.048828	20.119255
11673.836702	1484.020000	717.841797	-7.755451
11673.836702	1484.020000	716.634766	55.916870
11673.836702	1484.020000	715.427734	32.199142
11673.836702	1484.020000	714.219727	31.362568
11673.836702	1484.020000	713.011719	-8.980639
11673.836702	1484.020000	711.803711	-3.580056
11673.836702	1484.020000	710.594727	20.518620
11673.836702	1484.020000	709.385742	40.447384
11673.836702	1484.020000	708.176758	-51.814335
11673.836702	1484.020000	706.967773	-2.809566
11673.836702	1484.020000	705.758789	-49.348671
11673.836702	1484.020000	704.548828	-35.666817
11673.836702	1484.020000	703.338867	29.895594
11673.836702	1484.020000	702.127930	85.049927
11673.836702	1484.020000	700.917969	3.243144
11673.836702	1484.020000	699.707031	-12.155922
11673.836702	1484.020000	698.496094	144.579483
11673.836702	1484.020000	697.285156	151.956131
11673.836702	1484.020000	696.073242	109.572334
11673.836702	1484.020000	694.861328	94.144844
11673.836702	1484.020000	693.649414	33.132114
11673.836702	1484.020000	692.436523	17.717400
11673.836702	1484.020000	691.224609	-34.978199
11673.836702	1484.020000	690.011719	-37.957001
11673.836702	1484.020000	688.798828	-26.446564
11673.836702	1484.020000	687.584961	-48.065884
11673.836702	1484.020000	686.372070	48.282497
11673.836702	1484.020000	685.158203	53.544468
11673.836702	1484.020000	683.943359	2.944825
11673.836702	1484.020000	682.729492	51.636471
11673.836702	1484.020000	681.514648	36.200283
11673.836702	1484.020000	680.299805	-28.851263
11673.836702	1484.020000	679.084961	-85.613190
11673.836702	1484.020000	677.869141	41.560379
11673.836702	1484.020000	676.653320	52.975868
11673.836702	1484.020000	675.437500	47.856136
11673.836702	1484.020000	674.221680	38.602516
11673.836702	1484.020000	673.004883	37.605736
11673.836702	1484.020000	671.789063	63.440170
11673.836702	1484.020000	670.571289	211.025894
11673.836702	1484.020000	669.354492	5.695685
11673.836702	1484.020000	668.136719	-18.009680
11673.836702	1484.020000	666.919922	36.667068
11673.836702	1484.020000	665.701172	74.817101
11673.836702	1484.020000	664.483398	-14.880062
11673.836702	1484.020000	663.264648	41.804310
11673.836702	1484.020000	662.045898	110.823685
11673.836702	1484.020000	660.827148	12.915832
11673.836702	1484.020000	659.608398	59.240639
11673.836702	1484.020000	658.388672	8.741540
11673.836702	1484.020000	657.168945	38.562458
11673.836702	1484.020000	655.949219	16.898199
11673.836702	1484.020000	654.728516	21.993214
11673.836702	1484.020000	653.507813	31.195787
11673.836702	1484.020000	652.287109	102.108696
11673.836702	1484.020000	651.066406	123.619614
11673.836702	1484.020000	649.844727	106.041595
11673.836702	1484.020000	648.623047	22.671194
11673.836702	1484.020000	647.401367	118.168068
11673.836702	1484.020000	646.179688	40.983639
11673.836702	1484.020000	644.957031	33.686302
11673.836702	1484.020000	643.734375	120.883919
11673.836702	1484.020000	642.511719	62.213467
11673.836702	1484.020000	641.289063	59.004528
11673.836702	1484.020000	640.065430	18.836248
11673.836702	1484.020000	638.841797	44.360943
11673.836702	1484.020000	637.618164	82.181412
11673.836702	1484.020000	636.393555	76.893379
11673.836702	1484.020000	635.168945	-30.961895
11673.836702	1484.020000	633.944336	-54.693470
11673.836702	1484.020000	632.719727	36.401310
11673.836702	1484.020000	631.494141	65.951859
11673.836702	1484.020000	630.269531	-66.428749
11673.836702	1484.020000	629.042969	40.984089
11673.836702	1484.020000	627.817383	2.890631
11673.836702	1484.020000	626.590820	5.771592
11673.836702	1484.020000	625.365234	51.649269
11673.836702	1484.020000	624.137695	3.322200
11673.836702	1484.020000	622.911133	-2.004412
11673.836702	1484.020000	621.683594	111.361305
11673.836702	1484.020000	620.456055	65.080559
11673.836702	1484.020000	619.228516	39.269852
11673.836702	1484.020000	618.000977	44.142380
11673.836702	1484.020000	616.772461	16.290415
11673.836702	1484.020000	615.543945	-72.885056
11673.836702	1484.020000	614.314453	17.833250
11673.836702	1484.020000	613.085938	135.072968
11673.836702	1484.020000	611.856445	-5.163311
11673.836702	1484.020000	610.626953	73.210754
11673.836702	1484.020000	609.397461	55.565338
11673.836702	1484.020000	608.166992	54.255165
11673.836702	1484.020000	606.936523	20.279902
11673.836702	1484.020000	605.706055	-13.686059
11673.836702	1484.020000	604.474609	-57.845127
11673.836702	1484.020000	603.244141	-6.111091
11673.836702	1484.020000	602.012695	-38.025566
11673.836702	1484.020000	600.780273	-14.876073
11673.836702	1484.020000	599.548828	-6.011186
11673.836702	1484.020000	598.316406	-39.958618
11673.836702	1484.020000	597.083984	-43.328762
11673.836702	1484.020000	595.851563	-89.486992
11673.836702	1484.020000	594.618164	-15.450676
11673.836702	1484.020000	593.384766	23.929098
11673.836702	1484.020000	592.151367	-34.444000
11673.836702	1484.020000	590.917969	-102.974159
11673.836702	1484.020000	589.683594	-94.141869
11673.836702	1484.020000	588.449219	-73.108261
11673.836702	1484.020000	587.214844	33.355042
11673.836702	1484.020000	585.979492	-2.604999
11673.836702	1484.020000	584.745117	-44.653023
11673.836702	1484.020000	583.509766	71.890251
11673.836702	1484.020000	582.273438	-12.848350
11673.836702	1484.020000	581.038086	24.377453
11673.836702	1484.020000	579.801758	85.964462
11673.836702	1484.020000	578.565430	60.176140
11673.836702	1484.020000	577.329102	56.735775
11673.836702	1484.020000	576.091797	-36.045868
11673.836702	1484.020000	574.854492	-33.379913
11673.836702	1484.020000	573.617188	-18.539907
11673.836702	1484.020000	572.378906	40.932148
11673.836702	1484.020000	571.141602	51.688576
11673.836702	1484.020000	569.903320	15.787303
11673.836702	1484.020000	568.664063	142.126678
11673.836702	1484.020000	567.425781	73.779678
11673.836702	1484.020000	566.186523	9.513727
11673.836702	1484.020000	564.947266	-18.248260
11673.836702	1484.020000	563.708008	-56.129902
11673.836702	1484.020000	562.467773	-55.509129
11673.836702	1484.020000	561.227539	74.726685
11673.836702	1484.020000	559.987305	-27.947439
11673.836702	1484.020000	558.747070	-5.066739
11673.836702	1484.020000	557.505859	44.114883
11673.836702	1484.020000	556.264648	6.264019
11673.836702	1484.020000	555.023438	67.560768
11673.836702	1484.020000	553.781250	-12.754866
11673.836702	1484.020000	552.539063	38.408512
11673.836702	1484.020000	551.296875	20.809864
11673.836702	1484.020000	550.054688	19.390282
11673.836702	1484.020000	548.811523	32.118046
11673.836702	1484.020000	547.569336	2.411858
11673.836702	1484.020000	546.325195	39.380310
11673.836702	1484.020000	545.082031	5.648320
11673.836702	1484.020000	543.837891	54.718437
11673.836702	1484.020000	542.593750	142.125916
11673.836702	1484.020000	541.349609	-28.847841
11673.836702	1484.020000	540.105469	-6.028316
11673.836702	1484.020000	538.860352	-23.566364
11673.836702	1484.020000	537.615234	5.297618
11673.836702	1484.020000	536.369141	-20.296684
11673.836702	1484.020000	535.124023	16.624331
11673.836702	1484.020000	533.877930	-41.207260
11673.836702	1484.020000	532.631836	-26.460093
11673.836702	1484.020000	531.384766	16.491863
11673.836702	1484.020000	530.138672	69.501816
11673.836702	1484.020000	528.891602	-24.530169
11673.836702	1484.020000	527.643555	78.811615
11673.836702	1484.020000	526.396484	93.535637
11673.836702	1484.020000	525.148438	57.939190
11673.836702	1484.020000	523.900391	20.350435
11673.836702	1484.020000	522.652344	-23.253412
11673.836702	1484.020000	521.403320	84.021996
11673.836702	1484.020000	520.154297	6.245768
11673.836702	1484.020000	518.905273	-41.333649
11673.836702	1484.020000	517.656250	-80.846718
11673.836702	1484.020000	516.406250	10.291590
11673.836702	1484.020000	515.156250	41.118614
11673.836702	1484.020000	513.906250	53.858868
11673.836702	1484.020000	512.655273	6.346889
11673.836702	1484.020000	511.404297	-43.146362
11673.836702	1484.020000	510.153320	-50.454247
11673.836702	1484.020000	508.902344	-31.660389
11673.836702	1484.020000	507.650391	11.211366
11673.836702	1484.020000	506.398438	-0.097360
11673.836702	1484.020000	505.146484	-1.365512
11673.836702	1484.020000	503.893555	-20.675041
11673.836702	1484.020000	502.641602	78.322350
11673.836702	1484.020000	501.388672	28.949944
11673.836702	1484.020000	500.134766	51.752285
11673.836702	1484.020000	498.881836	28.468479
11673.836702	1484.020000	497.627930	-30.856731
11673.836702	1484.020000	496.374023	3.982045
11673.836702	1484.020000	495.119141	8.777117
11673.836702	1484.020000	493.865234	11.576114
11673.836702	1484.020000	492.610352	76.427208
11673.836702	1484.020000	491.355469	-32.834629
11673.836702	1484.020000	490.099609	108.036522
11673.836702	1484.020000	488.843750	42.834091
11673.836702	1484.020000	487.587891	33.660625
11673.836702	1484.020000	486.332031	64.485359
11673.836702	1484.020000	485.075195	-4.641623
11673.836702	1484.020000	483.818359	-25.767759
11673.836702	1484.020000	482.561523	63.015354
11673.836702	1484.020000	481.304688	69.865135
11673.836702	1484.020000	480.046875	-27.134657
11673.836702	1484.020000	478.789063	-6.276893
11673.836702	1484.020000	477.531250	-19.358299
11673.836702	1484.020000	476.272461	7.490268
11673.836702	1484.020000	475.013672	-3.579305
11673.836702	1484.020000	473.754883	-44.563000
11673.836702	1484.020000	472.496094	14.207979
11673.836702	1484.020000	471.236328	-108.509811
11673.836702	1484.020000	469.976563	-19.831892
11673.836702	1484.020000	468.716797	62.834305
11673.836702	1484.020000	467.456055	-35.881893
11673.836702	1484.020000	466.196289	10.899624
11673.836702	1484.020000	464.935547	25.793644
11673.836702	1484.020000	463.673828	56.619007
11673.836702	1484.020000	462.413086	-14.112921
11673.836702	1484.020000	461.151367	14.726787
11673.836702	1484.020000	459.889648	-2.218800
11673.836702	1484.020000	458.626953	-9.203758
11673.836702	1484.020000	457.364258	-48.013287
11673.836702	1484.020000	456.101563	34.527031
11673.836702	1484.020000	454.838867	156.806183
11673.836702	1484.020000	453.575195	80.219200
11673.836702	1484.020000	452.312500	97.090935
11673.836702	1484.020000	451.047852	149.727112
11673.836702	1484.020000	449.784180	101.012199
11673.836702	1484.020000	448.519531	127.802696
11673.836702	1484.020000	447.254883	27.477522
11673.836702	1484.020000	445.990234	-64.862846
11673.836702	1484.020000	444.725586	31.424286
11673.836702	1484.020000	443.459961	12.554048
11673.836702	1484.020000	442.194336	47.265079
11673.836702	1484.020000	440.927734	123.618385
11673.836702	1484.020000	439.662109	39.277424
11673.836702	1484.020000	438.395508	14.457608
11673.836702	1484.020000	437.127930	70.928154
11673.836702	1484.020000	435.861328	71.868309
11673.836702	1484.020000	434.593750	84.690384
11673.836702	1484.020000	433.326172	55.892094
11673.836702	1484.020000	432.058594	-10.539207
11673.836702	1484.020000	430.790039	61.677383
11673.836702	1484.020000	429.521484	118.011658
11673.836702	1484.020000	428.252930	116.902023
11673.836702	1484.020000	426.984375	76.196762
11673.836702	1484.020000	425.714844	69.132401
11673.836702	1484.020000	424.445313	22.489883
11673.836702	1484.020000	423.174805	171.657471
11673.836702	1484.020000	421.905273	87.407219
11673.836702	1484.020000	420.634766	107.954247
11673.836702	1484.020000	419.364258	130.448044
11673.836702	1484.020000	418.092773	307.048126
11673.836702	1484.020000	416.822266	155.581116
11673.836702	1484.020000	415.550781	270.817078
11673.836702	1484.020000	414.278320	301.057129
11673.836702	1484.020000	413.006836	196.995560
11673.836702	1484.020000	411.734375	201.518600
11673.836702	1484.020000	410.461914	150.747879
11673.836702	1484.020000	409.188477	48.663948
11673.836702	1484.020000	407.916016	185.287506
11673.836702	1484.020000	406.642578	51.611755
11673.836702	1484.020000	405.368164	95.420830
11673.836702	1484.020000	404.094727	111.570885
11673.836702	1484.020000	402.820313	135.554031
11673.836702	1484.020000	401.545898	82.629646
11673.836702	1484.020000	400.270508	175.470276
11673.836702	1484.020000	398.996094	126.402786
11673.836702	1484.020000	397.720703	43.825996
11673.836702	1484.020000	396.444336	101.018692
11673.836702	1484.020000	395.168945	146.320236
11673.836702	1484.020000	393.892578	85.269623
11673.836702	1484.020000	392.616211	142.238327
11673.836702	1484.020000	391.339844	108.629257
11673.836702	1484.020000	390.062500	76.932907
11673.836702	1484.020000	388.785156	82.539970
11673.836702	1484.020000	387.507813	27.129734
11673.836702	1484.020000	386.229492	40.456947
11673.836702	1484.020000	384.951172	-24.901255
11673.836702	1484.020000	383.672852	194.551575
11673.836702	1484.020000	382.394531	81.881363
11673.836702	1484.020000	381.115234	61.465332
11673.836702	1484.020000	379.835938	92.011871
11673.836702	1484.020000	378.556641	96.932373
11673.836702	1484.020000	377.277344	164.550018
11673.836702	1484.020000	375.997070	177.097046
11673.836702	1484.020000	374.716797	167.954666
11673.836702	1484.020000	373.435547	33.189243
11673.836702	1484.020000	372.155273	86.601341
11673.836702	1484.020000	370.874023	26.171482
11673.836702	1484.020000	369.591797	112.634338
11673.836702	1484.020000	368.310547	10.827332
11673.836702	1484.020000	367.028320	4.923475
11673.836702	1484.020000	365.746094	14.555301
11673.836702	1484.020000	364.463867	69.081131
11673.836702	1484.020000	363.180664	78.407066
11673.836702	1484.020000	361.897461	38.646091
11673.836702	1484.020000	360.614258	-36.476624
11673.836702	1484.020000	359.330078	38.919186
11673.836702	1484.020000	358.045898	4.578569
11673.836702	1484.020000	356.761719	-63.163055
11673.836702	1484.020000	355.477539	-23.514811
11673.836702	1484.020000	354.192383	-36.847439
11673.836702	1484.020000	352.907227	61.036514
11673.836702	1484.020000	351.622070	-36.706497
11673.836702	1484.020000	350.336914	54.883099
11673.836702	1484.020000	349.050781	-23.692526
11673.836702	1484.020000	347.764648	-26.291788
11673.836702	1484.020000	346.477539	-48.634056
11673.836702	1484.020000	345.191406	-20.439064
11673.836702	1484.020000	343.904297	-54.935242
11673.836702	1484.020000	342.616211	-9.669991
11673.836702	1484.020000	341.329102	88.000351
11673.836702	1484.020000	340.041016	54.715481
11673.836702	1484.020000	338.752930	50.431828
11673.836702	1484.020000	337.463867	-10.649930
11673.836702	1484.020000	336.175781	-21.303177
11673.836702	1484.020000	334.886719	82.715553
11673.836702	1484.020000	333.596680	26.660646
11673.836702	1484.020000	332.307617	98.876678
11673.836702	1484.020000	331.017578	-31.750622
11673.836702	1484.020000	329.727539	129.368027
11673.836702	1484.020000	328.436523	37.072403
11673.836702	1484.020000	327.146484	-63.289768
11673.836702	1484.020000	325.855469	-70.576576
11673.836702	1484.020000	324.563477	-52.933178
11673.836702	1484.020000	323.272461	65.469093
11673.836702	1484.020000	321.980469	-67.350807
11673.836702	1484.020000	320.688477	1.655091
11673.836702	1484.020000	319.395508	54.687168
11673.836702	1484.020000	318.103516	19.878286
11673.836702	1484.020000	316.810547	23.515327
11673.836702	1484.020000	315.516602	-23.771261
11673.836702	1484.020000	314.223633	-13.209217
11673.836702	1484.020000	312.929688	-6.985834
11673.836702	1484.020000	311.635742	25.952877
11673.836702	1484.020000	310.340820	25.416616
11673.836702	1484.020000	309.045898	-53.191048
11673.836702	1484.020000	307.750977	-19.762501
11673.836702	1484.020000	306.456055	-60.531887
11673.836702	1484.020000	305.160156	28.079109
11673.836702	1484.020000	303.865234	54.118073
11673.836702	1484.020000	302.568359	-30.872139
11673.836702	1484.020000	301.272461	7.628391
11673.836702	1484.020000	299.975586	14.542605
11673.836702	1484.020000	298.678711	119.637718
