#X		#Y		#Wave		#Intensity
12227.685638	148.405000	1999.980469	-83.396896
12227.685638	148.405000	1999.016602	-28.121561
12227.685638	148.405000	1998.052734	90.725708
12227.685638	148.405000	1997.087891	16.078707
12227.685638	148.405000	1996.123047	32.977707
12227.685638	148.405000	1995.158203	143.852554
12227.685638	148.405000	1994.193359	-74.869392
12227.685638	148.405000	1993.228516	15.881717
12227.685638	148.405000	1992.262695	44.564762
12227.685638	148.405000	1991.297852	45.868668
12227.685638	148.405000	1990.332031	-27.207514
12227.685638	148.405000	1989.366211	-55.846745
12227.685638	148.405000	1988.399414	-17.803560
12227.685638	148.405000	1987.433594	-34.317635
12227.685638	148.405000	1986.466797	87.547050
12227.685638	148.405000	1985.500977	-25.650948
12227.685638	148.405000	1984.534180	-79.588516
12227.685638	148.405000	1983.567383	14.684393
12227.685638	148.405000	1982.599609	-2.391013
12227.685638	148.405000	1981.632813	52.085842
12227.685638	148.405000	1980.665039	-9.664356
12227.685638	148.405000	1979.697266	89.049408
12227.685638	148.405000	1978.729492	27.118181
12227.685638	148.405000	1977.761719	-22.539684
12227.685638	148.405000	1976.792969	56.091068
12227.685638	148.405000	1975.825195	67.966347
12227.685638	148.405000	1974.856445	40.270214
12227.685638	148.405000	1973.887695	37.171513
12227.685638	148.405000	1972.918945	53.725788
12227.685638	148.405000	1971.949219	40.600727
12227.685638	148.405000	1970.980469	89.047752
12227.685638	148.405000	1970.010742	58.513557
12227.685638	148.405000	1969.041016	-100.252037
12227.685638	148.405000	1968.071289	100.769424
12227.685638	148.405000	1967.101563	217.876373
12227.685638	148.405000	1966.130859	51.577118
12227.685638	148.405000	1965.161133	37.983036
12227.685638	148.405000	1964.190430	-84.018875
12227.685638	148.405000	1963.219727	50.022301
12227.685638	148.405000	1962.249023	63.337391
12227.685638	148.405000	1961.277344	-53.849491
12227.685638	148.405000	1960.306641	-40.627270
12227.685638	148.405000	1959.334961	-5.319199
12227.685638	148.405000	1958.363281	56.984459
12227.685638	148.405000	1957.391602	47.897148
12227.685638	148.405000	1956.419922	28.932665
12227.685638	148.405000	1955.447266	-39.237652
12227.685638	148.405000	1954.474609	-11.563895
12227.685638	148.405000	1953.501953	50.464443
12227.685638	148.405000	1952.529297	122.259453
12227.685638	148.405000	1951.556641	2.377218
12227.685638	148.405000	1950.583984	125.661392
12227.685638	148.405000	1949.610352	-33.537937
12227.685638	148.405000	1948.636719	-11.024108
12227.685638	148.405000	1947.663086	43.362823
12227.685638	148.405000	1946.689453	87.882881
12227.685638	148.405000	1945.715820	58.743294
12227.685638	148.405000	1944.741211	-41.561615
12227.685638	148.405000	1943.767578	-75.623749
12227.685638	148.405000	1942.792969	138.002029
12227.685638	148.405000	1941.818359	-16.277456
12227.685638	148.405000	1940.842773	113.859291
12227.685638	148.405000	1939.868164	64.998154
12227.685638	148.405000	1938.892578	-10.822274
12227.685638	148.405000	1937.916992	-3.325330
12227.685638	148.405000	1936.941406	40.898094
12227.685638	148.405000	1935.965820	-7.982916
12227.685638	148.405000	1934.990234	68.030281
12227.685638	148.405000	1934.013672	-32.282639
12227.685638	148.405000	1933.037109	-44.445377
12227.685638	148.405000	1932.060547	-166.750641
12227.685638	148.405000	1931.083984	-78.578300
12227.685638	148.405000	1930.107422	-56.504807
12227.685638	148.405000	1929.129883	85.408745
12227.685638	148.405000	1928.153320	29.167141
12227.685638	148.405000	1927.175781	38.957775
12227.685638	148.405000	1926.198242	26.736559
12227.685638	148.405000	1925.219727	43.844383
12227.685638	148.405000	1924.242188	31.617516
12227.685638	148.405000	1923.263672	46.266891
12227.685638	148.405000	1922.285156	75.565483
12227.685638	148.405000	1921.306641	-27.041161
12227.685638	148.405000	1920.328125	7.140765
12227.685638	148.405000	1919.349609	55.958366
12227.685638	148.405000	1918.370117	-7.533536
12227.685638	148.405000	1917.391602	7.100549
12227.685638	148.405000	1916.412109	4.647551
12227.685638	148.405000	1915.431641	-17.322363
12227.685638	148.405000	1914.452148	97.318367
12227.685638	148.405000	1913.472656	80.224052
12227.685638	148.405000	1912.492188	-27.081100
12227.685638	148.405000	1911.511719	-70.956940
12227.685638	148.405000	1910.531250	-24.627104
12227.685638	148.405000	1909.550781	-48.982010
12227.685638	148.405000	1908.569336	63.121128
12227.685638	148.405000	1907.588867	121.596283
12227.685638	148.405000	1906.607422	2.253950
12227.685638	148.405000	1905.625977	19.331797
12227.685638	148.405000	1904.644531	63.192005
12227.685638	148.405000	1903.662109	-39.013908
12227.685638	148.405000	1902.680664	9.723078
12227.685638	148.405000	1901.698242	46.281319
12227.685638	148.405000	1900.715820	56.072430
12227.685638	148.405000	1899.733398	48.841072
12227.685638	148.405000	1898.750000	-101.866982
12227.685638	148.405000	1897.767578	87.905106
12227.685638	148.405000	1896.784180	7.765199
12227.685638	148.405000	1895.800781	12.736112
12227.685638	148.405000	1894.817383	110.060966
12227.685638	148.405000	1893.833984	102.881783
12227.685638	148.405000	1892.850586	30.125738
12227.685638	148.405000	1891.866211	-57.167538
12227.685638	148.405000	1890.881836	42.564690
12227.685638	148.405000	1889.897461	-59.244835
12227.685638	148.405000	1888.913086	-10.504695
12227.685638	148.405000	1887.927734	-138.943085
12227.685638	148.405000	1886.943359	67.539017
12227.685638	148.405000	1885.958008	-53.566166
12227.685638	148.405000	1884.972656	-31.503660
12227.685638	148.405000	1883.987305	-72.492661
12227.685638	148.405000	1883.001953	-50.413013
12227.685638	148.405000	1882.015625	107.426270
12227.685638	148.405000	1881.029297	1.023231
12227.685638	148.405000	1880.042969	95.808777
12227.685638	148.405000	1879.056641	-17.798637
12227.685638	148.405000	1878.070313	72.132118
12227.685638	148.405000	1877.083984	16.721371
12227.685638	148.405000	1876.096680	94.525108
12227.685638	148.405000	1875.109375	56.099094
12227.685638	148.405000	1874.122070	46.745762
12227.685638	148.405000	1873.134766	5.944778
12227.685638	148.405000	1872.146484	-80.806213
12227.685638	148.405000	1871.159180	-157.835739
12227.685638	148.405000	1870.170898	-24.390635
12227.685638	148.405000	1869.182617	-94.126678
12227.685638	148.405000	1868.194336	-67.110146
12227.685638	148.405000	1867.205078	25.176142
12227.685638	148.405000	1866.216797	18.342728
12227.685638	148.405000	1865.227539	13.937027
12227.685638	148.405000	1864.238281	-101.596977
12227.685638	148.405000	1863.249023	7.576248
12227.685638	148.405000	1862.259766	8.034676
12227.685638	148.405000	1861.269531	-37.378326
12227.685638	148.405000	1860.279297	25.877100
12227.685638	148.405000	1859.290039	26.359804
12227.685638	148.405000	1858.298828	-21.418285
12227.685638	148.405000	1857.308594	106.974129
12227.685638	148.405000	1856.318359	-39.693810
12227.685638	148.405000	1855.327148	13.897358
12227.685638	148.405000	1854.335938	57.830364
12227.685638	148.405000	1853.344727	-11.566882
12227.685638	148.405000	1852.353516	61.297688
12227.685638	148.405000	1851.362305	83.528580
12227.685638	148.405000	1850.370117	88.888878
12227.685638	148.405000	1849.377930	34.022041
12227.685638	148.405000	1848.385742	-52.131989
12227.685638	148.405000	1847.393555	-0.969454
12227.685638	148.405000	1846.401367	67.036011
12227.685638	148.405000	1845.408203	-45.540234
12227.685638	148.405000	1844.415039	39.307987
12227.685638	148.405000	1843.421875	30.273535
12227.685638	148.405000	1842.428711	-48.529594
12227.685638	148.405000	1841.435547	55.532856
12227.685638	148.405000	1840.441406	-114.634895
12227.685638	148.405000	1839.448242	66.362503
12227.685638	148.405000	1838.454102	35.715828
12227.685638	148.405000	1837.459961	-33.377140
12227.685638	148.405000	1836.464844	77.813995
12227.685638	148.405000	1835.470703	-17.686066
12227.685638	148.405000	1834.475586	-29.060785
12227.685638	148.405000	1833.480469	2.808725
12227.685638	148.405000	1832.485352	32.267391
12227.685638	148.405000	1831.490234	-12.718275
12227.685638	148.405000	1830.495117	11.934925
12227.685638	148.405000	1829.499023	12.577271
12227.685638	148.405000	1828.502930	8.421133
12227.685638	148.405000	1827.506836	100.241119
12227.685638	148.405000	1826.510742	26.504698
12227.685638	148.405000	1825.513672	-63.993507
12227.685638	148.405000	1824.517578	68.555542
12227.685638	148.405000	1823.520508	-14.723712
12227.685638	148.405000	1822.523438	-33.250996
12227.685638	148.405000	1821.526367	22.523190
12227.685638	148.405000	1820.529297	37.540684
12227.685638	148.405000	1819.531250	-4.946868
12227.685638	148.405000	1818.533203	12.461600
12227.685638	148.405000	1817.535156	32.256268
12227.685638	148.405000	1816.537109	-19.789248
12227.685638	148.405000	1815.539063	203.481491
12227.685638	148.405000	1814.540039	14.990051
12227.685638	148.405000	1813.541992	125.692932
12227.685638	148.405000	1812.542969	-5.297885
12227.685638	148.405000	1811.543945	19.243380
12227.685638	148.405000	1810.543945	215.968994
12227.685638	148.405000	1809.544922	116.108917
12227.685638	148.405000	1808.544922	49.751190
12227.685638	148.405000	1807.544922	24.048611
12227.685638	148.405000	1806.544922	10.299708
12227.685638	148.405000	1805.544922	-91.856895
12227.685638	148.405000	1804.544922	-0.476666
12227.685638	148.405000	1803.543945	43.092136
12227.685638	148.405000	1802.542969	67.533592
12227.685638	148.405000	1801.541992	34.657238
12227.685638	148.405000	1800.541016	-69.827507
12227.685638	148.405000	1799.539063	21.426641
12227.685638	148.405000	1798.538086	-4.285515
12227.685638	148.405000	1797.536133	-22.839437
12227.685638	148.405000	1796.534180	20.624052
12227.685638	148.405000	1795.532227	16.364927
12227.685638	148.405000	1794.529297	24.019753
12227.685638	148.405000	1793.527344	-1.711560
12227.685638	148.405000	1792.524414	36.911182
12227.685638	148.405000	1791.521484	1.634907
12227.685638	148.405000	1790.518555	-9.811899
12227.685638	148.405000	1789.514648	-49.851543
12227.685638	148.405000	1788.511719	60.162762
12227.685638	148.405000	1787.507813	29.629097
12227.685638	148.405000	1786.503906	22.904057
12227.685638	148.405000	1785.500000	87.581383
12227.685638	148.405000	1784.496094	-16.750809
12227.685638	148.405000	1783.491211	43.126007
12227.685638	148.405000	1782.486328	53.009151
12227.685638	148.405000	1781.481445	-127.408020
12227.685638	148.405000	1780.476563	25.165264
12227.685638	148.405000	1779.471680	-5.411367
12227.685638	148.405000	1778.465820	-0.332285
12227.685638	148.405000	1777.460938	-42.802483
12227.685638	148.405000	1776.455078	-68.636986
12227.685638	148.405000	1775.449219	24.317101
12227.685638	148.405000	1774.442383	-101.315788
12227.685638	148.405000	1773.436523	50.954544
12227.685638	148.405000	1772.429688	58.307362
12227.685638	148.405000	1771.422852	-7.952521
12227.685638	148.405000	1770.416016	-40.971798
12227.685638	148.405000	1769.409180	-36.023140
12227.685638	148.405000	1768.402344	108.896919
12227.685638	148.405000	1767.394531	101.922020
12227.685638	148.405000	1766.386719	-21.284050
12227.685638	148.405000	1765.378906	66.590286
12227.685638	148.405000	1764.371094	54.837799
12227.685638	148.405000	1763.362305	33.590393
12227.685638	148.405000	1762.354492	33.665745
12227.685638	148.405000	1761.345703	83.483337
12227.685638	148.405000	1760.336914	57.454613
12227.685638	148.405000	1759.328125	2.994939
12227.685638	148.405000	1758.318359	12.478091
12227.685638	148.405000	1757.308594	10.101709
12227.685638	148.405000	1756.299805	-18.329805
12227.685638	148.405000	1755.290039	99.973709
12227.685638	148.405000	1754.279297	180.350677
12227.685638	148.405000	1753.269531	-35.060341
12227.685638	148.405000	1752.258789	68.930145
12227.685638	148.405000	1751.249023	-21.067801
12227.685638	148.405000	1750.238281	89.937508
12227.685638	148.405000	1749.226563	134.684647
12227.685638	148.405000	1748.215820	61.213997
12227.685638	148.405000	1747.204102	70.463417
12227.685638	148.405000	1746.193359	-106.967575
12227.685638	148.405000	1745.181641	119.606407
12227.685638	148.405000	1744.168945	31.943247
12227.685638	148.405000	1743.157227	71.812752
12227.685638	148.405000	1742.144531	31.372856
12227.685638	148.405000	1741.132813	-20.871939
12227.685638	148.405000	1740.120117	80.286293
12227.685638	148.405000	1739.106445	-54.578377
12227.685638	148.405000	1738.093750	-12.471334
12227.685638	148.405000	1737.080078	31.956362
12227.685638	148.405000	1736.067383	26.825380
12227.685638	148.405000	1735.053711	196.152802
12227.685638	148.405000	1734.040039	-80.148132
12227.685638	148.405000	1733.025391	-80.605858
12227.685638	148.405000	1732.011719	17.889977
12227.685638	148.405000	1730.997070	-34.459599
12227.685638	148.405000	1729.982422	94.569275
12227.685638	148.405000	1728.967773	30.408201
12227.685638	148.405000	1727.952148	-29.041870
12227.685638	148.405000	1726.937500	-8.444070
12227.685638	148.405000	1725.921875	-72.612907
12227.685638	148.405000	1724.906250	-14.405470
12227.685638	148.405000	1723.890625	88.463387
12227.685638	148.405000	1722.875000	-8.683616
12227.685638	148.405000	1721.858398	23.541952
12227.685638	148.405000	1720.841797	-14.811630
12227.685638	148.405000	1719.825195	-8.500957
12227.685638	148.405000	1718.808594	58.902435
12227.685638	148.405000	1717.791992	20.500841
12227.685638	148.405000	1716.774414	-93.099861
12227.685638	148.405000	1715.756836	-159.692825
12227.685638	148.405000	1714.739258	27.391396
12227.685638	148.405000	1713.721680	24.165031
12227.685638	148.405000	1712.704102	-16.648020
12227.685638	148.405000	1711.685547	-66.858704
12227.685638	148.405000	1710.667969	108.245270
12227.685638	148.405000	1709.649414	-12.409200
12227.685638	148.405000	1708.630859	113.304329
12227.685638	148.405000	1707.611328	-54.262302
12227.685638	148.405000	1706.592773	15.084072
12227.685638	148.405000	1705.573242	58.587845
12227.685638	148.405000	1704.553711	83.300117
12227.685638	148.405000	1703.534180	-30.306894
12227.685638	148.405000	1702.513672	13.115896
12227.685638	148.405000	1701.494141	49.475006
12227.685638	148.405000	1700.473633	-40.698971
12227.685638	148.405000	1699.453125	93.979897
12227.685638	148.405000	1698.432617	48.281704
12227.685638	148.405000	1697.412109	-18.490234
12227.685638	148.405000	1696.390625	104.339722
12227.685638	148.405000	1695.369141	170.934937
12227.685638	148.405000	1694.347656	26.900501
12227.685638	148.405000	1693.326172	109.820969
12227.685638	148.405000	1692.304688	64.048500
12227.685638	148.405000	1691.282227	165.594620
12227.685638	148.405000	1690.260742	-27.506289
12227.685638	148.405000	1689.238281	-52.249844
12227.685638	148.405000	1688.214844	109.963623
12227.685638	148.405000	1687.192383	57.123714
12227.685638	148.405000	1686.168945	188.844070
12227.685638	148.405000	1685.146484	-27.534081
12227.685638	148.405000	1684.123047	55.071606
12227.685638	148.405000	1683.099609	55.905312
12227.685638	148.405000	1682.075195	7.694251
12227.685638	148.405000	1681.051758	-40.514622
12227.685638	148.405000	1680.027344	32.617744
12227.685638	148.405000	1679.002930	19.379066
12227.685638	148.405000	1677.978516	-63.852077
12227.685638	148.405000	1676.953125	88.478615
12227.685638	148.405000	1675.928711	96.167786
12227.685638	148.405000	1674.903320	143.464981
12227.685638	148.405000	1673.877930	116.139473
12227.685638	148.405000	1672.852539	142.405777
12227.685638	148.405000	1671.826172	154.661423
12227.685638	148.405000	1670.800781	185.534744
12227.685638	148.405000	1669.774414	155.820572
12227.685638	148.405000	1668.748047	58.571461
12227.685638	148.405000	1667.721680	66.109871
12227.685638	148.405000	1666.694336	141.128662
12227.685638	148.405000	1665.667969	125.342781
12227.685638	148.405000	1664.640625	16.471724
12227.685638	148.405000	1663.613281	-1.645731
12227.685638	148.405000	1662.585938	80.241112
12227.685638	148.405000	1661.557617	55.107285
12227.685638	148.405000	1660.530273	85.770905
12227.685638	148.405000	1659.501953	88.509460
12227.685638	148.405000	1658.473633	140.037796
12227.685638	148.405000	1657.444336	119.495461
12227.685638	148.405000	1656.416016	161.675781
12227.685638	148.405000	1655.386719	217.758484
12227.685638	148.405000	1654.358398	192.528183
12227.685638	148.405000	1653.328125	120.849754
12227.685638	148.405000	1652.298828	313.828522
12227.685638	148.405000	1651.269531	269.981903
12227.685638	148.405000	1650.239258	209.892258
12227.685638	148.405000	1649.208984	282.055817
12227.685638	148.405000	1648.178711	191.806335
12227.685638	148.405000	1647.148438	266.238770
12227.685638	148.405000	1646.117188	317.439819
12227.685638	148.405000	1645.086914	229.516586
12227.685638	148.405000	1644.055664	289.952301
12227.685638	148.405000	1643.024414	218.262802
12227.685638	148.405000	1641.992188	223.044540
12227.685638	148.405000	1640.960938	195.386124
12227.685638	148.405000	1639.928711	276.576874
12227.685638	148.405000	1638.896484	191.004761
12227.685638	148.405000	1637.864258	253.622665
12227.685638	148.405000	1636.832031	304.632996
12227.685638	148.405000	1635.798828	226.013550
12227.685638	148.405000	1634.766602	253.852036
12227.685638	148.405000	1633.733398	316.366913
12227.685638	148.405000	1632.699219	295.581360
12227.685638	148.405000	1631.666016	290.985077
12227.685638	148.405000	1630.632813	281.758423
12227.685638	148.405000	1629.598633	346.492401
12227.685638	148.405000	1628.564453	397.326569
12227.685638	148.405000	1627.530273	374.192810
12227.685638	148.405000	1626.495117	251.719727
12227.685638	148.405000	1625.460938	307.139740
12227.685638	148.405000	1624.425781	353.290344
12227.685638	148.405000	1623.390625	362.475616
12227.685638	148.405000	1622.355469	330.099670
12227.685638	148.405000	1621.319336	235.412170
12227.685638	148.405000	1620.284180	371.508392
12227.685638	148.405000	1619.248047	246.846878
12227.685638	148.405000	1618.211914	299.836212
12227.685638	148.405000	1617.174805	329.734894
12227.685638	148.405000	1616.138672	325.035675
12227.685638	148.405000	1615.101563	352.603790
12227.685638	148.405000	1614.065430	306.407104
12227.685638	148.405000	1613.027344	308.609100
12227.685638	148.405000	1611.990234	280.859375
12227.685638	148.405000	1610.953125	379.807068
12227.685638	148.405000	1609.915039	481.012360
12227.685638	148.405000	1608.876953	437.115845
12227.685638	148.405000	1607.838867	326.472809
12227.685638	148.405000	1606.800781	305.635315
12227.685638	148.405000	1605.761719	328.523438
12227.685638	148.405000	1604.723633	450.337494
12227.685638	148.405000	1603.684570	401.877289
12227.685638	148.405000	1602.644531	355.731049
12227.685638	148.405000	1601.605469	465.965759
12227.685638	148.405000	1600.566406	376.147980
12227.685638	148.405000	1599.526367	523.108459
12227.685638	148.405000	1598.486328	474.676788
12227.685638	148.405000	1597.446289	612.371338
12227.685638	148.405000	1596.405273	444.487122
12227.685638	148.405000	1595.365234	469.597534
12227.685638	148.405000	1594.324219	501.584961
12227.685638	148.405000	1593.283203	717.227661
12227.685638	148.405000	1592.242188	476.009857
12227.685638	148.405000	1591.200195	517.160706
12227.685638	148.405000	1590.159180	578.952332
12227.685638	148.405000	1589.117188	601.721130
12227.685638	148.405000	1588.075195	681.824036
12227.685638	148.405000	1587.032227	622.015625
12227.685638	148.405000	1585.990234	658.530334
12227.685638	148.405000	1584.947266	585.005005
12227.685638	148.405000	1583.904297	596.309631
12227.685638	148.405000	1582.861328	431.181915
12227.685638	148.405000	1581.818359	637.248047
12227.685638	148.405000	1580.775391	440.122192
12227.685638	148.405000	1579.731445	655.274292
12227.685638	148.405000	1578.687500	554.392212
12227.685638	148.405000	1577.643555	529.096436
12227.685638	148.405000	1576.598633	496.948700
12227.685638	148.405000	1575.554688	595.250671
12227.685638	148.405000	1574.509766	583.707275
12227.685638	148.405000	1573.464844	508.132233
12227.685638	148.405000	1572.419922	624.689941
12227.685638	148.405000	1571.374023	489.703491
12227.685638	148.405000	1570.329102	462.222504
12227.685638	148.405000	1569.283203	471.325897
12227.685638	148.405000	1568.237305	459.869934
12227.685638	148.405000	1567.191406	535.243591
12227.685638	148.405000	1566.144531	521.512207
12227.685638	148.405000	1565.098633	290.847839
12227.685638	148.405000	1564.051758	393.638092
12227.685638	148.405000	1563.004883	503.247498
12227.685638	148.405000	1561.957031	446.209198
12227.685638	148.405000	1560.910156	494.176544
12227.685638	148.405000	1559.862305	510.193604
12227.685638	148.405000	1558.814453	455.505127
12227.685638	148.405000	1557.766602	298.225220
12227.685638	148.405000	1556.718750	496.719421
12227.685638	148.405000	1555.669922	412.466217
12227.685638	148.405000	1554.621094	467.292419
12227.685638	148.405000	1553.573242	362.599915
12227.685638	148.405000	1552.523438	424.274475
12227.685638	148.405000	1551.474609	417.606232
12227.685638	148.405000	1550.424805	290.248291
12227.685638	148.405000	1549.375000	183.448303
12227.685638	148.405000	1548.325195	245.169907
12227.685638	148.405000	1547.275391	325.091614
12227.685638	148.405000	1546.225586	275.286438
12227.685638	148.405000	1545.174805	302.871246
12227.685638	148.405000	1544.124023	325.911926
12227.685638	148.405000	1543.073242	194.308167
12227.685638	148.405000	1542.022461	306.075378
12227.685638	148.405000	1540.970703	222.301178
12227.685638	148.405000	1539.919922	259.046997
12227.685638	148.405000	1538.868164	286.703156
12227.685638	148.405000	1537.815430	184.856918
12227.685638	148.405000	1536.763672	237.542236
12227.685638	148.405000	1535.710938	117.613899
12227.685638	148.405000	1534.659180	131.727875
12227.685638	148.405000	1533.606445	177.635986
12227.685638	148.405000	1532.552734	153.179382
12227.685638	148.405000	1531.500000	49.326885
12227.685638	148.405000	1530.446289	133.853394
12227.685638	148.405000	1529.393555	100.409775
12227.685638	148.405000	1528.338867	121.426949
12227.685638	148.405000	1527.285156	94.841209
12227.685638	148.405000	1526.231445	-31.466667
12227.685638	148.405000	1525.176758	78.029205
12227.685638	148.405000	1524.122070	19.802994
12227.685638	148.405000	1523.067383	-45.175823
12227.685638	148.405000	1522.012695	14.487527
12227.685638	148.405000	1520.957031	-7.388996
12227.685638	148.405000	1519.901367	74.930885
12227.685638	148.405000	1518.845703	-148.397812
12227.685638	148.405000	1517.790039	124.102196
12227.685638	148.405000	1516.734375	113.630356
12227.685638	148.405000	1515.677734	-52.938137
12227.685638	148.405000	1514.621094	63.358944
12227.685638	148.405000	1513.564453	129.875336
12227.685638	148.405000	1512.507813	126.289963
12227.685638	148.405000	1511.450195	57.164150
12227.685638	148.405000	1510.393555	166.665009
12227.685638	148.405000	1509.335938	11.730394
12227.685638	148.405000	1508.278320	24.087023
12227.685638	148.405000	1507.219727	165.228912
12227.685638	148.405000	1506.162109	127.912819
12227.685638	148.405000	1505.103516	27.406862
12227.685638	148.405000	1504.044922	-9.816744
12227.685638	148.405000	1502.986328	-4.110341
12227.685638	148.405000	1501.926758	-25.463190
12227.685638	148.405000	1500.868164	-21.958166
12227.685638	148.405000	1499.808594	65.040779
12227.685638	148.405000	1498.749023	-21.639799
12227.685638	148.405000	1497.688477	-42.864059
12227.685638	148.405000	1496.628906	-16.702896
12227.685638	148.405000	1495.568359	-53.642128
12227.685638	148.405000	1494.507813	-101.806969
12227.685638	148.405000	1493.447266	41.602551
12227.685638	148.405000	1492.386719	-94.363091
12227.685638	148.405000	1491.325195	-158.172409
12227.685638	148.405000	1490.263672	23.530210
12227.685638	148.405000	1489.202148	-137.030930
12227.685638	148.405000	1488.140625	40.152603
12227.685638	148.405000	1487.079102	-86.529846
12227.685638	148.405000	1486.016602	-57.876255
12227.685638	148.405000	1484.954102	-110.191811
12227.685638	148.405000	1483.891602	-23.004675
12227.685638	148.405000	1482.829102	-21.274179
12227.685638	148.405000	1481.765625	59.175446
12227.685638	148.405000	1480.702148	-35.708179
12227.685638	148.405000	1479.638672	-209.168564
12227.685638	148.405000	1478.575195	12.917955
12227.685638	148.405000	1477.511719	41.756592
12227.685638	148.405000	1476.447266	-23.709173
12227.685638	148.405000	1475.382813	-10.533834
12227.685638	148.405000	1474.318359	137.370621
12227.685638	148.405000	1473.253906	190.954025
12227.685638	148.405000	1472.189453	260.270691
12227.685638	148.405000	1471.124023	147.839905
12227.685638	148.405000	1470.058594	376.345795
12227.685638	148.405000	1468.993164	383.017944
12227.685638	148.405000	1467.927734	237.164108
12227.685638	148.405000	1466.861328	230.380325
12227.685638	148.405000	1465.794922	87.067863
12227.685638	148.405000	1464.728516	190.146255
12227.685638	148.405000	1463.662109	230.189331
12227.685638	148.405000	1462.594727	232.541794
12227.685638	148.405000	1461.528320	339.886597
12227.685638	148.405000	1460.460938	228.285156
12227.685638	148.405000	1459.393555	358.175140
12227.685638	148.405000	1458.326172	210.984894
12227.685638	148.405000	1457.257813	286.849762
12227.685638	148.405000	1456.189453	155.644363
12227.685638	148.405000	1455.121094	109.036713
12227.685638	148.405000	1454.052734	173.814957
12227.685638	148.405000	1452.984375	356.891754
12227.685638	148.405000	1451.915039	180.777176
12227.685638	148.405000	1450.845703	241.471573
12227.685638	148.405000	1449.776367	246.009201
12227.685638	148.405000	1448.707031	146.570267
12227.685638	148.405000	1447.636719	157.626846
12227.685638	148.405000	1446.567383	163.330673
12227.685638	148.405000	1445.497070	248.402710
12227.685638	148.405000	1444.425781	108.963226
12227.685638	148.405000	1443.355469	120.901520
12227.685638	148.405000	1442.285156	132.585709
12227.685638	148.405000	1441.213867	-6.477281
12227.685638	148.405000	1440.142578	135.329758
12227.685638	148.405000	1439.070313	149.800430
12227.685638	148.405000	1437.999023	178.438934
12227.685638	148.405000	1436.926758	142.593216
12227.685638	148.405000	1435.854492	172.274887
12227.685638	148.405000	1434.782227	208.377014
12227.685638	148.405000	1433.709961	300.590515
12227.685638	148.405000	1432.636719	277.250183
12227.685638	148.405000	1431.563477	240.804001
12227.685638	148.405000	1430.490234	161.134293
12227.685638	148.405000	1429.416992	19.522795
12227.685638	148.405000	1428.343750	117.309814
12227.685638	148.405000	1427.269531	169.676468
12227.685638	148.405000	1426.195313	67.569618
12227.685638	148.405000	1425.121094	88.501427
12227.685638	148.405000	1424.046875	81.857620
12227.685638	148.405000	1422.971680	-0.792864
12227.685638	148.405000	1421.896484	83.967850
12227.685638	148.405000	1420.821289	144.351166
12227.685638	148.405000	1419.746094	68.493263
12227.685638	148.405000	1418.669922	111.445137
12227.685638	148.405000	1417.594727	190.147186
12227.685638	148.405000	1416.518555	114.099426
12227.685638	148.405000	1415.442383	65.999786
12227.685638	148.405000	1414.365234	190.056595
12227.685638	148.405000	1413.289063	213.452667
12227.685638	148.405000	1412.211914	203.793716
12227.685638	148.405000	1411.134766	225.611053
12227.685638	148.405000	1410.057617	146.315216
12227.685638	148.405000	1408.979492	123.534157
12227.685638	148.405000	1407.902344	252.243790
12227.685638	148.405000	1406.824219	173.560394
12227.685638	148.405000	1405.746094	203.832947
12227.685638	148.405000	1404.666992	322.590363
12227.685638	148.405000	1403.588867	342.587585
12227.685638	148.405000	1402.509766	425.700439
12227.685638	148.405000	1401.430664	219.380295
12227.685638	148.405000	1400.351563	261.846771
12227.685638	148.405000	1399.271484	137.577698
12227.685638	148.405000	1398.192383	19.050795
12227.685638	148.405000	1397.112305	47.462002
12227.685638	148.405000	1396.031250	270.058380
12227.685638	148.405000	1394.951172	155.211533
12227.685638	148.405000	1393.871094	10.686410
12227.685638	148.405000	1392.790039	138.866241
12227.685638	148.405000	1391.708984	67.799744
12227.685638	148.405000	1390.626953	72.508881
12227.685638	148.405000	1389.545898	65.087608
12227.685638	148.405000	1388.463867	94.642952
12227.685638	148.405000	1387.381836	172.681046
12227.685638	148.405000	1386.299805	69.617752
12227.685638	148.405000	1385.217773	37.608723
12227.685638	148.405000	1384.134766	56.708771
12227.685638	148.405000	1383.051758	6.200750
12227.685638	148.405000	1381.968750	47.200241
12227.685638	148.405000	1380.885742	142.504944
12227.685638	148.405000	1379.802734	211.195786
12227.685638	148.405000	1378.718750	73.522522
12227.685638	148.405000	1377.634766	9.728796
12227.685638	148.405000	1376.550781	167.831055
12227.685638	148.405000	1375.465820	136.400436
12227.685638	148.405000	1374.381836	199.030045
12227.685638	148.405000	1373.296875	184.701721
12227.685638	148.405000	1372.211914	174.800034
12227.685638	148.405000	1371.126953	236.270615
12227.685638	148.405000	1370.041016	96.951347
12227.685638	148.405000	1368.955078	71.199875
12227.685638	148.405000	1367.869141	164.196182
12227.685638	148.405000	1366.783203	255.609055
12227.685638	148.405000	1365.697266	226.867493
12227.685638	148.405000	1364.610352	81.951599
12227.685638	148.405000	1363.523438	206.002548
12227.685638	148.405000	1362.436523	182.489883
12227.685638	148.405000	1361.349609	137.743469
12227.685638	148.405000	1360.261719	115.029663
12227.685638	148.405000	1359.174805	176.004211
12227.685638	148.405000	1358.086914	97.945091
12227.685638	148.405000	1356.998047	33.136368
12227.685638	148.405000	1355.910156	75.043205
12227.685638	148.405000	1354.821289	128.487686
12227.685638	148.405000	1353.732422	189.775269
12227.685638	148.405000	1352.643555	218.395004
12227.685638	148.405000	1351.554688	233.423828
12227.685638	148.405000	1350.464844	243.676620
12227.685638	148.405000	1349.375000	270.097412
12227.685638	148.405000	1348.285156	196.073654
12227.685638	148.405000	1347.195313	156.761398
12227.685638	148.405000	1346.105469	257.589630
12227.685638	148.405000	1345.014648	253.432892
12227.685638	148.405000	1343.923828	328.245331
12227.685638	148.405000	1342.833008	125.199593
12227.685638	148.405000	1341.741211	418.940308
12227.685638	148.405000	1340.650391	378.385498
12227.685638	148.405000	1339.558594	427.931671
12227.685638	148.405000	1338.466797	410.852173
12227.685638	148.405000	1337.374023	352.870361
12227.685638	148.405000	1336.282227	454.279541
12227.685638	148.405000	1335.189453	410.322083
12227.685638	148.405000	1334.096680	296.463165
12227.685638	148.405000	1333.003906	502.095062
12227.685638	148.405000	1331.910156	366.063324
12227.685638	148.405000	1330.817383	403.109314
12227.685638	148.405000	1329.723633	380.990234
12227.685638	148.405000	1328.629883	421.523651
12227.685638	148.405000	1327.535156	335.701630
12227.685638	148.405000	1326.441406	493.520752
12227.685638	148.405000	1325.346680	354.387787
12227.685638	148.405000	1324.251953	224.555267
12227.685638	148.405000	1323.156250	282.004120
12227.685638	148.405000	1322.061523	206.167236
12227.685638	148.405000	1320.965820	211.548752
12227.685638	148.405000	1319.870117	257.076874
12227.685638	148.405000	1318.774414	323.331940
12227.685638	148.405000	1317.678711	234.068512
12227.685638	148.405000	1316.582031	185.429764
12227.685638	148.405000	1315.485352	229.007416
12227.685638	148.405000	1314.388672	194.201080
12227.685638	148.405000	1313.291016	257.910309
12227.685638	148.405000	1312.194336	251.112106
12227.685638	148.405000	1311.096680	246.085785
12227.685638	148.405000	1309.999023	72.769646
12227.685638	148.405000	1308.901367	207.402191
12227.685638	148.405000	1307.802734	184.679916
12227.685638	148.405000	1306.705078	119.606979
12227.685638	148.405000	1305.606445	80.251938
12227.685638	148.405000	1304.506836	138.862610
12227.685638	148.405000	1303.408203	156.428879
12227.685638	148.405000	1302.308594	-31.686625
12227.685638	148.405000	1301.208984	-40.733261
12227.685638	148.405000	1300.109375	62.464470
12227.685638	148.405000	1299.009766	-19.620564
12227.685638	148.405000	1297.909180	7.532959
12227.685638	148.405000	1296.808594	162.598480
12227.685638	148.405000	1295.708008	-8.755807
12227.685638	148.405000	1294.607422	-1.793393
12227.685638	148.405000	1293.506836	76.310150
12227.685638	148.405000	1292.405273	45.755898
12227.685638	148.405000	1291.303711	67.582458
12227.685638	148.405000	1290.202148	111.282227
12227.685638	148.405000	1289.099609	169.988922
12227.685638	148.405000	1287.998047	84.767731
12227.685638	148.405000	1286.895508	149.649109
12227.685638	148.405000	1285.792969	73.564178
12227.685638	148.405000	1284.689453	111.866928
12227.685638	148.405000	1283.586914	107.209839
12227.685638	148.405000	1282.483398	35.744556
12227.685638	148.405000	1281.379883	-23.077337
12227.685638	148.405000	1280.276367	54.150108
12227.685638	148.405000	1279.171875	132.370300
12227.685638	148.405000	1278.067383	155.939560
12227.685638	148.405000	1276.962891	13.859544
12227.685638	148.405000	1275.858398	112.917572
12227.685638	148.405000	1274.753906	137.334534
12227.685638	148.405000	1273.648438	114.514313
12227.685638	148.405000	1272.542969	59.715546
12227.685638	148.405000	1271.437500	139.653275
12227.685638	148.405000	1270.331055	91.264114
12227.685638	148.405000	1269.225586	-72.599495
12227.685638	148.405000	1268.119141	58.662083
12227.685638	148.405000	1267.012695	58.523739
12227.685638	148.405000	1265.906250	41.864571
12227.685638	148.405000	1264.798828	-47.686859
12227.685638	148.405000	1263.691406	47.182213
12227.685638	148.405000	1262.583984	-3.358587
12227.685638	148.405000	1261.476563	59.255878
12227.685638	148.405000	1260.368164	-4.622658
12227.685638	148.405000	1259.260742	-23.953903
12227.685638	148.405000	1258.152344	-17.541908
12227.685638	148.405000	1257.043945	2.352811
12227.685638	148.405000	1255.934570	-47.091335
12227.685638	148.405000	1254.825195	44.996960
12227.685638	148.405000	1253.716797	-30.915308
12227.685638	148.405000	1252.606445	-117.300102
12227.685638	148.405000	1251.497070	-9.201669
12227.685638	148.405000	1250.387695	-56.428883
12227.685638	148.405000	1249.277344	-73.166588
12227.685638	148.405000	1248.166992	37.335407
12227.685638	148.405000	1247.055664	-0.558904
12227.685638	148.405000	1245.945313	61.523197
12227.685638	148.405000	1244.833984	97.892021
12227.685638	148.405000	1243.722656	71.170784
12227.685638	148.405000	1242.611328	66.989098
12227.685638	148.405000	1241.499023	51.191433
12227.685638	148.405000	1240.387695	-94.976456
12227.685638	148.405000	1239.275391	41.206882
12227.685638	148.405000	1238.162109	96.580040
12227.685638	148.405000	1237.049805	-1.427151
12227.685638	148.405000	1235.936523	40.080116
12227.685638	148.405000	1234.823242	31.200651
12227.685638	148.405000	1233.709961	41.654388
12227.685638	148.405000	1232.596680	-34.053082
12227.685638	148.405000	1231.482422	4.953965
12227.685638	148.405000	1230.369141	33.497463
12227.685638	148.405000	1229.253906	100.937088
12227.685638	148.405000	1228.139648	46.245140
12227.685638	148.405000	1227.025391	-23.200209
12227.685638	148.405000	1225.910156	-11.958773
12227.685638	148.405000	1224.794922	75.674232
12227.685638	148.405000	1223.679688	-11.018749
12227.685638	148.405000	1222.563477	4.558226
12227.685638	148.405000	1221.447266	-29.760168
12227.685638	148.405000	1220.331055	-59.482006
12227.685638	148.405000	1219.214844	108.011589
12227.685638	148.405000	1218.098633	1.933738
12227.685638	148.405000	1216.981445	-6.576175
12227.685638	148.405000	1215.864258	-0.767923
12227.685638	148.405000	1214.747070	35.100426
12227.685638	148.405000	1213.629883	-12.363965
12227.685638	148.405000	1212.511719	65.749275
12227.685638	148.405000	1211.393555	50.637669
12227.685638	148.405000	1210.275391	-36.175610
12227.685638	148.405000	1209.157227	-43.382210
12227.685638	148.405000	1208.038086	-33.750484
12227.685638	148.405000	1206.918945	-23.428114
12227.685638	148.405000	1205.799805	-2.801572
12227.685638	148.405000	1204.680664	0.803704
12227.685638	148.405000	1203.560547	-37.230755
12227.685638	148.405000	1202.441406	-20.112095
12227.685638	148.405000	1201.321289	8.480597
12227.685638	148.405000	1200.200195	66.926949
12227.685638	148.405000	1199.080078	107.358727
12227.685638	148.405000	1197.958984	34.024540
12227.685638	148.405000	1196.837891	-41.389713
12227.685638	148.405000	1195.716797	-24.751940
12227.685638	148.405000	1194.594727	-11.230950
12227.685638	148.405000	1193.473633	58.978451
12227.685638	148.405000	1192.351563	25.790333
12227.685638	148.405000	1191.229492	81.270027
12227.685638	148.405000	1190.106445	45.135910
12227.685638	148.405000	1188.984375	-71.137314
12227.685638	148.405000	1187.861328	28.694435
12227.685638	148.405000	1186.738281	-12.053951
12227.685638	148.405000	1185.614258	39.754814
12227.685638	148.405000	1184.491211	-118.496765
12227.685638	148.405000	1183.367188	-18.009014
12227.685638	148.405000	1182.243164	5.457813
12227.685638	148.405000	1181.119141	-36.508110
12227.685638	148.405000	1179.994141	-69.972168
12227.685638	148.405000	1178.869141	-70.083755
12227.685638	148.405000	1177.744141	-99.959267
12227.685638	148.405000	1176.619141	-105.758087
12227.685638	148.405000	1175.493164	-50.932842
12227.685638	148.405000	1174.368164	-75.977776
12227.685638	148.405000	1173.242188	-141.770370
12227.685638	148.405000	1172.115234	-153.625809
12227.685638	148.405000	1170.989258	-54.820965
12227.685638	148.405000	1169.862305	-32.949451
12227.685638	148.405000	1168.735352	-92.172989
12227.685638	148.405000	1167.608398	-139.000534
12227.685638	148.405000	1166.481445	-46.862938
12227.685638	148.405000	1165.353516	-85.475609
12227.685638	148.405000	1164.225586	-36.093220
12227.685638	148.405000	1163.097656	-99.226677
12227.685638	148.405000	1161.968750	-51.278938
12227.685638	148.405000	1160.840820	-113.888443
12227.685638	148.405000	1159.711914	-61.722755
12227.685638	148.405000	1158.583008	-32.184425
12227.685638	148.405000	1157.453125	-54.880539
12227.685638	148.405000	1156.324219	-91.689178
12227.685638	148.405000	1155.194336	-97.135185
12227.685638	148.405000	1154.064453	-188.872742
12227.685638	148.405000	1152.933594	-27.321737
12227.685638	148.405000	1151.803711	-98.797630
12227.685638	148.405000	1150.672852	-80.782143
12227.685638	148.405000	1149.541992	-85.808800
12227.685638	148.405000	1148.411133	-89.507607
12227.685638	148.405000	1147.279297	7.187320
12227.685638	148.405000	1146.147461	-95.248451
12227.685638	148.405000	1145.015625	-65.408058
12227.685638	148.405000	1143.883789	-68.655640
12227.685638	148.405000	1142.750977	28.722597
12227.685638	148.405000	1141.619141	-100.839256
12227.685638	148.405000	1140.486328	31.766935
12227.685638	148.405000	1139.352539	106.082512
12227.685638	148.405000	1138.219727	124.148834
12227.685638	148.405000	1137.085938	-39.906757
12227.685638	148.405000	1135.952148	40.863625
12227.685638	148.405000	1134.818359	68.115150
12227.685638	148.405000	1133.683594	101.605209
12227.685638	148.405000	1132.549805	72.258652
12227.685638	148.405000	1131.415039	83.111343
12227.685638	148.405000	1130.279297	19.756413
12227.685638	148.405000	1129.144531	57.213043
12227.685638	148.405000	1128.008789	31.514580
12227.685638	148.405000	1126.873047	132.887375
12227.685638	148.405000	1125.737305	73.945618
12227.685638	148.405000	1124.601563	92.582779
12227.685638	148.405000	1123.464844	68.512672
12227.685638	148.405000	1122.328125	122.218086
12227.685638	148.405000	1121.191406	-40.936314
12227.685638	148.405000	1120.054688	71.008888
12227.685638	148.405000	1118.916992	172.820190
12227.685638	148.405000	1117.779297	117.394012
12227.685638	148.405000	1116.641602	77.640465
12227.685638	148.405000	1115.503906	70.528244
12227.685638	148.405000	1114.365234	46.236370
12227.685638	148.405000	1113.226563	76.200424
12227.685638	148.405000	1112.087891	205.626907
12227.685638	148.405000	1110.949219	135.898590
12227.685638	148.405000	1109.809570	17.173695
12227.685638	148.405000	1108.669922	23.475027
12227.685638	148.405000	1107.530273	82.692940
12227.685638	148.405000	1106.390625	93.021484
12227.685638	148.405000	1105.250000	26.783871
12227.685638	148.405000	1104.109375	1.289126
12227.685638	148.405000	1102.968750	181.533066
12227.685638	148.405000	1101.828125	94.311340
12227.685638	148.405000	1100.686523	133.208557
12227.685638	148.405000	1099.544922	52.288948
12227.685638	148.405000	1098.403320	111.520279
12227.685638	148.405000	1097.261719	113.132515
12227.685638	148.405000	1096.120117	40.479404
12227.685638	148.405000	1094.977539	130.000244
12227.685638	148.405000	1093.834961	237.421219
12227.685638	148.405000	1092.691406	193.431580
12227.685638	148.405000	1091.548828	106.519028
12227.685638	148.405000	1090.405273	34.338177
12227.685638	148.405000	1089.261719	143.899002
12227.685638	148.405000	1088.118164	-46.851967
12227.685638	148.405000	1086.973633	29.018602
12227.685638	148.405000	1085.829102	127.943832
12227.685638	148.405000	1084.684570	150.725510
12227.685638	148.405000	1083.540039	77.746941
12227.685638	148.405000	1082.395508	127.570663
12227.685638	148.405000	1081.250000	61.143337
12227.685638	148.405000	1080.104492	36.837406
12227.685638	148.405000	1078.958984	3.491283
12227.685638	148.405000	1077.812500	69.471275
12227.685638	148.405000	1076.666016	-36.299835
12227.685638	148.405000	1075.519531	6.315937
12227.685638	148.405000	1074.373047	-16.602997
12227.685638	148.405000	1073.226563	47.220505
12227.685638	148.405000	1072.079102	83.708344
12227.685638	148.405000	1070.931641	74.256546
12227.685638	148.405000	1069.784180	104.762138
12227.685638	148.405000	1068.635742	94.440437
12227.685638	148.405000	1067.487305	24.802279
12227.685638	148.405000	1066.338867	55.570133
12227.685638	148.405000	1065.190430	59.673508
12227.685638	148.405000	1064.041992	203.848053
12227.685638	148.405000	1062.892578	74.739204
12227.685638	148.405000	1061.743164	239.774139
12227.685638	148.405000	1060.593750	116.315720
12227.685638	148.405000	1059.443359	90.324028
12227.685638	148.405000	1058.292969	47.676018
12227.685638	148.405000	1057.142578	143.134949
12227.685638	148.405000	1055.992188	54.092758
12227.685638	148.405000	1054.841797	-11.847944
12227.685638	148.405000	1053.690430	84.248917
12227.685638	148.405000	1052.539063	78.351707
12227.685638	148.405000	1051.387695	75.352364
12227.685638	148.405000	1050.235352	74.620995
12227.685638	148.405000	1049.083984	115.214272
12227.685638	148.405000	1047.931641	6.611812
12227.685638	148.405000	1046.778320	45.356152
12227.685638	148.405000	1045.625977	5.615631
12227.685638	148.405000	1044.472656	82.309967
12227.685638	148.405000	1043.319336	106.983360
12227.685638	148.405000	1042.166016	27.211603
12227.685638	148.405000	1041.012695	46.790939
12227.685638	148.405000	1039.858398	66.452927
12227.685638	148.405000	1038.704102	124.940086
12227.685638	148.405000	1037.549805	225.179535
12227.685638	148.405000	1036.394531	177.594910
12227.685638	148.405000	1035.239258	44.704681
12227.685638	148.405000	1034.083984	9.371015
12227.685638	148.405000	1032.928711	14.388711
12227.685638	148.405000	1031.773438	35.251793
12227.685638	148.405000	1030.617188	108.272041
12227.685638	148.405000	1029.460938	62.485798
12227.685638	148.405000	1028.304688	103.969612
12227.685638	148.405000	1027.147461	-10.350512
12227.685638	148.405000	1025.991211	47.000217
12227.685638	148.405000	1024.833984	156.217407
12227.685638	148.405000	1023.675781	131.644669
12227.685638	148.405000	1022.518555	87.074257
12227.685638	148.405000	1021.360352	4.584771
12227.685638	148.405000	1020.202148	8.798861
12227.685638	148.405000	1019.043945	66.439079
12227.685638	148.405000	1017.884766	-6.610164
12227.685638	148.405000	1016.726563	6.713800
12227.685638	148.405000	1015.567383	106.676933
12227.685638	148.405000	1014.407227	1.304249
12227.685638	148.405000	1013.248047	12.008362
12227.685638	148.405000	1012.087891	90.669662
12227.685638	148.405000	1010.927734	101.163361
12227.685638	148.405000	1009.767578	90.933701
12227.685638	148.405000	1008.606445	154.536880
12227.685638	148.405000	1007.446289	82.215714
12227.685638	148.405000	1006.285156	131.074356
12227.685638	148.405000	1005.123047	105.480591
12227.685638	148.405000	1003.961914	-71.645653
12227.685638	148.405000	1002.799805	119.406372
12227.685638	148.405000	1001.637695	55.943886
12227.685638	148.405000	1000.475586	-6.628409
12227.685638	148.405000	999.312500	65.826401
12227.685638	148.405000	998.149414	33.604813
12227.685638	148.405000	996.986328	44.212620
12227.685638	148.405000	995.823242	23.896328
12227.685638	148.405000	994.659180	69.124100
12227.685638	148.405000	993.496094	11.838773
12227.685638	148.405000	992.332031	54.752617
12227.685638	148.405000	991.166992	66.663391
12227.685638	148.405000	990.002930	3.065487
12227.685638	148.405000	988.837891	22.037594
12227.685638	148.405000	987.672852	-69.926414
12227.685638	148.405000	986.506836	55.792446
12227.685638	148.405000	985.341797	57.030945
12227.685638	148.405000	984.175781	-79.604965
12227.685638	148.405000	983.009766	-12.433384
12227.685638	148.405000	981.843750	50.233128
12227.685638	148.405000	980.676758	19.567953
12227.685638	148.405000	979.509766	106.826515
12227.685638	148.405000	978.342773	-27.310825
12227.685638	148.405000	977.175781	19.489117
12227.685638	148.405000	976.007813	16.858189
12227.685638	148.405000	974.839844	-93.999664
12227.685638	148.405000	973.671875	26.177713
12227.685638	148.405000	972.503906	45.308464
12227.685638	148.405000	971.334961	-51.232674
12227.685638	148.405000	970.166016	154.895004
12227.685638	148.405000	968.997070	-50.374001
12227.685638	148.405000	967.828125	-29.354683
12227.685638	148.405000	966.658203	41.980743
12227.685638	148.405000	965.488281	29.702251
12227.685638	148.405000	964.318359	101.583961
12227.685638	148.405000	963.148438	56.121651
12227.685638	148.405000	961.977539	-15.724789
12227.685638	148.405000	960.806641	26.938629
12227.685638	148.405000	959.635742	-103.935028
12227.685638	148.405000	958.463867	41.312092
12227.685638	148.405000	957.292969	100.257393
12227.685638	148.405000	956.121094	-2.967178
12227.685638	148.405000	954.948242	43.067497
12227.685638	148.405000	953.776367	49.170776
12227.685638	148.405000	952.603516	4.006315
12227.685638	148.405000	951.430664	69.923706
12227.685638	148.405000	950.257813	-70.795609
12227.685638	148.405000	949.084961	64.181793
12227.685638	148.405000	947.911133	-57.315609
12227.685638	148.405000	946.737305	8.612576
12227.685638	148.405000	945.563477	-65.198021
12227.685638	148.405000	944.388672	-55.837887
12227.685638	148.405000	943.213867	-27.679071
12227.685638	148.405000	942.039063	-47.165489
12227.685638	148.405000	940.864258	7.357090
12227.685638	148.405000	939.688477	118.931458
12227.685638	148.405000	938.513672	35.268703
12227.685638	148.405000	937.337891	-107.878052
12227.685638	148.405000	936.161133	37.058018
12227.685638	148.405000	934.985352	-3.734453
12227.685638	148.405000	933.808594	174.374100
12227.685638	148.405000	932.631836	88.327354
12227.685638	148.405000	931.454102	45.176590
12227.685638	148.405000	930.277344	185.162735
12227.685638	148.405000	929.099609	39.674103
12227.685638	148.405000	927.921875	-72.461105
12227.685638	148.405000	926.743164	91.256401
12227.685638	148.405000	925.565430	43.324131
12227.685638	148.405000	924.386719	-66.408905
12227.685638	148.405000	923.208008	-33.495872
12227.685638	148.405000	922.028320	73.090103
12227.685638	148.405000	920.849609	60.824570
12227.685638	148.405000	919.669922	61.234493
12227.685638	148.405000	919.474609	-29.764191
12227.685638	148.405000	918.309570	22.115526
12227.685638	148.405000	917.143555	-13.887767
12227.685638	148.405000	915.977539	-4.769131
12227.685638	148.405000	914.810547	47.070797
12227.685638	148.405000	913.644531	-5.531107
12227.685638	148.405000	912.477539	103.230911
12227.685638	148.405000	911.310547	152.642792
12227.685638	148.405000	910.143555	-42.254311
12227.685638	148.405000	908.975586	-11.803419
12227.685638	148.405000	907.807617	16.263826
12227.685638	148.405000	906.639648	-29.159122
12227.685638	148.405000	905.471680	-41.386093
12227.685638	148.405000	904.303711	-65.454796
12227.685638	148.405000	903.134766	40.772942
12227.685638	148.405000	901.965820	-25.931849
12227.685638	148.405000	900.796875	-9.733580
12227.685638	148.405000	899.626953	41.970261
12227.685638	148.405000	898.457031	-90.965065
12227.685638	148.405000	897.287109	34.095093
12227.685638	148.405000	896.117188	-1.778828
12227.685638	148.405000	894.947266	75.905235
12227.685638	148.405000	893.776367	30.580606
12227.685638	148.405000	892.605469	30.201168
12227.685638	148.405000	891.434570	29.823433
12227.685638	148.405000	890.262695	29.447861
12227.685638	148.405000	889.091797	19.621727
12227.685638	148.405000	887.919922	-49.262074
12227.685638	148.405000	886.748047	14.160478
12227.685638	148.405000	885.575195	-45.243214
12227.685638	148.405000	884.403320	8.712774
12227.685638	148.405000	883.230469	-19.972944
12227.685638	148.405000	882.057617	-55.724693
12227.685638	148.405000	880.883789	-15.949726
12227.685638	148.405000	879.710938	14.374767
12227.685638	148.405000	878.537109	11.667820
12227.685638	148.405000	877.362305	-26.407871
12227.685638	148.405000	876.188477	72.283279
12227.685638	148.405000	875.013672	-152.006927
12227.685638	148.405000	873.839844	-6.188810
12227.685638	148.405000	872.664063	-39.504574
12227.685638	148.405000	871.489258	-42.178410
12227.685638	148.405000	870.313477	28.167963
12227.685638	148.405000	869.138672	9.004313
12227.685638	148.405000	867.962891	-57.234921
12227.685638	148.405000	866.786133	-88.134865
12227.685638	148.405000	865.610352	-36.649841
12227.685638	148.405000	864.433594	-39.298775
12227.685638	148.405000	863.256836	19.220251
12227.685638	148.405000	862.079102	63.607903
12227.685638	148.405000	860.902344	77.412003
12227.685638	148.405000	859.724609	-80.407578
12227.685638	148.405000	858.546875	20.397341
12227.685638	148.405000	857.368164	-31.586107
12227.685638	148.405000	856.190430	97.370049
12227.685638	148.405000	855.011719	52.447620
12227.685638	148.405000	853.833008	21.639381
12227.685638	148.405000	852.654297	-88.987244
12227.685638	148.405000	851.474609	32.849972
12227.685638	148.405000	850.294922	-152.832535
12227.685638	148.405000	849.115234	48.762642
12227.685638	148.405000	847.935547	-42.991425
12227.685638	148.405000	846.754883	50.606426
12227.685638	148.405000	845.575195	3.457424
12227.685638	148.405000	844.393555	-90.561066
12227.685638	148.405000	843.212891	-64.980667
12227.685638	148.405000	842.032227	-1.906129
12227.685638	148.405000	840.850586	51.774361
12227.685638	148.405000	839.668945	-74.957474
12227.685638	148.405000	838.486328	-18.931948
12227.685638	148.405000	837.304688	39.416389
12227.685638	148.405000	836.122070	-9.955928
12227.685638	148.405000	834.939453	-87.393860
12227.685638	148.405000	833.756836	66.902878
12227.685638	148.405000	832.573242	-31.568380
12227.685638	148.405000	831.389648	24.407431
12227.685638	148.405000	830.206055	-97.394547
12227.685638	148.405000	829.022461	-11.019009
12227.685638	148.405000	827.838867	-25.207422
12227.685638	148.405000	826.654297	-20.685118
12227.685638	148.405000	825.469727	-37.192860
12227.685638	148.405000	824.284180	9.397290
12227.685638	148.405000	823.099609	-11.773162
12227.685638	148.405000	821.914063	11.446224
12227.685638	148.405000	820.728516	-68.083542
12227.685638	148.405000	819.542969	-16.838070
12227.685638	148.405000	818.356445	-2.954804
12227.685638	148.405000	817.169922	-45.080315
12227.685638	148.405000	815.983398	29.473833
12227.685638	148.405000	814.796875	-19.630299
12227.685638	148.405000	813.609375	3.588756
12227.685638	148.405000	812.422852	-15.169241
12227.685638	148.405000	811.235352	-50.233055
12227.685638	148.405000	810.046875	80.205132
12227.685638	148.405000	808.859375	14.850657
12227.685638	148.405000	807.670898	0.782980
12227.685638	148.405000	806.482422	-57.531742
12227.685638	148.405000	805.293945	-13.350410
12227.685638	148.405000	804.104492	5.205417
12227.685638	148.405000	802.915039	-13.488445
12227.685638	148.405000	801.725586	116.781059
12227.685638	148.405000	800.536133	67.829285
12227.685638	148.405000	799.345703	79.388680
12227.685638	148.405000	798.155273	4.887282
12227.685638	148.405000	796.964844	-30.047312
12227.685638	148.405000	795.774414	-16.140043
12227.685638	148.405000	794.583008	16.361313
12227.685638	148.405000	793.392578	-90.588737
12227.685638	148.405000	792.200195	-23.226015
12227.685638	148.405000	791.008789	-2.349561
12227.685638	148.405000	789.816406	-18.639648
12227.685638	148.405000	788.625000	-53.497517
12227.685638	148.405000	787.432617	-86.016029
12227.685638	148.405000	786.239258	-81.380104
12227.685638	148.405000	785.046875	-9.445829
12227.685638	148.405000	783.853516	34.619469
12227.685638	148.405000	782.660156	101.865349
12227.685638	148.405000	781.465820	92.552567
12227.685638	148.405000	780.272461	106.432198
12227.685638	148.405000	779.078125	27.579103
12227.685638	148.405000	777.883789	115.638283
12227.685638	148.405000	776.688477	-7.208118
12227.685638	148.405000	775.494141	-0.262765
12227.685638	148.405000	774.298828	13.630268
12227.685638	148.405000	773.103516	34.466549
12227.685638	148.405000	771.907227	78.448975
12227.685638	148.405000	770.711914	27.504103
12227.685638	148.405000	769.515625	-32.676003
12227.685638	148.405000	768.318359	41.376530
12227.685638	148.405000	767.122070	-44.227901
12227.685638	148.405000	765.924805	-21.087532
12227.685638	148.405000	764.727539	-4.894311
12227.685638	148.405000	763.530273	-25.699169
12227.685638	148.405000	762.333008	-67.299133
12227.685638	148.405000	761.134766	22.846327
12227.685638	148.405000	759.936523	50.569416
12227.685638	148.405000	758.738281	32.079456
12227.685638	148.405000	757.540039	-9.499449
12227.685638	148.405000	756.340820	20.520439
12227.685638	148.405000	755.141602	32.057995
12227.685638	148.405000	753.942383	25.124287
12227.685638	148.405000	752.742188	22.807917
12227.685638	148.405000	751.541992	68.941582
12227.685638	148.405000	750.341797	25.093466
12227.685638	148.405000	749.141602	103.490456
12227.685638	148.405000	747.941406	91.929504
12227.685638	148.405000	746.740234	-4.922193
12227.685638	148.405000	745.539063	50.378166
12227.685638	148.405000	744.337891	121.782806
12227.685638	148.405000	743.135742	167.813644
12227.685638	148.405000	741.933594	135.509445
12227.685638	148.405000	740.731445	-23.440779
12227.685638	148.405000	739.529297	183.747238
12227.685638	148.405000	738.326172	213.601013
12227.685638	148.405000	737.124023	167.491943
12227.685638	148.405000	735.919922	268.658234
12227.685638	148.405000	734.716797	381.279572
12227.685638	148.405000	733.513672	316.753052
12227.685638	148.405000	732.309570	323.533447
12227.685638	148.405000	731.105469	226.851410
12227.685638	148.405000	729.900391	242.832596
12227.685638	148.405000	728.696289	192.158768
12227.685638	148.405000	727.491211	162.179276
12227.685638	148.405000	726.286133	235.575226
12227.685638	148.405000	725.080078	74.683197
12227.685638	148.405000	723.874023	17.177467
12227.685638	148.405000	722.668945	95.131508
12227.685638	148.405000	721.461914	108.783875
12227.685638	148.405000	720.255859	21.457888
12227.685638	148.405000	719.048828	-70.425850
12227.685638	148.405000	717.841797	101.498611
12227.685638	148.405000	716.634766	48.607800
12227.685638	148.405000	715.427734	20.952061
12227.685638	148.405000	714.219727	-20.452402
12227.685638	148.405000	713.011719	-100.807236
12227.685638	148.405000	711.803711	25.081224
12227.685638	148.405000	710.594727	-48.392181
12227.685638	148.405000	709.385742	-57.713257
12227.685638	148.405000	708.176758	68.063370
12227.685638	148.405000	706.967773	-21.423571
12227.685638	148.405000	705.758789	37.897270
12227.685638	148.405000	704.548828	-30.966990
12227.685638	148.405000	703.338867	-154.722092
12227.685638	148.405000	702.127930	-65.699791
12227.685638	148.405000	700.917969	105.606621
12227.685638	148.405000	699.707031	55.041138
12227.685638	148.405000	698.496094	63.923668
12227.685638	148.405000	697.285156	33.938129
12227.685638	148.405000	696.073242	115.923615
12227.685638	148.405000	694.861328	90.488907
12227.685638	148.405000	693.649414	3.383575
12227.685638	148.405000	692.436523	39.620045
12227.685638	148.405000	691.224609	-65.724991
12227.685638	148.405000	690.011719	4.728927
12227.685638	148.405000	688.798828	-43.531681
12227.685638	148.405000	687.584961	15.456985
12227.685638	148.405000	686.372070	28.784143
12227.685638	148.405000	685.158203	64.901978
12227.685638	148.405000	683.943359	14.343018
12227.685638	148.405000	682.729492	132.496826
12227.685638	148.405000	681.514648	-6.972782
12227.685638	148.405000	680.299805	-32.454472
12227.685638	148.405000	679.084961	119.772545
12227.685638	148.405000	677.869141	48.692287
12227.685638	148.405000	676.653320	77.834099
12227.685638	148.405000	675.437500	40.919991
12227.685638	148.405000	674.221680	129.211792
12227.685638	148.405000	673.004883	28.549675
12227.685638	148.405000	671.789063	62.168877
12227.685638	148.405000	670.571289	-43.013832
12227.685638	148.405000	669.354492	-79.931114
12227.685638	148.405000	668.136719	131.022766
12227.685638	148.405000	666.919922	121.339005
12227.685638	148.405000	665.701172	104.826340
12227.685638	148.405000	664.483398	138.302734
12227.685638	148.405000	663.264648	174.023041
12227.685638	148.405000	662.045898	143.836075
12227.685638	148.405000	660.827148	172.697296
12227.685638	148.405000	659.608398	97.080254
12227.685638	148.405000	658.388672	14.669723
12227.685638	148.405000	657.168945	48.034100
12227.685638	148.405000	655.949219	65.484810
12227.685638	148.405000	654.728516	64.762535
12227.685638	148.405000	653.507813	70.830238
12227.685638	148.405000	652.287109	113.164398
12227.685638	148.405000	651.066406	-30.455044
12227.685638	148.405000	649.844727	70.788986
12227.685638	148.405000	648.623047	31.460335
12227.685638	148.405000	647.401367	41.981544
12227.685638	148.405000	646.179688	57.013191
12227.685638	148.405000	644.957031	47.108150
12227.685638	148.405000	643.734375	150.413589
12227.685638	148.405000	642.511719	40.846207
12227.685638	148.405000	641.289063	51.273628
12227.685638	148.405000	640.065430	52.628326
12227.685638	148.405000	638.841797	17.765553
12227.685638	148.405000	637.618164	109.575897
12227.685638	148.405000	636.393555	20.405142
12227.685638	148.405000	635.168945	51.093452
12227.685638	148.405000	633.944336	-1.890692
12227.685638	148.405000	632.719727	31.016413
12227.685638	148.405000	631.494141	104.566277
12227.685638	148.405000	630.269531	26.703827
12227.685638	148.405000	629.042969	21.135740
12227.685638	148.405000	627.817383	40.393860
12227.685638	148.405000	626.590820	102.523903
12227.685638	148.405000	625.365234	49.490932
12227.685638	148.405000	624.137695	66.423370
12227.685638	148.405000	622.911133	47.231415
12227.685638	148.405000	621.683594	55.100574
12227.685638	148.405000	620.456055	15.587552
12227.685638	148.405000	619.228516	-10.396490
12227.685638	148.405000	618.000977	-90.491158
12227.685638	148.405000	616.772461	86.377228
12227.685638	148.405000	615.543945	24.289850
12227.685638	148.405000	614.314453	-49.052677
12227.685638	148.405000	613.085938	55.565517
12227.685638	148.405000	611.856445	-24.541304
12227.685638	148.405000	610.626953	-28.078753
12227.685638	148.405000	609.397461	60.661503
12227.685638	148.405000	608.166992	59.325108
12227.685638	148.405000	606.936523	-2.779085
12227.685638	148.405000	605.706055	-26.629501
12227.685638	148.405000	604.474609	-25.746037
12227.685638	148.405000	603.244141	-56.359108
12227.685638	148.405000	602.012695	-33.019596
12227.685638	148.405000	600.780273	-72.641479
12227.685638	148.405000	599.548828	20.324200
12227.685638	148.405000	598.316406	-8.089255
12227.685638	148.405000	597.083984	-20.782331
12227.685638	148.405000	595.851563	-89.629646
12227.685638	148.405000	594.618164	-55.179222
12227.685638	148.405000	593.384766	28.627737
12227.685638	148.405000	592.151367	13.633184
12227.685638	148.405000	590.917969	41.263798
12227.685638	148.405000	589.683594	-20.868063
12227.685638	148.405000	588.449219	-33.643723
12227.685638	148.405000	587.214844	23.087385
12227.685638	148.405000	585.979492	-39.043839
12227.685638	148.405000	584.745117	8.670845
12227.685638	148.405000	583.509766	-84.832153
12227.685638	148.405000	582.273438	34.540367
12227.685638	148.405000	581.038086	55.287479
12227.685638	148.405000	579.801758	107.366074
12227.685638	148.405000	578.565430	29.542408
12227.685638	148.405000	577.329102	-12.442814
12227.685638	148.405000	576.091797	93.293716
12227.685638	148.405000	574.854492	55.762928
12227.685638	148.405000	573.617188	-13.084490
12227.685638	148.405000	572.378906	-72.967789
12227.685638	148.405000	571.141602	-67.985832
12227.685638	148.405000	569.903320	-2.652552
12227.685638	148.405000	568.664063	-35.710876
12227.685638	148.405000	567.425781	107.783852
12227.685638	148.405000	566.186523	27.774210
12227.685638	148.405000	564.947266	10.336432
12227.685638	148.405000	563.708008	50.963470
12227.685638	148.405000	562.467773	15.644553
12227.685638	148.405000	561.227539	58.465714
12227.685638	148.405000	559.987305	65.548828
12227.685638	148.405000	558.747070	21.296532
12227.685638	148.405000	557.505859	19.442429
12227.685638	148.405000	556.264648	-20.337315
12227.685638	148.405000	555.023438	-37.808018
12227.685638	148.405000	553.781250	76.263916
12227.685638	148.405000	552.539063	-8.107424
12227.685638	148.405000	551.296875	-5.534760
12227.685638	148.405000	550.054688	126.261284
12227.685638	148.405000	548.811523	159.977432
12227.685638	148.405000	547.569336	-2.316408
12227.685638	148.405000	546.325195	71.480782
12227.685638	148.405000	545.082031	11.669290
12227.685638	148.405000	543.837891	63.163963
12227.685638	148.405000	542.593750	81.253365
12227.685638	148.405000	541.349609	-38.605869
12227.685638	148.405000	540.105469	-53.875557
12227.685638	148.405000	538.860352	-53.576263
12227.685638	148.405000	537.615234	73.450706
12227.685638	148.405000	536.369141	4.806126
12227.685638	148.405000	535.124023	27.307547
12227.685638	148.405000	533.877930	-39.080643
12227.685638	148.405000	532.631836	47.837620
12227.685638	148.405000	531.384766	43.656265
12227.685638	148.405000	530.138672	-22.697521
12227.685638	148.405000	528.891602	13.096107
12227.685638	148.405000	527.643555	-59.884621
12227.685638	148.405000	526.396484	29.158569
12227.685638	148.405000	525.148438	-37.138554
12227.685638	148.405000	523.900391	-14.682232
12227.685638	148.405000	522.652344	-56.546093
12227.685638	148.405000	521.403320	30.203644
12227.685638	148.405000	520.154297	-89.234291
12227.685638	148.405000	518.905273	66.190987
12227.685638	148.405000	517.656250	-144.044373
12227.685638	148.405000	516.406250	-10.822758
12227.685638	148.405000	515.156250	62.545284
12227.685638	148.405000	513.906250	-123.188957
12227.685638	148.405000	512.655273	32.089207
12227.685638	148.405000	511.404297	-98.218163
12227.685638	148.405000	510.153320	-4.965002
12227.685638	148.405000	508.902344	-59.978161
12227.685638	148.405000	507.650391	-64.089737
12227.685638	148.405000	506.398438	-48.291504
12227.685638	148.405000	505.146484	-30.283613
12227.685638	148.405000	503.893555	-96.277809
12227.685638	148.405000	502.641602	-98.146172
12227.685638	148.405000	501.388672	-97.799034
12227.685638	148.405000	500.134766	-146.046204
12227.685638	148.405000	498.881836	-75.000519
12227.685638	148.405000	497.627930	-37.101383
12227.685638	148.405000	496.374023	-49.987396
12227.685638	148.405000	495.119141	-146.733841
12227.685638	148.405000	493.865234	-20.553780
12227.685638	148.405000	492.610352	-17.969830
12227.685638	148.405000	491.355469	17.707453
12227.685638	148.405000	490.099609	-14.987133
12227.685638	148.405000	488.843750	5.255941
12227.685638	148.405000	487.587891	45.337692
12227.685638	148.405000	486.332031	-84.285942
12227.685638	148.405000	485.075195	-57.406116
12227.685638	148.405000	483.818359	24.543438
12227.685638	148.405000	482.561523	-8.059752
12227.685638	148.405000	481.304688	67.255562
12227.685638	148.405000	480.046875	149.151077
12227.685638	148.405000	478.789063	39.533287
12227.685638	148.405000	477.531250	-48.023323
12227.685638	148.405000	476.272461	-54.131519
12227.685638	148.405000	475.013672	-31.633894
12227.685638	148.405000	473.754883	-44.322735
12227.685638	148.405000	472.496094	48.536987
12227.685638	148.405000	471.236328	57.835140
12227.685638	148.405000	469.976563	-25.165028
12227.685638	148.405000	468.716797	19.317345
12227.685638	148.405000	467.456055	17.656693
12227.685638	148.405000	466.196289	-1.564600
12227.685638	148.405000	464.935547	16.558228
12227.685638	148.405000	463.673828	96.148972
12227.685638	148.405000	462.413086	63.776703
12227.685638	148.405000	461.151367	-32.211716
12227.685638	148.405000	459.889648	-20.651217
12227.685638	148.405000	458.626953	-66.118683
12227.685638	148.405000	457.364258	-1.913480
12227.685638	148.405000	456.101563	-25.428852
12227.685638	148.405000	454.838867	60.670425
12227.685638	148.405000	453.575195	52.501434
12227.685638	148.405000	452.312500	68.442245
12227.685638	148.405000	451.047852	18.661213
12227.685638	148.405000	449.784180	104.691429
12227.685638	148.405000	448.519531	54.929550
12227.685638	148.405000	447.254883	-12.322546
12227.685638	148.405000	445.990234	141.511795
12227.685638	148.405000	444.725586	98.341248
12227.685638	148.405000	443.459961	81.441017
12227.685638	148.405000	442.194336	103.917267
12227.685638	148.405000	440.927734	47.656219
12227.685638	148.405000	439.662109	43.888275
12227.685638	148.405000	438.395508	-38.573025
12227.685638	148.405000	437.127930	73.492447
12227.685638	148.405000	435.861328	43.485630
12227.685638	148.405000	434.593750	28.774559
12227.685638	148.405000	433.326172	66.475311
12227.685638	148.405000	432.058594	123.800995
12227.685638	148.405000	430.790039	-30.661467
12227.685638	148.405000	429.521484	-12.650145
12227.685638	148.405000	428.252930	57.708286
12227.685638	148.405000	426.984375	154.199203
12227.685638	148.405000	425.714844	39.062817
12227.685638	148.405000	424.445313	85.324532
12227.685638	148.405000	423.174805	59.599159
12227.685638	148.405000	421.905273	25.144373
12227.685638	148.405000	420.634766	86.564880
12227.685638	148.405000	419.364258	176.256470
12227.685638	148.405000	418.092773	54.587742
12227.685638	148.405000	416.822266	59.254501
12227.685638	148.405000	415.550781	35.580963
12227.685638	148.405000	414.278320	105.487000
12227.685638	148.405000	413.006836	94.800644
12227.685638	148.405000	411.734375	99.310089
12227.685638	148.405000	410.461914	21.109228
12227.685638	148.405000	409.188477	-20.128151
12227.685638	148.405000	407.916016	164.753784
12227.685638	148.405000	406.642578	77.752350
12227.685638	148.405000	405.368164	103.759705
12227.685638	148.405000	404.094727	40.605717
12227.685638	148.405000	402.820313	-11.717201
12227.685638	148.405000	401.545898	94.487259
12227.685638	148.405000	400.270508	11.645379
12227.685638	148.405000	398.996094	-1.748933
12227.685638	148.405000	397.720703	19.522055
12227.685638	148.405000	396.444336	19.005301
12227.685638	148.405000	395.168945	48.789211
12227.685638	148.405000	393.892578	43.767876
12227.685638	148.405000	392.616211	155.780304
12227.685638	148.405000	391.339844	81.175438
12227.685638	148.405000	390.062500	93.223457
12227.685638	148.405000	388.785156	111.670937
12227.685638	148.405000	387.507813	112.672630
12227.685638	148.405000	386.229492	0.909004
12227.685638	148.405000	384.951172	77.525917
12227.685638	148.405000	383.672852	32.723907
12227.685638	148.405000	382.394531	0.811529
12227.685638	148.405000	381.115234	100.826065
12227.685638	148.405000	379.835938	40.521591
12227.685638	148.405000	378.556641	77.472641
12227.685638	148.405000	377.277344	118.593445
12227.685638	148.405000	375.997070	18.971352
12227.685638	148.405000	374.716797	59.786552
12227.685638	148.405000	373.435547	173.923721
12227.685638	148.405000	372.155273	22.010937
12227.685638	148.405000	370.874023	-52.218273
12227.685638	148.405000	369.591797	-89.868034
12227.685638	148.405000	368.310547	96.948616
12227.685638	148.405000	367.028320	-8.029980
12227.685638	148.405000	365.746094	-65.660950
12227.685638	148.405000	364.463867	161.450378
12227.685638	148.405000	363.180664	64.548103
12227.685638	148.405000	361.897461	-54.103889
12227.685638	148.405000	360.614258	-34.875111
12227.685638	148.405000	359.330078	-80.588898
12227.685638	148.405000	358.045898	26.563271
12227.685638	148.405000	356.761719	32.105629
12227.685638	148.405000	355.477539	26.614716
12227.685638	148.405000	354.192383	51.023266
12227.685638	148.405000	352.907227	-43.334831
12227.685638	148.405000	351.622070	81.753105
12227.685638	148.405000	350.336914	-13.140806
12227.685638	148.405000	349.050781	-39.407516
12227.685638	148.405000	347.764648	-5.704568
12227.685638	148.405000	346.477539	36.266872
12227.685638	148.405000	345.191406	-31.824352
12227.685638	148.405000	343.904297	106.262100
12227.685638	148.405000	342.616211	-22.728407
12227.685638	148.405000	341.329102	-10.112256
12227.685638	148.405000	340.041016	-96.757790
12227.685638	148.405000	338.752930	-54.800671
12227.685638	148.405000	337.463867	-60.531479
12227.685638	148.405000	336.175781	-25.839245
12227.685638	148.405000	334.886719	77.140755
12227.685638	148.405000	333.596680	-82.321075
12227.685638	148.405000	332.307617	62.695930
12227.685638	148.405000	331.017578	24.754282
12227.685638	148.405000	329.727539	-2.905114
12227.685638	148.405000	328.436523	-11.733169
12227.685638	148.405000	327.146484	-12.456927
12227.685638	148.405000	325.855469	91.380676
12227.685638	148.405000	324.563477	-45.478615
12227.685638	148.405000	323.272461	-107.776527
12227.685638	148.405000	321.980469	20.120516
12227.685638	148.405000	320.688477	-15.431710
12227.685638	148.405000	319.395508	59.828381
12227.685638	148.405000	318.103516	-133.221619
12227.685638	148.405000	316.810547	-65.591362
12227.685638	148.405000	315.516602	-22.177145
12227.685638	148.405000	314.223633	-77.854958
12227.685638	148.405000	312.929688	-31.474613
12227.685638	148.405000	311.635742	16.351299
12227.685638	148.405000	310.340820	-2.854114
12227.685638	148.405000	309.045898	9.313952
12227.685638	148.405000	307.750977	16.473757
12227.685638	148.405000	306.456055	31.434629
12227.685638	148.405000	305.160156	96.891876
12227.685638	148.405000	303.865234	26.960531
12227.685638	148.405000	302.568359	-13.879822
12227.685638	148.405000	301.272461	181.537674
12227.685638	148.405000	299.975586	156.094849
12227.685638	148.405000	298.678711	266.411957
