#X		#Y		#Wave		#Intensity
11507.539362	1469.330000	1999.980469	-10.895814
11507.539362	1469.330000	1999.016602	44.656307
11507.539362	1469.330000	1998.052734	39.545204
11507.539362	1469.330000	1997.087891	29.395060
11507.539362	1469.330000	1996.123047	-30.387577
11507.539362	1469.330000	1995.158203	199.604294
11507.539362	1469.330000	1994.193359	100.024200
11507.539362	1469.330000	1993.228516	12.785921
11507.539362	1469.330000	1992.262695	-84.397591
11507.539362	1469.330000	1991.297852	-67.750755
11507.539362	1469.330000	1990.332031	99.789268
11507.539362	1469.330000	1989.366211	74.190369
11507.539362	1469.330000	1988.399414	-35.580990
11507.539362	1469.330000	1987.433594	176.182816
11507.539362	1469.330000	1986.466797	150.389664
11507.539362	1469.330000	1985.500977	15.749321
11507.539362	1469.330000	1984.534180	56.622955
11507.539362	1469.330000	1983.567383	104.839005
11507.539362	1469.330000	1982.599609	118.382896
11507.539362	1469.330000	1981.632813	30.565815
11507.539362	1469.330000	1980.665039	-84.445023
11507.539362	1469.330000	1979.697266	15.413310
11507.539362	1469.330000	1978.729492	-57.672993
11507.539362	1469.330000	1977.761719	66.736145
11507.539362	1469.330000	1976.792969	178.709152
11507.539362	1469.330000	1975.825195	-8.035610
11507.539362	1469.330000	1974.856445	158.108231
11507.539362	1469.330000	1973.887695	79.903908
11507.539362	1469.330000	1972.918945	-10.645671
11507.539362	1469.330000	1971.949219	64.034416
11507.539362	1469.330000	1970.980469	-31.486628
11507.539362	1469.330000	1970.010742	-70.308044
11507.539362	1469.330000	1969.041016	-74.643105
11507.539362	1469.330000	1968.071289	44.208721
11507.539362	1469.330000	1967.101563	42.251637
11507.539362	1469.330000	1966.130859	69.824341
11507.539362	1469.330000	1965.161133	-195.738556
11507.539362	1469.330000	1964.190430	28.812243
11507.539362	1469.330000	1963.219727	-2.804843
11507.539362	1469.330000	1962.249023	-4.897750
11507.539362	1469.330000	1961.277344	47.129288
11507.539362	1469.330000	1960.306641	123.720863
11507.539362	1469.330000	1959.334961	281.447205
11507.539362	1469.330000	1958.363281	-97.142220
11507.539362	1469.330000	1957.391602	-89.497078
11507.539362	1469.330000	1956.419922	-13.026032
11507.539362	1469.330000	1955.447266	31.435743
11507.539362	1469.330000	1954.474609	152.059296
11507.539362	1469.330000	1953.501953	157.117538
11507.539362	1469.330000	1952.529297	144.958038
11507.539362	1469.330000	1951.556641	27.153465
11507.539362	1469.330000	1950.583984	44.464939
11507.539362	1469.330000	1949.610352	47.020924
11507.539362	1469.330000	1948.636719	137.949951
11507.539362	1469.330000	1947.663086	140.460831
11507.539362	1469.330000	1946.689453	138.050430
11507.539362	1469.330000	1945.715820	155.261002
11507.539362	1469.330000	1944.741211	-40.992519
11507.539362	1469.330000	1943.767578	57.171654
11507.539362	1469.330000	1942.792969	59.641678
11507.539362	1469.330000	1941.818359	96.431274
11507.539362	1469.330000	1940.842773	-11.444632
11507.539362	1469.330000	1939.868164	-111.932884
11507.539362	1469.330000	1938.892578	89.039101
11507.539362	1469.330000	1937.916992	120.866364
11507.539362	1469.330000	1936.941406	196.772141
11507.539362	1469.330000	1935.965820	39.962547
11507.539362	1469.330000	1934.990234	-55.571625
11507.539362	1469.330000	1934.013672	12.965134
11507.539362	1469.330000	1933.037109	-31.130842
11507.539362	1469.330000	1932.060547	113.241524
11507.539362	1469.330000	1931.083984	34.880558
11507.539362	1469.330000	1930.107422	59.301857
11507.539362	1469.330000	1929.129883	127.741280
11507.539362	1469.330000	1928.153320	105.666893
11507.539362	1469.330000	1927.175781	166.735001
11507.539362	1469.330000	1926.198242	144.659790
11507.539362	1469.330000	1925.219727	-2.066582
11507.539362	1469.330000	1924.242188	0.336870
11507.539362	1469.330000	1923.263672	12.512725
11507.539362	1469.330000	1922.285156	149.272766
11507.539362	1469.330000	1921.306641	-63.285992
11507.539362	1469.330000	1920.328125	63.673164
11507.539362	1469.330000	1919.349609	-56.007668
11507.539362	1469.330000	1918.370117	-2.326660
11507.539362	1469.330000	1917.391602	100.151337
11507.539362	1469.330000	1916.412109	2.499019
11507.539362	1469.330000	1915.431641	58.587242
11507.539362	1469.330000	1914.452148	21.967302
11507.539362	1469.330000	1913.472656	60.967636
11507.539362	1469.330000	1912.492188	58.504082
11507.539362	1469.330000	1911.511719	121.868713
11507.539362	1469.330000	1910.531250	21.905455
11507.539362	1469.330000	1909.550781	65.766327
11507.539362	1469.330000	1908.569336	-7.339395
11507.539362	1469.330000	1907.588867	97.421654
11507.539362	1469.330000	1906.607422	-60.899334
11507.539362	1469.330000	1905.625977	129.071640
11507.539362	1469.330000	1904.644531	-41.359642
11507.539362	1469.330000	1903.662109	-60.799862
11507.539362	1469.330000	1902.680664	112.043716
11507.539362	1469.330000	1901.698242	97.459587
11507.539362	1469.330000	1900.715820	51.259182
11507.539362	1469.330000	1899.733398	95.081223
11507.539362	1469.330000	1898.750000	-138.354324
11507.539362	1469.330000	1897.767578	80.567444
11507.539362	1469.330000	1896.784180	24.701427
11507.539362	1469.330000	1895.800781	168.172455
11507.539362	1469.330000	1894.817383	78.299873
11507.539362	1469.330000	1893.833984	-72.276176
11507.539362	1469.330000	1892.850586	32.281212
11507.539362	1469.330000	1891.866211	-4.065830
11507.539362	1469.330000	1890.881836	73.738121
11507.539362	1469.330000	1889.897461	-28.145357
11507.539362	1469.330000	1888.913086	-59.588852
11507.539362	1469.330000	1887.927734	100.714493
11507.539362	1469.330000	1886.943359	52.283627
11507.539362	1469.330000	1885.958008	180.978394
11507.539362	1469.330000	1884.972656	69.494286
11507.539362	1469.330000	1883.987305	72.040184
11507.539362	1469.330000	1883.001953	-78.166702
11507.539362	1469.330000	1882.015625	-5.281916
11507.539362	1469.330000	1881.029297	74.852356
11507.539362	1469.330000	1880.042969	-55.869942
11507.539362	1469.330000	1879.056641	-16.935740
11507.539362	1469.330000	1878.070313	-24.037531
11507.539362	1469.330000	1877.083984	10.041360
11507.539362	1469.330000	1876.096680	-55.172001
11507.539362	1469.330000	1875.109375	41.856110
11507.539362	1469.330000	1874.122070	109.804268
11507.539362	1469.330000	1873.134766	51.882290
11507.539362	1469.330000	1872.146484	71.416069
11507.539362	1469.330000	1871.159180	117.559044
11507.539362	1469.330000	1870.170898	158.849365
11507.539362	1469.330000	1869.182617	52.608799
11507.539362	1469.330000	1868.194336	23.783453
11507.539362	1469.330000	1867.205078	113.426758
11507.539362	1469.330000	1866.216797	-31.408489
11507.539362	1469.330000	1865.227539	7.469687
11507.539362	1469.330000	1864.238281	-79.300598
11507.539362	1469.330000	1863.249023	-9.019823
11507.539362	1469.330000	1862.259766	-54.692081
11507.539362	1469.330000	1861.269531	-30.318644
11507.539362	1469.330000	1860.279297	124.418274
11507.539362	1469.330000	1859.290039	-37.110844
11507.539362	1469.330000	1858.298828	21.036409
11507.539362	1469.330000	1857.308594	96.054916
11507.539362	1469.330000	1856.318359	-46.075146
11507.539362	1469.330000	1855.327148	-21.723709
11507.539362	1469.330000	1854.335938	171.427948
11507.539362	1469.330000	1853.344727	34.186745
11507.539362	1469.330000	1852.353516	-49.968544
11507.539362	1469.330000	1851.362305	-122.041069
11507.539362	1469.330000	1850.370117	-3.718137
11507.539362	1469.330000	1849.377930	32.643654
11507.539362	1469.330000	1848.385742	-44.223988
11507.539362	1469.330000	1847.393555	112.549805
11507.539362	1469.330000	1846.401367	28.470163
11507.539362	1469.330000	1845.408203	86.461098
11507.539362	1469.330000	1844.415039	89.066879
11507.539362	1469.330000	1843.421875	67.603683
11507.539362	1469.330000	1842.428711	-35.661144
11507.539362	1469.330000	1841.435547	39.130054
11507.539362	1469.330000	1840.441406	34.517002
11507.539362	1469.330000	1839.448242	-78.309937
11507.539362	1469.330000	1838.454102	-75.692017
11507.539362	1469.330000	1837.459961	-65.866676
11507.539362	1469.330000	1836.464844	-89.697556
11507.539362	1469.330000	1835.470703	4.222532
11507.539362	1469.330000	1834.475586	33.234936
11507.539362	1469.330000	1833.480469	-14.633633
11507.539362	1469.330000	1832.485352	-31.268187
11507.539362	1469.330000	1831.490234	33.737766
11507.539362	1469.330000	1830.495117	151.529495
11507.539362	1469.330000	1829.499023	204.464050
11507.539362	1469.330000	1828.502930	31.793242
11507.539362	1469.330000	1827.506836	51.128170
11507.539362	1469.330000	1826.510742	-35.100754
11507.539362	1469.330000	1825.513672	-34.961300
11507.539362	1469.330000	1824.517578	113.847351
11507.539362	1469.330000	1823.520508	46.814899
11507.539362	1469.330000	1822.523438	-24.993818
11507.539362	1469.330000	1821.526367	126.103088
11507.539362	1469.330000	1820.529297	126.177147
11507.539362	1469.330000	1819.531250	-43.854084
11507.539362	1469.330000	1818.533203	181.389679
11507.539362	1469.330000	1817.535156	32.949722
11507.539362	1469.330000	1816.537109	253.288193
11507.539362	1469.330000	1815.539063	97.691475
11507.539362	1469.330000	1814.540039	-96.151917
11507.539362	1469.330000	1813.541992	54.662018
11507.539362	1469.330000	1812.542969	-62.557343
11507.539362	1469.330000	1811.543945	45.115288
11507.539362	1469.330000	1810.543945	-86.428497
11507.539362	1469.330000	1809.544922	92.923889
11507.539362	1469.330000	1808.544922	178.957336
11507.539362	1469.330000	1807.544922	23.528811
11507.539362	1469.330000	1806.544922	174.047272
11507.539362	1469.330000	1805.544922	47.328396
11507.539362	1469.330000	1804.544922	-2.907802
11507.539362	1469.330000	1803.543945	73.451889
11507.539362	1469.330000	1802.542969	273.948578
11507.539362	1469.330000	1801.541992	61.306179
11507.539362	1469.330000	1800.541016	151.897018
11507.539362	1469.330000	1799.539063	-27.255058
11507.539362	1469.330000	1798.538086	58.520874
11507.539362	1469.330000	1797.536133	27.346905
11507.539362	1469.330000	1796.534180	-6.213815
11507.539362	1469.330000	1795.532227	15.076795
11507.539362	1469.330000	1794.529297	162.719086
11507.539362	1469.330000	1793.527344	86.199532
11507.539362	1469.330000	1792.524414	21.611319
11507.539362	1469.330000	1791.521484	130.997650
11507.539362	1469.330000	1790.518555	123.579514
11507.539362	1469.330000	1789.514648	37.536903
11507.539362	1469.330000	1788.511719	87.271484
11507.539362	1469.330000	1787.507813	20.288424
11507.539362	1469.330000	1786.503906	-41.922714
11507.539362	1469.330000	1785.500000	-8.910933
11507.539362	1469.330000	1784.496094	-28.285292
11507.539362	1469.330000	1783.491211	-16.736483
11507.539362	1469.330000	1782.486328	59.024937
11507.539362	1469.330000	1781.481445	51.491962
11507.539362	1469.330000	1780.476563	32.055542
11507.539362	1469.330000	1779.471680	95.827827
11507.539362	1469.330000	1778.465820	33.565815
11507.539362	1469.330000	1777.460938	-78.599472
11507.539362	1469.330000	1776.455078	51.642014
11507.539362	1469.330000	1775.449219	219.830322
11507.539362	1469.330000	1774.442383	67.257088
11507.539362	1469.330000	1773.436523	-101.898209
11507.539362	1469.330000	1772.429688	-21.686947
11507.539362	1469.330000	1771.422852	39.484219
11507.539362	1469.330000	1770.416016	-10.944901
11507.539362	1469.330000	1769.409180	43.045586
11507.539362	1469.330000	1768.402344	-99.935562
11507.539362	1469.330000	1767.394531	29.924662
11507.539362	1469.330000	1766.386719	138.371078
11507.539362	1469.330000	1765.378906	128.190689
11507.539362	1469.330000	1764.371094	77.690994
11507.539362	1469.330000	1763.362305	17.707409
11507.539362	1469.330000	1762.354492	116.518944
11507.539362	1469.330000	1761.345703	129.968918
11507.539362	1469.330000	1760.336914	-43.763191
11507.539362	1469.330000	1759.328125	83.367958
11507.539362	1469.330000	1758.318359	65.970161
11507.539362	1469.330000	1757.308594	-15.368802
11507.539362	1469.330000	1756.299805	-13.839892
11507.539362	1469.330000	1755.290039	-45.468651
11507.539362	1469.330000	1754.279297	38.845367
11507.539362	1469.330000	1753.269531	78.156929
11507.539362	1469.330000	1752.258789	-76.538132
11507.539362	1469.330000	1751.249023	43.151451
11507.539362	1469.330000	1750.238281	-0.382550
11507.539362	1469.330000	1749.226563	-65.199821
11507.539362	1469.330000	1748.215820	49.629589
11507.539362	1469.330000	1747.204102	107.675095
11507.539362	1469.330000	1746.193359	73.531761
11507.539362	1469.330000	1745.181641	-24.403908
11507.539362	1469.330000	1744.168945	87.882141
11507.539362	1469.330000	1743.157227	108.011475
11507.539362	1469.330000	1742.144531	66.724724
11507.539362	1469.330000	1741.132813	-2.890656
11507.539362	1469.330000	1740.120117	-13.500833
11507.539362	1469.330000	1739.106445	53.737862
11507.539362	1469.330000	1738.093750	104.417892
11507.539362	1469.330000	1737.080078	55.989201
11507.539362	1469.330000	1736.067383	35.859768
11507.539362	1469.330000	1735.053711	62.871056
11507.539362	1469.330000	1734.040039	151.143082
11507.539362	1469.330000	1733.025391	-109.466225
11507.539362	1469.330000	1732.011719	-58.940323
11507.539362	1469.330000	1730.997070	95.207634
11507.539362	1469.330000	1729.982422	-224.193771
11507.539362	1469.330000	1728.967773	14.669470
11507.539362	1469.330000	1727.952148	39.142975
11507.539362	1469.330000	1726.937500	195.425140
11507.539362	1469.330000	1725.921875	0.912309
11507.539362	1469.330000	1724.906250	-7.635168
11507.539362	1469.330000	1723.890625	-16.199682
11507.539362	1469.330000	1722.875000	43.438038
11507.539362	1469.330000	1721.858398	53.638187
11507.539362	1469.330000	1720.841797	-49.059486
11507.539362	1469.330000	1719.825195	-55.344883
11507.539362	1469.330000	1718.808594	-12.285830
11507.539362	1469.330000	1717.791992	-126.725044
11507.539362	1469.330000	1716.774414	-22.619789
11507.539362	1469.330000	1715.756836	-104.167519
11507.539362	1469.330000	1714.739258	-30.682613
11507.539362	1469.330000	1713.721680	47.450214
11507.539362	1469.330000	1712.704102	57.443436
11507.539362	1469.330000	1711.685547	-181.422974
11507.539362	1469.330000	1710.667969	-39.997822
11507.539362	1469.330000	1709.649414	28.606390
11507.539362	1469.330000	1708.630859	162.855453
11507.539362	1469.330000	1707.611328	31.968718
11507.539362	1469.330000	1706.592773	-2.730576
11507.539362	1469.330000	1705.573242	-35.095295
11507.539362	1469.330000	1704.553711	169.309662
11507.539362	1469.330000	1703.534180	29.066441
11507.539362	1469.330000	1702.513672	151.317657
11507.539362	1469.330000	1701.494141	67.323761
11507.539362	1469.330000	1700.473633	6.764922
11507.539362	1469.330000	1699.453125	-102.973946
11507.539362	1469.330000	1698.432617	147.919785
11507.539362	1469.330000	1697.412109	-43.783752
11507.539362	1469.330000	1696.390625	-45.837517
11507.539362	1469.330000	1695.369141	181.437439
11507.539362	1469.330000	1694.347656	85.710197
11507.539362	1469.330000	1693.326172	76.558037
11507.539362	1469.330000	1692.304688	95.457153
11507.539362	1469.330000	1691.282227	-2.595951
11507.539362	1469.330000	1690.260742	32.640022
11507.539362	1469.330000	1689.238281	81.866898
11507.539362	1469.330000	1688.214844	4.848437
11507.539362	1469.330000	1687.192383	114.779182
11507.539362	1469.330000	1686.168945	-34.675278
11507.539362	1469.330000	1685.146484	-158.393082
11507.539362	1469.330000	1684.123047	-32.204300
11507.539362	1469.330000	1683.099609	133.611755
11507.539362	1469.330000	1682.075195	0.535831
11507.539362	1469.330000	1681.051758	117.233376
11507.539362	1469.330000	1680.027344	42.516296
11507.539362	1469.330000	1679.002930	-6.525504
11507.539362	1469.330000	1677.978516	119.382561
11507.539362	1469.330000	1676.953125	93.629883
11507.539362	1469.330000	1675.928711	2.585672
11507.539362	1469.330000	1674.903320	126.035347
11507.539362	1469.330000	1673.877930	174.834503
11507.539362	1469.330000	1672.852539	76.784630
11507.539362	1469.330000	1671.826172	-42.216183
11507.539362	1469.330000	1670.800781	20.516870
11507.539362	1469.330000	1669.774414	48.271530
11507.539362	1469.330000	1668.748047	52.714512
11507.539362	1469.330000	1667.721680	257.360199
11507.539362	1469.330000	1666.694336	52.235527
11507.539362	1469.330000	1665.667969	40.340401
11507.539362	1469.330000	1664.640625	42.392132
11507.539362	1469.330000	1663.613281	114.219131
11507.539362	1469.330000	1662.585938	11.562832
11507.539362	1469.330000	1661.557617	225.188446
11507.539362	1469.330000	1660.530273	106.247810
11507.539362	1469.330000	1659.501953	-3.365571
11507.539362	1469.330000	1658.473633	233.340363
11507.539362	1469.330000	1657.444336	81.889565
11507.539362	1469.330000	1656.416016	123.313385
11507.539362	1469.330000	1655.386719	171.673218
11507.539362	1469.330000	1654.358398	8.676690
11507.539362	1469.330000	1653.328125	112.736511
11507.539362	1469.330000	1652.298828	156.391129
11507.539362	1469.330000	1651.269531	65.402313
11507.539362	1469.330000	1650.239258	111.343758
11507.539362	1469.330000	1649.208984	45.893200
11507.539362	1469.330000	1648.178711	103.396088
11507.539362	1469.330000	1647.148438	332.484009
11507.539362	1469.330000	1646.117188	141.782928
11507.539362	1469.330000	1645.086914	129.654968
11507.539362	1469.330000	1644.055664	149.967453
11507.539362	1469.330000	1643.024414	91.471939
11507.539362	1469.330000	1641.992188	188.219116
11507.539362	1469.330000	1640.960938	324.303131
11507.539362	1469.330000	1639.928711	286.620605
11507.539362	1469.330000	1638.896484	251.259949
11507.539362	1469.330000	1637.864258	255.261017
11507.539362	1469.330000	1636.832031	361.098175
11507.539362	1469.330000	1635.798828	219.260605
11507.539362	1469.330000	1634.766602	119.122780
11507.539362	1469.330000	1633.733398	215.644241
11507.539362	1469.330000	1632.699219	212.664108
11507.539362	1469.330000	1631.666016	341.489502
11507.539362	1469.330000	1630.632813	245.997330
11507.539362	1469.330000	1629.598633	254.550720
11507.539362	1469.330000	1628.564453	189.140091
11507.539362	1469.330000	1627.530273	421.819916
11507.539362	1469.330000	1626.495117	203.915756
11507.539362	1469.330000	1625.460938	272.500427
11507.539362	1469.330000	1624.425781	320.266815
11507.539362	1469.330000	1623.390625	342.612030
11507.539362	1469.330000	1622.355469	355.711182
11507.539362	1469.330000	1621.319336	331.869843
11507.539362	1469.330000	1620.284180	497.251648
11507.539362	1469.330000	1619.248047	399.559692
11507.539362	1469.330000	1618.211914	426.457764
11507.539362	1469.330000	1617.174805	294.215271
11507.539362	1469.330000	1616.138672	325.728821
11507.539362	1469.330000	1615.101563	366.445129
11507.539362	1469.330000	1614.065430	326.479553
11507.539362	1469.330000	1613.027344	371.780426
11507.539362	1469.330000	1611.990234	320.302338
11507.539362	1469.330000	1610.953125	314.911377
11507.539362	1469.330000	1609.915039	369.396027
11507.539362	1469.330000	1608.876953	467.607086
11507.539362	1469.330000	1607.838867	632.540405
11507.539362	1469.330000	1606.800781	401.524933
11507.539362	1469.330000	1605.761719	426.029297
11507.539362	1469.330000	1604.723633	498.844147
11507.539362	1469.330000	1603.684570	590.030029
11507.539362	1469.330000	1602.644531	515.588135
11507.539362	1469.330000	1601.605469	344.604614
11507.539362	1469.330000	1600.566406	428.874237
11507.539362	1469.330000	1599.526367	549.884705
11507.539362	1469.330000	1598.486328	542.159180
11507.539362	1469.330000	1597.446289	419.558258
11507.539362	1469.330000	1596.405273	664.550171
11507.539362	1469.330000	1595.365234	525.902100
11507.539362	1469.330000	1594.324219	619.230225
11507.539362	1469.330000	1593.283203	595.439087
11507.539362	1469.330000	1592.242188	502.800385
11507.539362	1469.330000	1591.200195	469.865936
11507.539362	1469.330000	1590.159180	524.142517
11507.539362	1469.330000	1589.117188	576.104797
11507.539362	1469.330000	1588.075195	435.391693
11507.539362	1469.330000	1587.032227	413.978241
11507.539362	1469.330000	1585.990234	532.435669
11507.539362	1469.330000	1584.947266	582.082031
11507.539362	1469.330000	1583.904297	333.783600
11507.539362	1469.330000	1582.861328	653.840088
11507.539362	1469.330000	1581.818359	456.037811
11507.539362	1469.330000	1580.775391	491.944489
11507.539362	1469.330000	1579.731445	518.681274
11507.539362	1469.330000	1578.687500	561.442078
11507.539362	1469.330000	1577.643555	368.418091
11507.539362	1469.330000	1576.598633	557.677307
11507.539362	1469.330000	1575.554688	463.138794
11507.539362	1469.330000	1574.509766	478.454895
11507.539362	1469.330000	1573.464844	409.143616
11507.539362	1469.330000	1572.419922	408.474823
11507.539362	1469.330000	1571.374023	419.244965
11507.539362	1469.330000	1570.329102	532.891724
11507.539362	1469.330000	1569.283203	491.086975
11507.539362	1469.330000	1568.237305	421.888702
11507.539362	1469.330000	1567.191406	501.227905
11507.539362	1469.330000	1566.144531	146.553986
11507.539362	1469.330000	1565.098633	303.585175
11507.539362	1469.330000	1564.051758	341.833344
11507.539362	1469.330000	1563.004883	389.210419
11507.539362	1469.330000	1561.957031	331.588776
11507.539362	1469.330000	1560.910156	399.511719
11507.539362	1469.330000	1559.862305	332.810516
11507.539362	1469.330000	1558.814453	366.514313
11507.539362	1469.330000	1557.766602	413.901703
11507.539362	1469.330000	1556.718750	278.874298
11507.539362	1469.330000	1555.669922	385.556946
11507.539362	1469.330000	1554.621094	332.665710
11507.539362	1469.330000	1553.573242	247.910797
11507.539362	1469.330000	1552.523438	315.845367
11507.539362	1469.330000	1551.474609	358.715607
11507.539362	1469.330000	1550.424805	278.599579
11507.539362	1469.330000	1549.375000	394.351959
11507.539362	1469.330000	1548.325195	205.018951
11507.539362	1469.330000	1547.275391	418.644714
11507.539362	1469.330000	1546.225586	263.548889
11507.539362	1469.330000	1545.174805	413.404236
11507.539362	1469.330000	1544.124023	281.148895
11507.539362	1469.330000	1543.073242	130.769440
11507.539362	1469.330000	1542.022461	230.590317
11507.539362	1469.330000	1540.970703	109.866463
11507.539362	1469.330000	1539.919922	291.514587
11507.539362	1469.330000	1538.868164	348.119049
11507.539362	1469.330000	1537.815430	159.334854
11507.539362	1469.330000	1536.763672	261.413147
11507.539362	1469.330000	1535.710938	186.316727
11507.539362	1469.330000	1534.659180	363.322479
11507.539362	1469.330000	1533.606445	360.923553
11507.539362	1469.330000	1532.552734	231.433304
11507.539362	1469.330000	1531.500000	290.375519
11507.539362	1469.330000	1530.446289	328.891418
11507.539362	1469.330000	1529.393555	260.798218
11507.539362	1469.330000	1528.338867	56.665497
11507.539362	1469.330000	1527.285156	299.350403
11507.539362	1469.330000	1526.231445	247.234024
11507.539362	1469.330000	1525.176758	197.424591
11507.539362	1469.330000	1524.122070	23.013586
11507.539362	1469.330000	1523.067383	68.475853
11507.539362	1469.330000	1522.012695	197.759842
11507.539362	1469.330000	1520.957031	105.053459
11507.539362	1469.330000	1519.901367	80.340675
11507.539362	1469.330000	1518.845703	23.964474
11507.539362	1469.330000	1517.790039	114.764908
11507.539362	1469.330000	1516.734375	72.030777
11507.539362	1469.330000	1515.677734	13.495967
11507.539362	1469.330000	1514.621094	-40.466507
11507.539362	1469.330000	1513.564453	161.194824
11507.539362	1469.330000	1512.507813	127.625175
11507.539362	1469.330000	1511.450195	225.221161
11507.539362	1469.330000	1510.393555	40.254639
11507.539362	1469.330000	1509.335938	-119.756264
11507.539362	1469.330000	1508.278320	-24.352779
11507.539362	1469.330000	1507.219727	-71.284698
11507.539362	1469.330000	1506.162109	-156.566483
11507.539362	1469.330000	1505.103516	-45.329739
11507.539362	1469.330000	1504.044922	104.270927
11507.539362	1469.330000	1502.986328	30.368509
11507.539362	1469.330000	1501.926758	19.710880
11507.539362	1469.330000	1500.868164	38.420036
11507.539362	1469.330000	1499.808594	-71.441528
11507.539362	1469.330000	1498.749023	-52.669693
11507.539362	1469.330000	1497.688477	6.711068
11507.539362	1469.330000	1496.628906	18.751720
11507.539362	1469.330000	1495.568359	-32.302425
11507.539362	1469.330000	1494.507813	-128.381622
11507.539362	1469.330000	1493.447266	-66.667854
11507.539362	1469.330000	1492.386719	-133.359192
11507.539362	1469.330000	1491.325195	-82.875008
11507.539362	1469.330000	1490.263672	-18.870764
11507.539362	1469.330000	1489.202148	-40.418102
11507.539362	1469.330000	1488.140625	46.120827
11507.539362	1469.330000	1487.079102	-51.891529
11507.539362	1469.330000	1486.016602	5.420514
11507.539362	1469.330000	1484.954102	-36.245640
11507.539362	1469.330000	1483.891602	-21.634483
11507.539362	1469.330000	1482.829102	166.155487
11507.539362	1469.330000	1481.765625	174.034225
11507.539362	1469.330000	1480.702148	15.598447
11507.539362	1469.330000	1479.638672	-5.643926
11507.539362	1469.330000	1478.575195	-69.539940
11507.539362	1469.330000	1477.511719	89.039932
11507.539362	1469.330000	1476.447266	128.524826
11507.539362	1469.330000	1475.382813	177.025925
11507.539362	1469.330000	1474.318359	220.961304
11507.539362	1469.330000	1473.253906	128.106949
11507.539362	1469.330000	1472.189453	147.474213
11507.539362	1469.330000	1471.124023	-8.066716
11507.539362	1469.330000	1470.058594	-26.701694
11507.539362	1469.330000	1468.993164	129.335495
11507.539362	1469.330000	1467.927734	57.232430
11507.539362	1469.330000	1466.861328	92.275459
11507.539362	1469.330000	1465.794922	183.613052
11507.539362	1469.330000	1464.728516	192.130066
11507.539362	1469.330000	1463.662109	61.420811
11507.539362	1469.330000	1462.594727	13.953872
11507.539362	1469.330000	1461.528320	40.393932
11507.539362	1469.330000	1460.460938	87.171730
11507.539362	1469.330000	1459.393555	133.382324
11507.539362	1469.330000	1458.326172	209.000885
11507.539362	1469.330000	1457.257813	248.427750
11507.539362	1469.330000	1456.189453	-26.018969
11507.539362	1469.330000	1455.121094	190.129044
11507.539362	1469.330000	1454.052734	102.744911
11507.539362	1469.330000	1452.984375	247.012741
11507.539362	1469.330000	1451.915039	155.950729
11507.539362	1469.330000	1450.845703	144.769852
11507.539362	1469.330000	1449.776367	155.627380
11507.539362	1469.330000	1448.707031	178.911560
11507.539362	1469.330000	1447.636719	248.695358
11507.539362	1469.330000	1446.567383	169.018997
11507.539362	1469.330000	1445.497070	206.761826
11507.539362	1469.330000	1444.425781	261.874634
11507.539362	1469.330000	1443.355469	315.257324
11507.539362	1469.330000	1442.285156	187.446335
11507.539362	1469.330000	1441.213867	194.268677
11507.539362	1469.330000	1440.142578	129.995071
11507.539362	1469.330000	1439.070313	286.700195
11507.539362	1469.330000	1437.999023	153.886627
11507.539362	1469.330000	1436.926758	200.674927
11507.539362	1469.330000	1435.854492	88.072472
11507.539362	1469.330000	1434.782227	132.830231
11507.539362	1469.330000	1433.709961	202.651352
11507.539362	1469.330000	1432.636719	219.633133
11507.539362	1469.330000	1431.563477	118.369232
11507.539362	1469.330000	1430.490234	80.845009
11507.539362	1469.330000	1429.416992	-32.842873
11507.539362	1469.330000	1428.343750	83.254311
11507.539362	1469.330000	1427.269531	189.128540
11507.539362	1469.330000	1426.195313	-7.706291
11507.539362	1469.330000	1425.121094	-47.772644
11507.539362	1469.330000	1424.046875	189.913818
11507.539362	1469.330000	1422.971680	-2.596694
11507.539362	1469.330000	1421.896484	-48.165417
11507.539362	1469.330000	1420.821289	-49.073139
11507.539362	1469.330000	1419.746094	91.264572
11507.539362	1469.330000	1418.669922	4.204673
11507.539362	1469.330000	1417.594727	-73.148476
11507.539362	1469.330000	1416.518555	-20.669270
11507.539362	1469.330000	1415.442383	122.804771
11507.539362	1469.330000	1414.365234	-63.967903
11507.539362	1469.330000	1413.289063	102.088470
11507.539362	1469.330000	1412.211914	70.796524
11507.539362	1469.330000	1411.134766	-20.660412
11507.539362	1469.330000	1410.057617	8.048180
11507.539362	1469.330000	1408.979492	17.194063
11507.539362	1469.330000	1407.902344	136.032867
11507.539362	1469.330000	1406.824219	112.223915
11507.539362	1469.330000	1405.746094	2.081262
11507.539362	1469.330000	1404.666992	45.239578
11507.539362	1469.330000	1403.588867	139.925415
11507.539362	1469.330000	1402.509766	23.249516
11507.539362	1469.330000	1401.430664	56.131752
11507.539362	1469.330000	1400.351563	180.156998
11507.539362	1469.330000	1399.271484	110.733498
11507.539362	1469.330000	1398.192383	217.682220
11507.539362	1469.330000	1397.112305	155.928650
11507.539362	1469.330000	1396.031250	75.504532
11507.539362	1469.330000	1394.951172	261.104645
11507.539362	1469.330000	1393.871094	134.275986
11507.539362	1469.330000	1392.790039	79.779984
11507.539362	1469.330000	1391.708984	155.737350
11507.539362	1469.330000	1390.626953	53.943798
11507.539362	1469.330000	1389.545898	48.168488
11507.539362	1469.330000	1388.463867	220.602524
11507.539362	1469.330000	1387.381836	106.561821
11507.539362	1469.330000	1386.299805	208.885605
11507.539362	1469.330000	1385.217773	142.325241
11507.539362	1469.330000	1384.134766	82.808876
11507.539362	1469.330000	1383.051758	43.904251
11507.539362	1469.330000	1381.968750	118.847076
11507.539362	1469.330000	1380.885742	153.753433
11507.539362	1469.330000	1379.802734	189.121246
11507.539362	1469.330000	1378.718750	52.598026
11507.539362	1469.330000	1377.634766	210.705475
11507.539362	1469.330000	1376.550781	169.378006
11507.539362	1469.330000	1375.465820	126.071838
11507.539362	1469.330000	1374.381836	133.814575
11507.539362	1469.330000	1373.296875	169.589615
11507.539362	1469.330000	1372.211914	23.000975
11507.539362	1469.330000	1371.126953	138.697937
11507.539362	1469.330000	1370.041016	175.838013
11507.539362	1469.330000	1368.955078	70.333252
11507.539362	1469.330000	1367.869141	149.867569
11507.539362	1469.330000	1366.783203	146.828995
11507.539362	1469.330000	1365.697266	60.932709
11507.539362	1469.330000	1364.610352	256.511139
11507.539362	1469.330000	1363.523438	217.331161
11507.539362	1469.330000	1362.436523	214.809631
11507.539362	1469.330000	1361.349609	162.545471
11507.539362	1469.330000	1360.261719	199.836060
11507.539362	1469.330000	1359.174805	37.042694
11507.539362	1469.330000	1358.086914	-15.247485
11507.539362	1469.330000	1356.998047	278.134857
11507.539362	1469.330000	1355.910156	288.331604
11507.539362	1469.330000	1354.821289	79.468597
11507.539362	1469.330000	1353.732422	132.010742
11507.539362	1469.330000	1352.643555	204.725418
11507.539362	1469.330000	1351.554688	148.240372
11507.539362	1469.330000	1350.464844	226.377609
11507.539362	1469.330000	1349.375000	82.882637
11507.539362	1469.330000	1348.285156	254.091705
11507.539362	1469.330000	1347.195313	225.294159
11507.539362	1469.330000	1346.105469	128.206604
11507.539362	1469.330000	1345.014648	217.626740
11507.539362	1469.330000	1343.923828	129.141266
11507.539362	1469.330000	1342.833008	278.647430
11507.539362	1469.330000	1341.741211	266.057312
11507.539362	1469.330000	1340.650391	336.166290
11507.539362	1469.330000	1339.558594	176.854858
11507.539362	1469.330000	1338.466797	320.751068
11507.539362	1469.330000	1337.374023	230.061035
11507.539362	1469.330000	1336.282227	222.558960
11507.539362	1469.330000	1335.189453	248.321777
11507.539362	1469.330000	1334.096680	244.871033
11507.539362	1469.330000	1333.003906	346.180603
11507.539362	1469.330000	1331.910156	202.906876
11507.539362	1469.330000	1330.817383	361.652954
11507.539362	1469.330000	1329.723633	240.211334
11507.539362	1469.330000	1328.629883	254.843155
11507.539362	1469.330000	1327.535156	159.276154
11507.539362	1469.330000	1326.441406	109.115211
11507.539362	1469.330000	1325.346680	154.153000
11507.539362	1469.330000	1324.251953	7.398109
11507.539362	1469.330000	1323.156250	123.002197
11507.539362	1469.330000	1322.061523	105.019691
11507.539362	1469.330000	1320.965820	19.996321
11507.539362	1469.330000	1319.870117	-18.621401
11507.539362	1469.330000	1318.774414	148.424103
11507.539362	1469.330000	1317.678711	-2.087615
11507.539362	1469.330000	1316.582031	1.336505
11507.539362	1469.330000	1315.485352	91.088211
11507.539362	1469.330000	1314.388672	214.489029
11507.539362	1469.330000	1313.291016	227.555542
11507.539362	1469.330000	1312.194336	334.884735
11507.539362	1469.330000	1311.096680	131.426056
11507.539362	1469.330000	1309.999023	66.102364
11507.539362	1469.330000	1308.901367	177.177094
11507.539362	1469.330000	1307.802734	308.934937
11507.539362	1469.330000	1306.705078	207.798950
11507.539362	1469.330000	1305.606445	215.013092
11507.539362	1469.330000	1304.506836	74.790070
11507.539362	1469.330000	1303.408203	158.988846
11507.539362	1469.330000	1302.308594	91.873016
11507.539362	1469.330000	1301.208984	40.915646
11507.539362	1469.330000	1300.109375	96.752213
11507.539362	1469.330000	1299.009766	52.652977
11507.539362	1469.330000	1297.909180	118.334427
11507.539362	1469.330000	1296.808594	214.145020
11507.539362	1469.330000	1295.708008	125.182632
11507.539362	1469.330000	1294.607422	96.074471
11507.539362	1469.330000	1293.506836	48.151318
11507.539362	1469.330000	1292.405273	113.879738
11507.539362	1469.330000	1291.303711	154.115921
11507.539362	1469.330000	1290.202148	62.896244
11507.539362	1469.330000	1289.099609	140.732208
11507.539362	1469.330000	1287.998047	122.703049
11507.539362	1469.330000	1286.895508	55.043015
11507.539362	1469.330000	1285.792969	40.476383
11507.539362	1469.330000	1284.689453	47.811607
11507.539362	1469.330000	1283.586914	63.895378
11507.539362	1469.330000	1282.483398	108.288712
11507.539362	1469.330000	1281.379883	14.633806
11507.539362	1469.330000	1280.276367	34.556866
11507.539362	1469.330000	1279.171875	96.900574
11507.539362	1469.330000	1278.067383	133.983856
11507.539362	1469.330000	1276.962891	100.461723
11507.539362	1469.330000	1275.858398	10.542895
11507.539362	1469.330000	1274.753906	58.381405
11507.539362	1469.330000	1273.648438	127.733078
11507.539362	1469.330000	1272.542969	62.322540
11507.539362	1469.330000	1271.437500	3.126096
11507.539362	1469.330000	1270.331055	55.075378
11507.539362	1469.330000	1269.225586	115.694031
11507.539362	1469.330000	1268.119141	2.251843
11507.539362	1469.330000	1267.012695	-65.439201
11507.539362	1469.330000	1265.906250	117.049355
11507.539362	1469.330000	1264.798828	38.689217
11507.539362	1469.330000	1263.691406	122.900742
11507.539362	1469.330000	1262.583984	-21.694262
11507.539362	1469.330000	1261.476563	-30.996935
11507.539362	1469.330000	1260.368164	95.812622
11507.539362	1469.330000	1259.260742	-19.024336
11507.539362	1469.330000	1258.152344	-53.473202
11507.539362	1469.330000	1257.043945	22.534758
11507.539362	1469.330000	1255.934570	-90.121445
11507.539362	1469.330000	1254.825195	-59.399445
11507.539362	1469.330000	1253.716797	-23.731045
11507.539362	1469.330000	1252.606445	-15.086552
11507.539362	1469.330000	1251.497070	-80.334549
11507.539362	1469.330000	1250.387695	-64.962715
11507.539362	1469.330000	1249.277344	-81.736031
11507.539362	1469.330000	1248.166992	-116.242058
11507.539362	1469.330000	1247.055664	-156.218445
11507.539362	1469.330000	1245.945313	-58.253666
11507.539362	1469.330000	1244.833984	-74.849091
11507.539362	1469.330000	1243.722656	-22.274927
11507.539362	1469.330000	1242.611328	-2.683278
11507.539362	1469.330000	1241.499023	-21.791739
11507.539362	1469.330000	1240.387695	-58.244492
11507.539362	1469.330000	1239.275391	-78.015518
11507.539362	1469.330000	1238.162109	-18.983980
11507.539362	1469.330000	1237.049805	-4.844359
11507.539362	1469.330000	1235.936523	-108.422676
11507.539362	1469.330000	1234.823242	-79.071678
11507.539362	1469.330000	1233.709961	-48.473736
11507.539362	1469.330000	1232.596680	2.713678
11507.539362	1469.330000	1231.482422	-34.904243
11507.539362	1469.330000	1230.369141	-25.291553
11507.539362	1469.330000	1229.253906	145.950348
11507.539362	1469.330000	1228.139648	89.169456
11507.539362	1469.330000	1227.025391	117.623306
11507.539362	1469.330000	1225.910156	-23.904675
11507.539362	1469.330000	1224.794922	130.597015
11507.539362	1469.330000	1223.679688	-61.372330
11507.539362	1469.330000	1222.563477	-15.717771
11507.539362	1469.330000	1221.447266	14.738216
11507.539362	1469.330000	1220.331055	-2.656945
11507.539362	1469.330000	1219.214844	52.488602
11507.539362	1469.330000	1218.098633	121.970039
11507.539362	1469.330000	1216.981445	-80.750000
11507.539362	1469.330000	1215.864258	33.994778
11507.539362	1469.330000	1214.747070	59.324268
11507.539362	1469.330000	1213.629883	98.910118
11507.539362	1469.330000	1212.511719	-19.881222
11507.539362	1469.330000	1211.393555	-11.658356
11507.539362	1469.330000	1210.275391	27.085333
11507.539362	1469.330000	1209.157227	-56.001450
11507.539362	1469.330000	1208.038086	-44.524426
11507.539362	1469.330000	1206.918945	2.409278
11507.539362	1469.330000	1205.799805	34.925919
11507.539362	1469.330000	1204.680664	4.875860
11507.539362	1469.330000	1203.560547	-43.220158
11507.539362	1469.330000	1202.441406	-1.207959
11507.539362	1469.330000	1201.321289	-42.312462
11507.539362	1469.330000	1200.200195	4.454888
11507.539362	1469.330000	1199.080078	-17.415773
11507.539362	1469.330000	1197.958984	16.118687
11507.539362	1469.330000	1196.837891	99.594742
11507.539362	1469.330000	1195.716797	-8.164071
11507.539362	1469.330000	1194.594727	66.672035
11507.539362	1469.330000	1193.473633	-46.143066
11507.539362	1469.330000	1192.351563	43.850216
11507.539362	1469.330000	1191.229492	21.880289
11507.539362	1469.330000	1190.106445	-9.874432
11507.539362	1469.330000	1188.984375	-1.835820
11507.539362	1469.330000	1187.861328	-64.209831
11507.539362	1469.330000	1186.738281	31.493673
11507.539362	1469.330000	1185.614258	-80.884300
11507.539362	1469.330000	1184.491211	63.792534
11507.539362	1469.330000	1183.367188	-5.440617
11507.539362	1469.330000	1182.243164	-14.995429
11507.539362	1469.330000	1181.119141	-69.397957
11507.539362	1469.330000	1179.994141	7.793357
11507.539362	1469.330000	1178.869141	27.083368
11507.539362	1469.330000	1177.744141	6.550026
11507.539362	1469.330000	1176.619141	3.688766
11507.539362	1469.330000	1175.493164	5.464082
11507.539362	1469.330000	1174.368164	-39.318172
11507.539362	1469.330000	1173.242188	64.221352
11507.539362	1469.330000	1172.115234	1.597113
11507.539362	1469.330000	1170.989258	92.518341
11507.539362	1469.330000	1169.862305	-17.655188
11507.539362	1469.330000	1168.735352	-68.700279
11507.539362	1469.330000	1167.608398	-139.271881
11507.539362	1469.330000	1166.481445	-69.409195
11507.539362	1469.330000	1165.353516	-17.027189
11507.539362	1469.330000	1164.225586	16.750214
11507.539362	1469.330000	1163.097656	-26.409658
11507.539362	1469.330000	1161.968750	-85.446190
11507.539362	1469.330000	1160.840820	16.055573
11507.539362	1469.330000	1159.711914	15.565145
11507.539362	1469.330000	1158.583008	-29.856789
11507.539362	1469.330000	1157.453125	10.638932
11507.539362	1469.330000	1156.324219	211.413147
11507.539362	1469.330000	1155.194336	1.875242
11507.539362	1469.330000	1154.064453	-106.482895
11507.539362	1469.330000	1152.933594	135.082397
11507.539362	1469.330000	1151.803711	47.634670
11507.539362	1469.330000	1150.672852	-13.112546
11507.539362	1469.330000	1149.541992	113.712563
11507.539362	1469.330000	1148.411133	143.291016
11507.539362	1469.330000	1147.279297	105.661873
11507.539362	1469.330000	1146.147461	10.551949
11507.539362	1469.330000	1145.015625	124.688187
11507.539362	1469.330000	1143.883789	129.153976
11507.539362	1469.330000	1142.750977	63.286163
11507.539362	1469.330000	1141.619141	32.995201
11507.539362	1469.330000	1140.486328	-26.239935
11507.539362	1469.330000	1139.352539	52.039116
11507.539362	1469.330000	1138.219727	25.040236
11507.539362	1469.330000	1137.085938	64.505043
11507.539362	1469.330000	1135.952148	59.594559
11507.539362	1469.330000	1134.818359	65.085068
11507.539362	1469.330000	1133.683594	76.573601
11507.539362	1469.330000	1132.549805	204.017197
11507.539362	1469.330000	1131.415039	136.412231
11507.539362	1469.330000	1130.279297	119.241028
11507.539362	1469.330000	1129.144531	217.104736
11507.539362	1469.330000	1128.008789	108.333649
11507.539362	1469.330000	1126.873047	271.305725
11507.539362	1469.330000	1125.737305	152.366104
11507.539362	1469.330000	1124.601563	241.186111
11507.539362	1469.330000	1123.464844	198.998901
11507.539362	1469.330000	1122.328125	160.622925
11507.539362	1469.330000	1121.191406	85.208496
11507.539362	1469.330000	1120.054688	132.457718
11507.539362	1469.330000	1118.916992	46.418659
11507.539362	1469.330000	1117.779297	270.112427
11507.539362	1469.330000	1116.641602	136.835403
11507.539362	1469.330000	1115.503906	94.340416
11507.539362	1469.330000	1114.365234	183.224365
11507.539362	1469.330000	1113.226563	58.444447
11507.539362	1469.330000	1112.087891	14.768689
11507.539362	1469.330000	1110.949219	244.538361
11507.539362	1469.330000	1109.809570	80.508011
11507.539362	1469.330000	1108.669922	99.906387
11507.539362	1469.330000	1107.530273	114.364815
11507.539362	1469.330000	1106.390625	106.275337
11507.539362	1469.330000	1105.250000	56.391975
11507.539362	1469.330000	1104.109375	125.328316
11507.539362	1469.330000	1102.968750	110.013519
11507.539362	1469.330000	1101.828125	154.933914
11507.539362	1469.330000	1100.686523	72.123718
11507.539362	1469.330000	1099.544922	33.970516
11507.539362	1469.330000	1098.403320	26.944504
11507.539362	1469.330000	1097.261719	61.367931
11507.539362	1469.330000	1096.120117	18.191477
11507.539362	1469.330000	1094.977539	133.435165
11507.539362	1469.330000	1093.834961	11.059402
11507.539362	1469.330000	1092.691406	187.425491
11507.539362	1469.330000	1091.548828	115.072021
11507.539362	1469.330000	1090.405273	72.837341
11507.539362	1469.330000	1089.261719	103.512459
11507.539362	1469.330000	1088.118164	2.410877
11507.539362	1469.330000	1086.973633	141.264450
11507.539362	1469.330000	1085.829102	29.924326
11507.539362	1469.330000	1084.684570	56.791374
11507.539362	1469.330000	1083.540039	-70.188095
11507.539362	1469.330000	1082.395508	-27.734777
11507.539362	1469.330000	1081.250000	91.710304
11507.539362	1469.330000	1080.104492	-85.744324
11507.539362	1469.330000	1078.958984	-108.362328
11507.539362	1469.330000	1077.812500	46.376186
11507.539362	1469.330000	1076.666016	98.478210
11507.539362	1469.330000	1075.519531	40.205986
11507.539362	1469.330000	1074.373047	109.608368
11507.539362	1469.330000	1073.226563	76.972008
11507.539362	1469.330000	1072.079102	161.763016
11507.539362	1469.330000	1070.931641	13.521673
11507.539362	1469.330000	1069.784180	62.960915
11507.539362	1469.330000	1068.635742	12.088314
11507.539362	1469.330000	1067.487305	47.315296
11507.539362	1469.330000	1066.338867	10.675594
11507.539362	1469.330000	1065.190430	149.730286
11507.539362	1469.330000	1064.041992	50.177670
11507.539362	1469.330000	1062.892578	42.706905
11507.539362	1469.330000	1061.743164	124.505363
11507.539362	1469.330000	1060.593750	132.876816
11507.539362	1469.330000	1059.443359	106.547020
11507.539362	1469.330000	1058.292969	231.100357
11507.539362	1469.330000	1057.142578	-110.537827
11507.539362	1469.330000	1055.992188	18.577856
11507.539362	1469.330000	1054.841797	18.345404
11507.539362	1469.330000	1053.690430	41.295708
11507.539362	1469.330000	1052.539063	35.160675
11507.539362	1469.330000	1051.387695	40.607861
11507.539362	1469.330000	1050.235352	43.877590
11507.539362	1469.330000	1049.083984	-17.592142
11507.539362	1469.330000	1047.931641	78.178268
11507.539362	1469.330000	1046.778320	13.485731
11507.539362	1469.330000	1045.625977	16.089121
11507.539362	1469.330000	1044.472656	8.762897
11507.539362	1469.330000	1043.319336	-78.800964
11507.539362	1469.330000	1042.166016	-142.005203
11507.539362	1469.330000	1041.012695	136.107773
11507.539362	1469.330000	1039.858398	49.005241
11507.539362	1469.330000	1038.704102	-3.579729
11507.539362	1469.330000	1037.549805	-55.288666
11507.539362	1469.330000	1036.394531	-147.628922
11507.539362	1469.330000	1035.239258	26.021770
11507.539362	1469.330000	1034.083984	63.804104
11507.539362	1469.330000	1032.928711	-21.667080
11507.539362	1469.330000	1031.773438	39.710361
11507.539362	1469.330000	1030.617188	49.185383
11507.539362	1469.330000	1029.460938	-3.077720
11507.539362	1469.330000	1028.304688	60.224861
11507.539362	1469.330000	1027.147461	-41.206291
11507.539362	1469.330000	1025.991211	46.949615
11507.539362	1469.330000	1024.833984	-38.765244
11507.539362	1469.330000	1023.675781	155.183380
11507.539362	1469.330000	1022.518555	-18.156605
11507.539362	1469.330000	1021.360352	32.685143
11507.539362	1469.330000	1020.202148	135.539520
11507.539362	1469.330000	1019.043945	36.324104
11507.539362	1469.330000	1017.884766	-61.435879
11507.539362	1469.330000	1016.726563	117.532677
11507.539362	1469.330000	1015.567383	-54.465996
11507.539362	1469.330000	1014.407227	-28.869318
11507.539362	1469.330000	1013.248047	0.463067
11507.539362	1469.330000	1012.087891	-19.634392
11507.539362	1469.330000	1010.927734	90.311867
11507.539362	1469.330000	1009.767578	8.728706
11507.539362	1469.330000	1008.606445	-127.677078
11507.539362	1469.330000	1007.446289	-3.264544
11507.539362	1469.330000	1006.285156	-91.234489
11507.539362	1469.330000	1005.123047	-119.452057
11507.539362	1469.330000	1003.961914	42.478138
11507.539362	1469.330000	1002.799805	25.061308
11507.539362	1469.330000	1001.637695	94.299408
11507.539362	1469.330000	1000.475586	113.036308
11507.539362	1469.330000	999.312500	36.077366
11507.539362	1469.330000	998.149414	77.356209
11507.539362	1469.330000	996.986328	20.020403
11507.539362	1469.330000	995.823242	24.722420
11507.539362	1469.330000	994.659180	62.447762
11507.539362	1469.330000	993.496094	100.110039
11507.539362	1469.330000	992.332031	4.762162
11507.539362	1469.330000	991.166992	-47.632385
11507.539362	1469.330000	990.002930	125.039757
11507.539362	1469.330000	988.837891	95.613686
11507.539362	1469.330000	987.672852	146.900543
11507.539362	1469.330000	986.506836	192.530319
11507.539362	1469.330000	985.341797	57.398170
11507.539362	1469.330000	984.175781	204.743439
11507.539362	1469.330000	983.009766	33.850426
11507.539362	1469.330000	981.843750	151.341339
11507.539362	1469.330000	980.676758	-16.362873
11507.539362	1469.330000	979.509766	-14.902180
11507.539362	1469.330000	978.342773	35.750389
11507.539362	1469.330000	977.175781	72.665756
11507.539362	1469.330000	976.007813	3.018268
11507.539362	1469.330000	974.839844	170.873550
11507.539362	1469.330000	973.671875	-30.129135
11507.539362	1469.330000	972.503906	29.157803
11507.539362	1469.330000	971.334961	14.426758
11507.539362	1469.330000	970.166016	65.426468
11507.539362	1469.330000	968.997070	-20.487963
11507.539362	1469.330000	967.828125	68.651833
11507.539362	1469.330000	966.658203	172.064606
11507.539362	1469.330000	965.488281	53.154877
11507.539362	1469.330000	964.318359	60.061913
11507.539362	1469.330000	963.148438	114.123726
11507.539362	1469.330000	961.977539	76.085403
11507.539362	1469.330000	960.806641	160.533127
11507.539362	1469.330000	959.635742	274.084686
11507.539362	1469.330000	958.463867	81.495865
11507.539362	1469.330000	957.292969	37.547890
11507.539362	1469.330000	956.121094	22.700977
11507.539362	1469.330000	954.948242	89.015770
11507.539362	1469.330000	953.776367	133.491257
11507.539362	1469.330000	952.603516	80.540268
11507.539362	1469.330000	951.430664	241.086441
11507.539362	1469.330000	950.257813	237.061493
11507.539362	1469.330000	949.084961	107.379623
11507.539362	1469.330000	947.911133	191.157913
11507.539362	1469.330000	946.737305	45.816566
11507.539362	1469.330000	945.563477	10.244365
11507.539362	1469.330000	944.388672	86.115997
11507.539362	1469.330000	943.213867	73.125137
11507.539362	1469.330000	942.039063	-63.704205
11507.539362	1469.330000	940.864258	-1.643411
11507.539362	1469.330000	939.688477	-76.406479
11507.539362	1469.330000	938.513672	-40.789253
11507.539362	1469.330000	937.337891	138.592178
11507.539362	1469.330000	936.161133	14.859487
11507.539362	1469.330000	934.985352	74.859413
11507.539362	1469.330000	933.808594	-79.644745
11507.539362	1469.330000	932.631836	46.598297
11507.539362	1469.330000	931.454102	-3.957021
11507.539362	1469.330000	930.277344	-23.584051
11507.539362	1469.330000	929.099609	89.408195
11507.539362	1469.330000	927.921875	16.686560
11507.539362	1469.330000	926.743164	47.860229
11507.539362	1469.330000	925.565430	39.285271
11507.539362	1469.330000	924.386719	-9.077335
11507.539362	1469.330000	923.208008	39.775677
11507.539362	1469.330000	922.028320	-85.880013
11507.539362	1469.330000	920.849609	-12.736660
11507.539362	1469.330000	919.669922	-11.299625
11507.539362	1469.330000	919.474609	124.646187
11507.539362	1469.330000	918.309570	-51.750393
11507.539362	1469.330000	917.143555	-102.274475
11507.539362	1469.330000	915.977539	-102.028252
11507.539362	1469.330000	914.810547	10.730231
11507.539362	1469.330000	913.644531	130.056290
11507.539362	1469.330000	912.477539	39.833210
11507.539362	1469.330000	911.310547	73.114052
11507.539362	1469.330000	910.143555	93.152290
11507.539362	1469.330000	908.975586	11.802177
11507.539362	1469.330000	907.807617	-51.890049
11507.539362	1469.330000	906.639648	-102.339867
11507.539362	1469.330000	905.471680	-16.212269
11507.539362	1469.330000	904.303711	-24.812876
11507.539362	1469.330000	903.134766	32.639786
11507.539362	1469.330000	901.965820	-15.592220
11507.539362	1469.330000	900.796875	-92.416084
11507.539362	1469.330000	899.626953	-59.193409
11507.539362	1469.330000	898.457031	-199.776398
11507.539362	1469.330000	897.287109	-41.181114
11507.539362	1469.330000	896.117188	-23.387524
11507.539362	1469.330000	894.947266	-47.374603
11507.539362	1469.330000	893.776367	3.382266
11507.539362	1469.330000	892.605469	18.954218
11507.539362	1469.330000	891.434570	63.081997
11507.539362	1469.330000	890.262695	-163.008133
11507.539362	1469.330000	889.091797	45.857327
11507.539362	1469.330000	887.919922	-37.410622
11507.539362	1469.330000	886.748047	15.468628
11507.539362	1469.330000	885.575195	26.621712
11507.539362	1469.330000	884.403320	31.184053
11507.539362	1469.330000	883.230469	9.415749
11507.539362	1469.330000	882.057617	-111.057877
11507.539362	1469.330000	880.883789	-187.618973
11507.539362	1469.330000	879.710938	66.945984
11507.539362	1469.330000	878.537109	-95.121468
11507.539362	1469.330000	877.362305	-26.983938
11507.539362	1469.330000	876.188477	80.567726
11507.539362	1469.330000	875.013672	117.965958
11507.539362	1469.330000	873.839844	161.916977
11507.539362	1469.330000	872.664063	-2.200371
11507.539362	1469.330000	871.489258	37.376156
11507.539362	1469.330000	870.313477	65.990082
11507.539362	1469.330000	869.138672	-60.805668
11507.539362	1469.330000	867.962891	-139.409775
11507.539362	1469.330000	866.786133	-38.584461
11507.539362	1469.330000	865.610352	-53.731903
11507.539362	1469.330000	864.433594	1.106156
11507.539362	1469.330000	863.256836	-57.774071
11507.539362	1469.330000	862.079102	-61.981865
11507.539362	1469.330000	860.902344	-31.222116
11507.539362	1469.330000	859.724609	32.299824
11507.539362	1469.330000	858.546875	146.040817
11507.539362	1469.330000	857.368164	8.552198
11507.539362	1469.330000	856.190430	52.367374
11507.539362	1469.330000	855.011719	128.912796
11507.539362	1469.330000	853.833008	205.424637
11507.539362	1469.330000	852.654297	133.499496
11507.539362	1469.330000	851.474609	157.608627
11507.539362	1469.330000	850.294922	13.729874
11507.539362	1469.330000	849.115234	70.564354
11507.539362	1469.330000	847.935547	205.874695
11507.539362	1469.330000	846.754883	116.571579
11507.539362	1469.330000	845.575195	101.411552
11507.539362	1469.330000	844.393555	-11.809246
11507.539362	1469.330000	843.212891	138.648544
11507.539362	1469.330000	842.032227	106.058868
11507.539362	1469.330000	840.850586	25.566277
11507.539362	1469.330000	839.668945	-54.895821
11507.539362	1469.330000	838.486328	45.365452
11507.539362	1469.330000	837.304688	-19.838650
11507.539362	1469.330000	836.122070	67.310806
11507.539362	1469.330000	834.939453	6.474764
11507.539362	1469.330000	833.756836	-13.010436
11507.539362	1469.330000	832.573242	2.306351
11507.539362	1469.330000	831.389648	45.879047
11507.539362	1469.330000	830.206055	-117.088837
11507.539362	1469.330000	829.022461	26.461193
11507.539362	1469.330000	827.838867	33.049046
11507.539362	1469.330000	826.654297	39.631699
11507.539362	1469.330000	825.469727	46.206539
11507.539362	1469.330000	824.284180	-47.120052
11507.539362	1469.330000	823.099609	-10.141750
11507.539362	1469.330000	821.914063	85.428047
11507.539362	1469.330000	820.728516	-129.400101
11507.539362	1469.330000	819.542969	72.467941
11507.539362	1469.330000	818.356445	-62.009926
11507.539362	1469.330000	817.169922	-51.117065
11507.539362	1469.330000	815.983398	-96.614838
11507.539362	1469.330000	814.796875	-42.369091
11507.539362	1469.330000	813.609375	-161.559158
11507.539362	1469.330000	812.422852	48.702515
11507.539362	1469.330000	811.235352	29.200460
11507.539362	1469.330000	810.046875	87.686974
11507.539362	1469.330000	808.859375	11.861130
11507.539362	1469.330000	807.670898	81.141724
11507.539362	1469.330000	806.482422	-46.621773
11507.539362	1469.330000	805.293945	-178.667786
11507.539362	1469.330000	804.104492	78.861397
11507.539362	1469.330000	802.915039	70.155609
11507.539362	1469.330000	801.725586	89.567238
11507.539362	1469.330000	800.536133	-3.496657
11507.539362	1469.330000	799.345703	37.531105
11507.539362	1469.330000	798.155273	67.725121
11507.539362	1469.330000	796.964844	61.156025
11507.539362	1469.330000	795.774414	-27.532780
11507.539362	1469.330000	794.583008	32.879650
11507.539362	1469.330000	793.392578	32.777588
11507.539362	1469.330000	792.200195	15.392539
11507.539362	1469.330000	791.008789	-60.291023
11507.539362	1469.330000	789.816406	-8.589384
11507.539362	1469.330000	788.625000	56.030220
11507.539362	1469.330000	787.432617	53.723637
11507.539362	1469.330000	786.239258	-21.939495
11507.539362	1469.330000	785.046875	29.674692
11507.539362	1469.330000	783.853516	-7.155438
11507.539362	1469.330000	782.660156	35.791267
11507.539362	1469.330000	781.465820	1.112118
11507.539362	1469.330000	780.272461	22.468397
11507.539362	1469.330000	779.078125	-85.472443
11507.539362	1469.330000	777.883789	129.750031
11507.539362	1469.330000	776.688477	19.657900
11507.539362	1469.330000	775.494141	75.403229
11507.539362	1469.330000	774.298828	98.822838
11507.539362	1469.330000	773.103516	53.343990
11507.539362	1469.330000	771.907227	18.633739
11507.539362	1469.330000	770.711914	26.955065
11507.539362	1469.330000	769.515625	117.002121
11507.539362	1469.330000	768.318359	37.101856
11507.539362	1469.330000	767.122070	-36.327442
11507.539362	1469.330000	765.924805	34.293102
11507.539362	1469.330000	764.727539	81.229675
11507.539362	1469.330000	763.530273	61.520180
11507.539362	1469.330000	762.333008	50.399292
11507.539362	1469.330000	761.134766	142.370895
11507.539362	1469.330000	759.936523	56.049850
11507.539362	1469.330000	758.738281	135.073181
11507.539362	1469.330000	757.540039	-7.049535
11507.539362	1469.330000	756.340820	183.525879
11507.539362	1469.330000	755.141602	50.007572
11507.539362	1469.330000	753.942383	-64.162239
11507.539362	1469.330000	752.742188	94.091042
11507.539362	1469.330000	751.541992	119.313995
11507.539362	1469.330000	750.341797	110.208099
11507.539362	1469.330000	749.141602	133.243393
11507.539362	1469.330000	747.941406	6.242424
11507.539362	1469.330000	746.740234	42.114227
11507.539362	1469.330000	745.539063	26.544111
11507.539362	1469.330000	744.337891	10.965005
11507.539362	1469.330000	743.135742	117.426506
11507.539362	1469.330000	741.933594	54.705292
11507.539362	1469.330000	740.731445	118.273338
11507.539362	1469.330000	739.529297	51.265240
11507.539362	1469.330000	738.326172	74.124588
11507.539362	1469.330000	737.124023	81.984161
11507.539362	1469.330000	735.919922	263.046143
11507.539362	1469.330000	734.716797	76.261322
11507.539362	1469.330000	733.513672	101.164093
11507.539362	1469.330000	732.309570	-6.467540
11507.539362	1469.330000	731.105469	22.680342
11507.539362	1469.330000	729.900391	56.070282
11507.539362	1469.330000	728.696289	18.944633
11507.539362	1469.330000	727.491211	152.649063
11507.539362	1469.330000	726.286133	-4.077654
11507.539362	1469.330000	725.080078	142.345627
11507.539362	1469.330000	723.874023	145.704620
11507.539362	1469.330000	722.668945	18.891478
11507.539362	1469.330000	721.461914	90.498055
11507.539362	1469.330000	720.255859	68.214439
11507.539362	1469.330000	719.048828	131.212265
11507.539362	1469.330000	717.841797	38.539024
11507.539362	1469.330000	716.634766	18.351799
11507.539362	1469.330000	715.427734	-121.180611
11507.539362	1469.330000	714.219727	-26.319460
11507.539362	1469.330000	713.011719	98.302147
11507.539362	1469.330000	711.803711	129.147949
11507.539362	1469.330000	710.594727	19.434671
11507.539362	1469.330000	709.385742	99.202126
11507.539362	1469.330000	708.176758	-84.990738
11507.539362	1469.330000	706.967773	147.926270
11507.539362	1469.330000	705.758789	146.712311
11507.539362	1469.330000	704.548828	2.972216
11507.539362	1469.330000	703.338867	-23.772160
11507.539362	1469.330000	702.127930	87.665047
11507.539362	1469.330000	700.917969	11.981087
11507.539362	1469.330000	699.707031	-16.939995
11507.539362	1469.330000	698.496094	-9.751562
11507.539362	1469.330000	697.285156	-68.440041
11507.539362	1469.330000	696.073242	61.892277
11507.539362	1469.330000	694.861328	56.251759
11507.539362	1469.330000	693.649414	141.876602
11507.539362	1469.330000	692.436523	4.582447
11507.539362	1469.330000	691.224609	54.061974
11507.539362	1469.330000	690.011719	109.862053
11507.539362	1469.330000	688.798828	135.919830
11507.539362	1469.330000	687.584961	45.304806
11507.539362	1469.330000	686.372070	-24.092442
11507.539362	1469.330000	685.158203	-85.005432
11507.539362	1469.330000	683.943359	-48.425964
11507.539362	1469.330000	682.729492	-96.641060
11507.539362	1469.330000	681.514648	50.038033
11507.539362	1469.330000	680.299805	-36.349831
11507.539362	1469.330000	679.084961	99.620117
11507.539362	1469.330000	677.869141	2.625176
11507.539362	1469.330000	676.653320	-60.486160
11507.539362	1469.330000	675.437500	-51.643105
11507.539362	1469.330000	674.221680	101.045929
11507.539362	1469.330000	673.004883	133.072144
11507.539362	1469.330000	671.789063	120.648895
11507.539362	1469.330000	670.571289	-22.890375
11507.539362	1469.330000	669.354492	32.324036
11507.539362	1469.330000	668.136719	-66.799271
11507.539362	1469.330000	666.919922	45.407352
11507.539362	1469.330000	665.701172	11.767357
11507.539362	1469.330000	664.483398	-116.931816
11507.539362	1469.330000	663.264648	-13.305623
11507.539362	1469.330000	662.045898	31.135357
11507.539362	1469.330000	660.827148	18.540586
11507.539362	1469.330000	659.608398	-101.705605
11507.539362	1469.330000	658.388672	-74.225945
11507.539362	1469.330000	657.168945	-36.234039
11507.539362	1469.330000	655.949219	-34.136070
11507.539362	1469.330000	654.728516	16.435432
11507.539362	1469.330000	653.507813	18.472988
11507.539362	1469.330000	652.287109	39.456181
11507.539362	1469.330000	651.066406	60.407082
11507.539362	1469.330000	649.844727	-34.552986
11507.539362	1469.330000	648.623047	22.166744
11507.539362	1469.330000	647.401367	34.613750
11507.539362	1469.330000	646.179688	139.676331
11507.539362	1469.330000	644.957031	118.364456
11507.539362	1469.330000	643.734375	65.469658
11507.539362	1469.330000	642.511719	25.199602
11507.539362	1469.330000	641.289063	98.526604
11507.539362	1469.330000	640.065430	188.626099
11507.539362	1469.330000	638.841797	26.320980
11507.539362	1469.330000	637.618164	-18.202061
11507.539362	1469.330000	636.393555	36.063931
11507.539362	1469.330000	635.168945	27.239277
11507.539362	1469.330000	633.944336	121.349556
11507.539362	1469.330000	632.719727	97.762634
11507.539362	1469.330000	631.494141	-62.349037
11507.539362	1469.330000	630.269531	-56.532875
11507.539362	1469.330000	629.042969	136.096176
11507.539362	1469.330000	627.817383	-28.182444
11507.539362	1469.330000	626.590820	90.873360
11507.539362	1469.330000	625.365234	71.393097
11507.539362	1469.330000	624.137695	9.948655
11507.539362	1469.330000	622.911133	3.035525
11507.539362	1469.330000	621.683594	-62.601368
11507.539362	1469.330000	620.456055	-35.997185
11507.539362	1469.330000	619.228516	-70.199516
11507.539362	1469.330000	618.000977	-26.880442
11507.539362	1469.330000	616.772461	45.728573
11507.539362	1469.330000	615.543945	68.022621
11507.539362	1469.330000	614.314453	56.784389
11507.539362	1469.330000	613.085938	-124.040359
11507.539362	1469.330000	611.856445	76.132988
11507.539362	1469.330000	610.626953	-29.320423
11507.539362	1469.330000	609.397461	101.671509
11507.539362	1469.330000	608.166992	-30.969393
11507.539362	1469.330000	606.936523	-67.370857
11507.539362	1469.330000	605.706055	115.767761
11507.539362	1469.330000	604.474609	52.143158
11507.539362	1469.330000	603.244141	116.019707
11507.539362	1469.330000	602.012695	62.839298
11507.539362	1469.330000	600.780273	72.338585
11507.539362	1469.330000	599.548828	25.427542
11507.539362	1469.330000	598.316406	76.666656
11507.539362	1469.330000	597.083984	119.519661
11507.539362	1469.330000	595.851563	41.277954
11507.539362	1469.330000	594.618164	8.966337
11507.539362	1469.330000	593.384766	-25.430418
11507.539362	1469.330000	592.151367	184.234573
11507.539362	1469.330000	590.917969	51.772774
11507.539362	1469.330000	589.683594	-61.879429
11507.539362	1469.330000	588.449219	-29.569233
11507.539362	1469.330000	587.214844	17.306328
11507.539362	1469.330000	585.979492	22.476133
11507.539362	1469.330000	584.745117	-151.528488
11507.539362	1469.330000	583.509766	-27.620338
11507.539362	1469.330000	582.273438	17.093113
11507.539362	1469.330000	581.038086	-75.628731
11507.539362	1469.330000	579.801758	-43.428185
11507.539362	1469.330000	578.565430	-48.708504
11507.539362	1469.330000	577.329102	-8.218742
11507.539362	1469.330000	576.091797	59.288521
11507.539362	1469.330000	574.854492	-2.183217
11507.539362	1469.330000	573.617188	-40.761906
11507.539362	1469.330000	572.378906	-95.961349
11507.539362	1469.330000	571.141602	56.702553
11507.539362	1469.330000	569.903320	99.163147
11507.539362	1469.330000	568.664063	-51.610344
11507.539362	1469.330000	567.425781	34.467766
11507.539362	1469.330000	566.186523	-16.553953
11507.539362	1469.330000	564.947266	44.559483
11507.539362	1469.330000	563.708008	-16.824257
11507.539362	1469.330000	562.467773	-44.979225
11507.539362	1469.330000	561.227539	74.193336
11507.539362	1469.330000	559.987305	-55.616646
11507.539362	1469.330000	558.747070	11.658212
11507.539362	1469.330000	557.505859	39.506561
11507.539362	1469.330000	556.264648	-25.945511
11507.539362	1469.330000	555.023438	-2.242931
11507.539362	1469.330000	553.781250	11.089283
11507.539362	1469.330000	552.539063	-35.662632
11507.539362	1469.330000	551.296875	21.175137
11507.539362	1469.330000	550.054688	44.858440
11507.539362	1469.330000	548.811523	16.773392
11507.539362	1469.330000	547.569336	71.506592
11507.539362	1469.330000	546.325195	24.810186
11507.539362	1469.330000	545.082031	118.841156
11507.539362	1469.330000	543.837891	80.441582
11507.539362	1469.330000	542.593750	25.519234
11507.539362	1469.330000	541.349609	59.542324
11507.539362	1469.330000	540.105469	-11.875917
11507.539362	1469.330000	538.860352	-192.802490
11507.539362	1469.330000	537.615234	-40.943924
11507.539362	1469.330000	536.369141	53.008255
11507.539362	1469.330000	535.124023	10.603841
11507.539362	1469.330000	533.877930	92.133232
11507.539362	1469.330000	532.631836	45.627602
11507.539362	1469.330000	531.384766	-0.849178
11507.539362	1469.330000	530.138672	-69.995476
11507.539362	1469.330000	528.891602	71.360001
11507.539362	1469.330000	527.643555	169.344086
11507.539362	1469.330000	526.396484	145.613312
11507.539362	1469.330000	525.148438	-57.492569
11507.539362	1469.330000	523.900391	190.988647
11507.539362	1469.330000	522.652344	58.064095
11507.539362	1469.330000	521.403320	-29.455309
11507.539362	1469.330000	520.154297	-63.357449
11507.539362	1469.330000	518.905273	160.246109
11507.539362	1469.330000	517.656250	52.208157
11507.539362	1469.330000	516.406250	40.999741
11507.539362	1469.330000	515.156250	19.517925
11507.539362	1469.330000	513.906250	53.627151
11507.539362	1469.330000	512.655273	81.562630
11507.539362	1469.330000	511.404297	-53.015011
11507.539362	1469.330000	510.153320	34.606758
11507.539362	1469.330000	508.902344	-60.802921
11507.539362	1469.330000	507.650391	-61.589439
11507.539362	1469.330000	506.398438	-72.636734
11507.539362	1469.330000	505.146484	-1.465281
11507.539362	1469.330000	503.893555	22.435446
11507.539362	1469.330000	502.641602	-25.549355
11507.539362	1469.330000	501.388672	125.702408
11507.539362	1469.330000	500.134766	-86.510483
11507.539362	1469.330000	498.881836	52.403557
11507.539362	1469.330000	497.627930	14.773639
11507.539362	1469.330000	496.374023	-18.721025
11507.539362	1469.330000	495.119141	89.360649
11507.539362	1469.330000	493.865234	76.403465
11507.539362	1469.330000	492.610352	-18.555971
11507.539362	1469.330000	491.355469	13.645255
11507.539362	1469.330000	490.099609	-44.339462
11507.539362	1469.330000	488.843750	160.013535
11507.539362	1469.330000	487.587891	91.804924
11507.539362	1469.330000	486.332031	126.054756
11507.539362	1469.330000	485.075195	2.613574
11507.539362	1469.330000	483.818359	43.032673
11507.539362	1469.330000	482.561523	136.667923
11507.539362	1469.330000	481.304688	199.574860
11507.539362	1469.330000	480.046875	264.509644
11507.539362	1469.330000	478.789063	200.547287
11507.539362	1469.330000	477.531250	208.204102
11507.539362	1469.330000	476.272461	207.685379
11507.539362	1469.330000	475.013672	268.503906
11507.539362	1469.330000	473.754883	167.832626
11507.539362	1469.330000	472.496094	226.601227
11507.539362	1469.330000	471.236328	172.979614
11507.539362	1469.330000	469.976563	98.958397
11507.539362	1469.330000	468.716797	267.987122
11507.539362	1469.330000	467.456055	236.854202
11507.539362	1469.330000	466.196289	226.147644
11507.539362	1469.330000	464.935547	278.708527
11507.539362	1469.330000	463.673828	341.444122
11507.539362	1469.330000	462.413086	412.308502
11507.539362	1469.330000	461.151367	277.144470
11507.539362	1469.330000	459.889648	329.624695
11507.539362	1469.330000	458.626953	212.865738
11507.539362	1469.330000	457.364258	306.078705
11507.539362	1469.330000	456.101563	240.294067
11507.539362	1469.330000	454.838867	443.447418
11507.539362	1469.330000	453.575195	245.232117
11507.539362	1469.330000	452.312500	332.183777
11507.539362	1469.330000	451.047852	388.534973
11507.539362	1469.330000	449.784180	355.274902
11507.539362	1469.330000	448.519531	411.547638
11507.539362	1469.330000	447.254883	479.975342
11507.539362	1469.330000	445.990234	460.871490
11507.539362	1469.330000	444.725586	401.066559
11507.539362	1469.330000	443.459961	209.083099
11507.539362	1469.330000	442.194336	437.955627
11507.539362	1469.330000	440.927734	422.790436
11507.539362	1469.330000	439.662109	482.773560
11507.539362	1469.330000	438.395508	485.797394
11507.539362	1469.330000	437.127930	419.708801
11507.539362	1469.330000	435.861328	548.543762
11507.539362	1469.330000	434.593750	498.600983
11507.539362	1469.330000	433.326172	501.394348
11507.539362	1469.330000	432.058594	477.739685
11507.539362	1469.330000	430.790039	488.517426
11507.539362	1469.330000	429.521484	442.420105
11507.539362	1469.330000	428.252930	331.368561
11507.539362	1469.330000	426.984375	366.274292
11507.539362	1469.330000	425.714844	457.839752
11507.539362	1469.330000	424.445313	383.082916
11507.539362	1469.330000	423.174805	415.657440
11507.539362	1469.330000	421.905273	456.225769
11507.539362	1469.330000	420.634766	409.577515
11507.539362	1469.330000	419.364258	472.191711
11507.539362	1469.330000	418.092773	399.017639
11507.539362	1469.330000	416.822266	368.266571
11507.539362	1469.330000	415.550781	505.368500
11507.539362	1469.330000	414.278320	419.722473
11507.539362	1469.330000	413.006836	261.160522
11507.539362	1469.330000	411.734375	478.683807
11507.539362	1469.330000	410.461914	507.927216
11507.539362	1469.330000	409.188477	389.433868
11507.539362	1469.330000	407.916016	323.382751
11507.539362	1469.330000	406.642578	534.014648
11507.539362	1469.330000	405.368164	303.982300
11507.539362	1469.330000	404.094727	350.577606
11507.539362	1469.330000	402.820313	405.039673
11507.539362	1469.330000	401.545898	455.246582
11507.539362	1469.330000	400.270508	454.766174
11507.539362	1469.330000	398.996094	401.613922
11507.539362	1469.330000	397.720703	326.071411
11507.539362	1469.330000	396.444336	411.700073
11507.539362	1469.330000	395.168945	303.464020
11507.539362	1469.330000	393.892578	378.505005
11507.539362	1469.330000	392.616211	568.163269
11507.539362	1469.330000	391.339844	507.576599
11507.539362	1469.330000	390.062500	533.384521
11507.539362	1469.330000	388.785156	361.484680
11507.539362	1469.330000	387.507813	501.548523
11507.539362	1469.330000	386.229492	413.711639
11507.539362	1469.330000	384.951172	460.488007
11507.539362	1469.330000	383.672852	464.659058
11507.539362	1469.330000	382.394531	313.554871
11507.539362	1469.330000	381.115234	463.947876
11507.539362	1469.330000	379.835938	428.876312
11507.539362	1469.330000	378.556641	343.184204
11507.539362	1469.330000	377.277344	395.884186
11507.539362	1469.330000	375.997070	478.320282
11507.539362	1469.330000	374.716797	397.541534
11507.539362	1469.330000	373.435547	428.896179
11507.539362	1469.330000	372.155273	393.534760
11507.539362	1469.330000	370.874023	221.177628
11507.539362	1469.330000	369.591797	365.686829
11507.539362	1469.330000	368.310547	294.882477
11507.539362	1469.330000	367.028320	360.101166
11507.539362	1469.330000	365.746094	308.419525
11507.539362	1469.330000	364.463867	382.644196
11507.539362	1469.330000	363.180664	193.556290
11507.539362	1469.330000	361.897461	208.555267
11507.539362	1469.330000	360.614258	190.921051
11507.539362	1469.330000	359.330078	305.007629
11507.539362	1469.330000	358.045898	302.231323
11507.539362	1469.330000	356.761719	196.677673
11507.539362	1469.330000	355.477539	366.983154
11507.539362	1469.330000	354.192383	158.063538
11507.539362	1469.330000	352.907227	268.941925
11507.539362	1469.330000	351.622070	335.064331
11507.539362	1469.330000	350.336914	282.391968
11507.539362	1469.330000	349.050781	259.035278
11507.539362	1469.330000	347.764648	266.971619
11507.539362	1469.330000	346.477539	64.138123
11507.539362	1469.330000	345.191406	102.600281
11507.539362	1469.330000	343.904297	332.165100
11507.539362	1469.330000	342.616211	268.988434
11507.539362	1469.330000	341.329102	47.166386
11507.539362	1469.330000	340.041016	64.318008
11507.539362	1469.330000	338.752930	-51.238441
11507.539362	1469.330000	337.463867	59.998821
11507.539362	1469.330000	336.175781	186.267502
11507.539362	1469.330000	334.886719	169.794449
11507.539362	1469.330000	333.596680	228.177994
11507.539362	1469.330000	332.307617	231.701675
11507.539362	1469.330000	331.017578	70.611557
11507.539362	1469.330000	329.727539	50.155746
11507.539362	1469.330000	328.436523	152.243622
11507.539362	1469.330000	327.146484	215.349014
11507.539362	1469.330000	325.855469	0.244470
11507.539362	1469.330000	324.563477	-24.645790
11507.539362	1469.330000	323.272461	-30.744846
11507.539362	1469.330000	321.980469	-10.186667
11507.539362	1469.330000	320.688477	108.700859
11507.539362	1469.330000	319.395508	-4.700172
11507.539362	1469.330000	318.103516	-91.440002
11507.539362	1469.330000	316.810547	13.538554
11507.539362	1469.330000	315.516602	-113.709183
11507.539362	1469.330000	314.223633	-130.853256
11507.539362	1469.330000	312.929688	23.577204
11507.539362	1469.330000	311.635742	-58.126225
11507.539362	1469.330000	310.340820	-45.897800
11507.539362	1469.330000	309.045898	-98.789291
11507.539362	1469.330000	307.750977	-51.871387
11507.539362	1469.330000	306.456055	-0.600147
11507.539362	1469.330000	305.160156	45.009312
11507.539362	1469.330000	303.865234	67.144241
11507.539362	1469.330000	302.568359	164.903870
11507.539362	1469.330000	301.272461	22.755358
11507.539362	1469.330000	299.975586	198.332474
11507.539362	1469.330000	298.678711	201.399872
