#X		#Y		#Wave		#Intensity
12239.736170	148.405000	1999.980469	5.893477
12239.736170	148.405000	1999.016602	-131.306671
12239.736170	148.405000	1998.052734	-118.496368
12239.736170	148.405000	1997.087891	62.692242
12239.736170	148.405000	1996.123047	159.444855
12239.736170	148.405000	1995.158203	0.883780
12239.736170	148.405000	1994.193359	45.352924
12239.736170	148.405000	1993.228516	211.025269
12239.736170	148.405000	1992.262695	178.453827
12239.736170	148.405000	1991.297852	-20.068924
12239.736170	148.405000	1990.332031	137.759537
12239.736170	148.405000	1989.366211	137.056641
12239.736170	148.405000	1988.399414	64.503662
12239.736170	148.405000	1987.433594	-27.913351
12239.736170	148.405000	1986.466797	-36.310860
12239.736170	148.405000	1985.500977	197.514755
12239.736170	148.405000	1984.534180	-26.190165
12239.736170	148.405000	1983.567383	61.530033
12239.736170	148.405000	1982.599609	42.865108
12239.736170	148.405000	1981.632813	177.308823
12239.736170	148.405000	1980.665039	104.110985
12239.736170	148.405000	1979.697266	11.099057
12239.736170	148.405000	1978.729492	48.920448
12239.736170	148.405000	1977.761719	-4.700812
12239.736170	148.405000	1976.792969	148.975082
12239.736170	148.405000	1975.825195	307.457733
12239.736170	148.405000	1974.856445	241.260956
12239.736170	148.405000	1973.887695	81.269539
12239.736170	148.405000	1972.918945	91.470490
12239.736170	148.405000	1971.949219	62.142647
12239.736170	148.405000	1970.980469	5.640844
12239.736170	148.405000	1970.010742	-58.296902
12239.736170	148.405000	1969.041016	146.396500
12239.736170	148.405000	1968.071289	-48.270638
12239.736170	148.405000	1967.101563	-35.951660
12239.736170	148.405000	1966.130859	-114.839012
12239.736170	148.405000	1965.161133	18.070568
12239.736170	148.405000	1964.190430	165.655823
12239.736170	148.405000	1963.219727	27.537165
12239.736170	148.405000	1962.249023	-21.957951
12239.736170	148.405000	1961.277344	150.024506
12239.736170	148.405000	1960.306641	56.146278
12239.736170	148.405000	1959.334961	149.239105
12239.736170	148.405000	1958.363281	-3.721046
12239.736170	148.405000	1957.391602	22.868965
12239.736170	148.405000	1956.419922	19.907177
12239.736170	148.405000	1955.447266	137.371719
12239.736170	148.405000	1954.474609	50.748821
12239.736170	148.405000	1953.501953	155.811432
12239.736170	148.405000	1952.529297	29.842737
12239.736170	148.405000	1951.556641	164.289917
12239.736170	148.405000	1950.583984	156.203644
12239.736170	148.405000	1949.610352	138.269714
12239.736170	148.405000	1948.636719	-29.451406
12239.736170	148.405000	1947.663086	63.071339
12239.736170	148.405000	1946.689453	-13.810702
12239.736170	148.405000	1945.715820	171.876846
12239.736170	148.405000	1944.741211	4.184237
12239.736170	148.405000	1943.767578	140.701477
12239.736170	148.405000	1942.792969	159.428741
12239.736170	148.405000	1941.818359	153.611984
12239.736170	148.405000	1940.842773	160.037170
12239.736170	148.405000	1939.868164	65.952011
12239.736170	148.405000	1938.892578	111.573250
12239.736170	148.405000	1937.916992	100.809906
12239.736170	148.405000	1936.941406	55.743042
12239.736170	148.405000	1935.965820	-77.492607
12239.736170	148.405000	1934.990234	36.643932
12239.736170	148.405000	1934.013672	-76.972771
12239.736170	148.405000	1933.037109	-41.231628
12239.736170	148.405000	1932.060547	111.966858
12239.736170	148.405000	1931.083984	88.917465
12239.736170	148.405000	1930.107422	156.393463
12239.736170	148.405000	1929.129883	13.473389
12239.736170	148.405000	1928.153320	22.233967
12239.736170	148.405000	1927.175781	-39.923958
12239.736170	148.405000	1926.198242	276.870361
12239.736170	148.405000	1925.219727	24.028343
12239.736170	148.405000	1924.242188	52.319546
12239.736170	148.405000	1923.263672	14.627127
12239.736170	148.405000	1922.285156	57.564915
12239.736170	148.405000	1921.306641	-2.095964
12239.736170	148.405000	1920.328125	-59.290951
12239.736170	148.405000	1919.349609	0.731020
12239.736170	148.405000	1918.370117	16.791414
12239.736170	148.405000	1917.391602	-45.249096
12239.736170	148.405000	1916.412109	0.102422
12239.736170	148.405000	1915.431641	13.721966
12239.736170	148.405000	1914.452148	-170.236420
12239.736170	148.405000	1913.472656	-27.321451
12239.736170	148.405000	1912.492188	217.953766
12239.736170	148.405000	1911.511719	131.590027
12239.736170	148.405000	1910.531250	128.137527
12239.736170	148.405000	1909.550781	-133.626938
12239.736170	148.405000	1908.569336	-5.444553
12239.736170	148.405000	1907.588867	168.984528
12239.736170	148.405000	1906.607422	90.050148
12239.736170	148.405000	1905.625977	79.337921
12239.736170	148.405000	1904.644531	139.244629
12239.736170	148.405000	1903.662109	104.199516
12239.736170	148.405000	1902.680664	-67.113998
12239.736170	148.405000	1901.698242	-24.222527
12239.736170	148.405000	1900.715820	-100.548897
12239.736170	148.405000	1899.733398	54.244526
12239.736170	148.405000	1898.750000	94.684601
12239.736170	148.405000	1897.767578	52.449715
12239.736170	148.405000	1896.784180	-65.123451
12239.736170	148.405000	1895.800781	-41.667309
12239.736170	148.405000	1894.817383	-20.638733
12239.736170	148.405000	1893.833984	61.135284
12239.736170	148.405000	1892.850586	-80.600983
12239.736170	148.405000	1891.866211	132.328735
12239.736170	148.405000	1890.881836	41.647350
12239.736170	148.405000	1889.897461	-36.849121
12239.736170	148.405000	1888.913086	42.478561
12239.736170	148.405000	1887.927734	17.426289
12239.736170	148.405000	1886.943359	53.059734
12239.736170	148.405000	1885.958008	20.759663
12239.736170	148.405000	1884.972656	-261.354675
12239.736170	148.405000	1883.987305	-41.343273
12239.736170	148.405000	1883.001953	173.747955
12239.736170	148.405000	1882.015625	32.403408
12239.736170	148.405000	1881.029297	-135.538025
12239.736170	148.405000	1880.042969	21.324043
12239.736170	148.405000	1879.056641	27.919273
12239.736170	148.405000	1878.070313	-81.752853
12239.736170	148.405000	1877.083984	-113.868149
12239.736170	148.405000	1876.096680	59.867832
12239.736170	148.405000	1875.109375	-107.820885
12239.736170	148.405000	1874.122070	-120.515434
12239.736170	148.405000	1873.134766	89.461861
12239.736170	148.405000	1872.146484	100.953796
12239.736170	148.405000	1871.159180	-49.636143
12239.736170	148.405000	1870.170898	-74.382011
12239.736170	148.405000	1869.182617	-41.066761
12239.736170	148.405000	1868.194336	1.918866
12239.736170	148.405000	1867.205078	54.567604
12239.736170	148.405000	1866.216797	49.200748
12239.736170	148.405000	1865.227539	-23.817698
12239.736170	148.405000	1864.238281	-65.388939
12239.736170	148.405000	1863.249023	173.279358
12239.736170	148.405000	1862.259766	83.403320
12239.736170	148.405000	1861.269531	-45.065289
12239.736170	148.405000	1860.279297	-144.504807
12239.736170	148.405000	1859.290039	106.108253
12239.736170	148.405000	1858.298828	98.403412
12239.736170	148.405000	1857.308594	59.345005
12239.736170	148.405000	1856.318359	42.022457
12239.736170	148.405000	1855.327148	36.774261
12239.736170	148.405000	1854.335938	55.652161
12239.736170	148.405000	1853.344727	-0.212705
12239.736170	148.405000	1852.353516	45.199463
12239.736170	148.405000	1851.362305	-34.727280
12239.736170	148.405000	1850.370117	49.244991
12239.736170	148.405000	1849.377930	-6.545428
12239.736170	148.405000	1848.385742	-28.583639
12239.736170	148.405000	1847.393555	-93.957283
12239.736170	148.405000	1846.401367	52.599018
12239.736170	148.405000	1845.408203	37.804169
12239.736170	148.405000	1844.415039	85.604797
12239.736170	148.405000	1843.421875	114.140785
12239.736170	148.405000	1842.428711	15.147705
12239.736170	148.405000	1841.435547	-26.066103
12239.736170	148.405000	1840.441406	-57.639637
12239.736170	148.405000	1839.448242	55.091507
12239.736170	148.405000	1838.454102	119.697746
12239.736170	148.405000	1837.459961	92.937660
12239.736170	148.405000	1836.464844	-25.138783
12239.736170	148.405000	1835.470703	20.235796
12239.736170	148.405000	1834.475586	22.350599
12239.736170	148.405000	1833.480469	79.715630
12239.736170	148.405000	1832.485352	177.889206
12239.736170	148.405000	1831.490234	59.926189
12239.736170	148.405000	1830.495117	-113.204941
12239.736170	148.405000	1829.499023	138.571686
12239.736170	148.405000	1828.502930	150.277252
12239.736170	148.405000	1827.506836	8.423213
12239.736170	148.405000	1826.510742	27.349583
12239.736170	148.405000	1825.513672	77.447670
12239.736170	148.405000	1824.517578	72.376350
12239.736170	148.405000	1823.520508	199.169998
12239.736170	148.405000	1822.523438	26.281933
12239.736170	148.405000	1821.526367	88.328537
12239.736170	148.405000	1820.529297	28.146418
12239.736170	148.405000	1819.531250	150.059998
12239.736170	148.405000	1818.533203	121.024529
12239.736170	148.405000	1817.535156	27.339506
12239.736170	148.405000	1816.537109	12.702379
12239.736170	148.405000	1815.539063	91.431198
12239.736170	148.405000	1814.540039	79.176064
12239.736170	148.405000	1813.541992	81.282349
12239.736170	148.405000	1812.542969	21.177011
12239.736170	148.405000	1811.543945	109.402214
12239.736170	148.405000	1810.543945	44.524067
12239.736170	148.405000	1809.544922	-137.500717
12239.736170	148.405000	1808.544922	60.666435
12239.736170	148.405000	1807.544922	43.628231
12239.736170	148.405000	1806.544922	88.728127
12239.736170	148.405000	1805.544922	-33.451176
12239.736170	148.405000	1804.544922	123.916199
12239.736170	148.405000	1803.543945	118.800133
12239.736170	148.405000	1802.542969	116.068512
12239.736170	148.405000	1801.541992	65.580406
12239.736170	148.405000	1800.541016	103.428787
12239.736170	148.405000	1799.539063	181.828156
12239.736170	148.405000	1798.538086	107.474098
12239.736170	148.405000	1797.536133	28.367691
12239.736170	148.405000	1796.534180	73.321190
12239.736170	148.405000	1795.532227	6.160477
12239.736170	148.405000	1794.529297	-46.677807
12239.736170	148.405000	1793.527344	26.847221
12239.736170	148.405000	1792.524414	40.746826
12239.736170	148.405000	1791.521484	97.526665
12239.736170	148.405000	1790.518555	-79.219795
12239.736170	148.405000	1789.514648	115.706764
12239.736170	148.405000	1788.511719	-49.087280
12239.736170	148.405000	1787.507813	-104.292374
12239.736170	148.405000	1786.503906	-38.065899
12239.736170	148.405000	1785.500000	159.044983
12239.736170	148.405000	1784.496094	53.821770
12239.736170	148.405000	1783.491211	-13.303382
12239.736170	148.405000	1782.486328	76.600090
12239.736170	148.405000	1781.481445	-73.776192
12239.736170	148.405000	1780.476563	-57.640476
12239.736170	148.405000	1779.471680	27.428846
12239.736170	148.405000	1778.465820	-1.653662
12239.736170	148.405000	1777.460938	57.203499
12239.736170	148.405000	1776.455078	35.229107
12239.736170	148.405000	1775.449219	77.397758
12239.736170	148.405000	1774.442383	126.661568
12239.736170	148.405000	1773.436523	-175.597809
12239.736170	148.405000	1772.429688	-71.719551
12239.736170	148.405000	1771.422852	65.341782
12239.736170	148.405000	1770.416016	38.558636
12239.736170	148.405000	1769.409180	-57.050186
12239.736170	148.405000	1768.402344	6.332481
12239.736170	148.405000	1767.394531	221.497559
12239.736170	148.405000	1766.386719	-35.420559
12239.736170	148.405000	1765.378906	-26.667200
12239.736170	148.405000	1764.371094	-20.303606
12239.736170	148.405000	1763.362305	76.115883
12239.736170	148.405000	1762.354492	35.024994
12239.736170	148.405000	1761.345703	-51.089531
12239.736170	148.405000	1760.336914	40.493237
12239.736170	148.405000	1759.328125	1.749177
12239.736170	148.405000	1758.318359	15.100945
12239.736170	148.405000	1757.308594	108.933098
12239.736170	148.405000	1756.299805	89.084373
12239.736170	148.405000	1755.290039	24.253733
12239.736170	148.405000	1754.279297	61.182171
12239.736170	148.405000	1753.269531	3.443385
12239.736170	148.405000	1752.258789	85.269463
12239.736170	148.405000	1751.249023	-59.994839
12239.736170	148.405000	1750.238281	151.826859
12239.736170	148.405000	1749.226563	18.384247
12239.736170	148.405000	1748.215820	50.432850
12239.736170	148.405000	1747.204102	-23.896957
12239.736170	148.405000	1746.193359	57.727573
12239.736170	148.405000	1745.181641	-75.672127
12239.736170	148.405000	1744.168945	79.105911
12239.736170	148.405000	1743.157227	-47.202145
12239.736170	148.405000	1742.144531	76.779060
12239.736170	148.405000	1741.132813	-40.077991
12239.736170	148.405000	1740.120117	-86.110901
12239.736170	148.405000	1739.106445	-28.325216
12239.736170	148.405000	1738.093750	-5.966972
12239.736170	148.405000	1737.080078	70.610008
12239.736170	148.405000	1736.067383	57.525494
12239.736170	148.405000	1735.053711	-47.532417
12239.736170	148.405000	1734.040039	61.949745
12239.736170	148.405000	1733.025391	6.382084
12239.736170	148.405000	1732.011719	-25.617907
12239.736170	148.405000	1730.997070	1.271045
12239.736170	148.405000	1729.982422	-61.383308
12239.736170	148.405000	1728.967773	-20.409649
12239.736170	148.405000	1727.952148	-104.272949
12239.736170	148.405000	1726.937500	-89.246117
12239.736170	148.405000	1725.921875	-191.937271
12239.736170	148.405000	1724.906250	-221.657913
12239.736170	148.405000	1723.890625	-30.219627
12239.736170	148.405000	1722.875000	-64.707909
12239.736170	148.405000	1721.858398	-96.855881
12239.736170	148.405000	1720.841797	-2.031606
12239.736170	148.405000	1719.825195	-69.489029
12239.736170	148.405000	1718.808594	-89.930328
12239.736170	148.405000	1717.791992	-63.382381
12239.736170	148.405000	1716.774414	273.294159
12239.736170	148.405000	1715.756836	-26.833071
12239.736170	148.405000	1714.739258	-5.079063
12239.736170	148.405000	1713.721680	56.566929
12239.736170	148.405000	1712.704102	-149.496170
12239.736170	148.405000	1711.685547	10.700514
12239.736170	148.405000	1710.667969	-35.721207
12239.736170	148.405000	1709.649414	105.575325
12239.736170	148.405000	1708.630859	124.797043
12239.736170	148.405000	1707.611328	-13.173686
12239.736170	148.405000	1706.592773	144.387192
12239.736170	148.405000	1705.573242	-164.746780
12239.736170	148.405000	1704.553711	77.130898
12239.736170	148.405000	1703.534180	-44.405987
12239.736170	148.405000	1702.513672	70.763634
12239.736170	148.405000	1701.494141	31.234154
12239.736170	148.405000	1700.473633	97.108498
12239.736170	148.405000	1699.453125	76.278877
12239.736170	148.405000	1698.432617	-35.888451
12239.736170	148.405000	1697.412109	111.835594
12239.736170	148.405000	1696.390625	65.198441
12239.736170	148.405000	1695.369141	128.549927
12239.736170	148.405000	1694.347656	4.668921
12239.736170	148.405000	1693.326172	65.624840
12239.736170	148.405000	1692.304688	170.975388
12239.736170	148.405000	1691.282227	23.704748
12239.736170	148.405000	1690.260742	40.134830
12239.736170	148.405000	1689.238281	100.947777
12239.736170	148.405000	1688.214844	14.473717
12239.736170	148.405000	1687.192383	128.969238
12239.736170	148.405000	1686.168945	12.109573
12239.736170	148.405000	1685.146484	-1.948712
12239.736170	148.405000	1684.123047	-53.391304
12239.736170	148.405000	1683.099609	14.244199
12239.736170	148.405000	1682.075195	4.793414
12239.736170	148.405000	1681.051758	91.021973
12239.736170	148.405000	1680.027344	72.184982
12239.736170	148.405000	1679.002930	-58.653522
12239.736170	148.405000	1677.978516	214.083755
12239.736170	148.405000	1676.953125	78.559998
12239.736170	148.405000	1675.928711	218.216339
12239.736170	148.405000	1674.903320	180.618256
12239.736170	148.405000	1673.877930	208.278137
12239.736170	148.405000	1672.852539	154.344116
12239.736170	148.405000	1671.826172	77.108688
12239.736170	148.405000	1670.800781	249.142563
12239.736170	148.405000	1669.774414	20.492542
12239.736170	148.405000	1668.748047	164.485550
12239.736170	148.405000	1667.721680	59.293667
12239.736170	148.405000	1666.694336	-1.653462
12239.736170	148.405000	1665.667969	14.206263
12239.736170	148.405000	1664.640625	123.109909
12239.736170	148.405000	1663.613281	199.384537
12239.736170	148.405000	1662.585938	117.451233
12239.736170	148.405000	1661.557617	77.385597
12239.736170	148.405000	1660.530273	86.146393
12239.736170	148.405000	1659.501953	241.329422
12239.736170	148.405000	1658.473633	356.925415
12239.736170	148.405000	1657.444336	242.414719
12239.736170	148.405000	1656.416016	281.266479
12239.736170	148.405000	1655.386719	294.532440
12239.736170	148.405000	1654.358398	298.491394
12239.736170	148.405000	1653.328125	369.759125
12239.736170	148.405000	1652.298828	375.987366
12239.736170	148.405000	1651.269531	289.359100
12239.736170	148.405000	1650.239258	464.962494
12239.736170	148.405000	1649.208984	422.396820
12239.736170	148.405000	1648.178711	409.987549
12239.736170	148.405000	1647.148438	318.717285
12239.736170	148.405000	1646.117188	452.377808
12239.736170	148.405000	1645.086914	507.155396
12239.736170	148.405000	1644.055664	455.274902
12239.736170	148.405000	1643.024414	465.968964
12239.736170	148.405000	1641.992188	335.309631
12239.736170	148.405000	1640.960938	387.691711
12239.736170	148.405000	1639.928711	217.699387
12239.736170	148.405000	1638.896484	267.738739
12239.736170	148.405000	1637.864258	377.938904
12239.736170	148.405000	1636.832031	381.609253
12239.736170	148.405000	1635.798828	362.119598
12239.736170	148.405000	1634.766602	418.984070
12239.736170	148.405000	1633.733398	357.832123
12239.736170	148.405000	1632.699219	453.962860
12239.736170	148.405000	1631.666016	230.935852
12239.736170	148.405000	1630.632813	218.373856
12239.736170	148.405000	1629.598633	413.839020
12239.736170	148.405000	1628.564453	350.378174
12239.736170	148.405000	1627.530273	457.917816
12239.736170	148.405000	1626.495117	516.888306
12239.736170	148.405000	1625.460938	559.662842
12239.736170	148.405000	1624.425781	489.252533
12239.736170	148.405000	1623.390625	409.625702
12239.736170	148.405000	1622.355469	417.740112
12239.736170	148.405000	1621.319336	361.216522
12239.736170	148.405000	1620.284180	459.312958
12239.736170	148.405000	1619.248047	370.489227
12239.736170	148.405000	1618.211914	505.431946
12239.736170	148.405000	1617.174805	506.554749
12239.736170	148.405000	1616.138672	556.094238
12239.736170	148.405000	1615.101563	455.763641
12239.736170	148.405000	1614.065430	408.480255
12239.736170	148.405000	1613.027344	467.200775
12239.736170	148.405000	1611.990234	470.604370
12239.736170	148.405000	1610.953125	632.938721
12239.736170	148.405000	1609.915039	585.628235
12239.736170	148.405000	1608.876953	644.249146
12239.736170	148.405000	1607.838867	550.904358
12239.736170	148.405000	1606.800781	528.943726
12239.736170	148.405000	1605.761719	504.682404
12239.736170	148.405000	1604.723633	567.860413
12239.736170	148.405000	1603.684570	474.586426
12239.736170	148.405000	1602.644531	579.129395
12239.736170	148.405000	1601.605469	423.800720
12239.736170	148.405000	1600.566406	558.200073
12239.736170	148.405000	1599.526367	573.018433
12239.736170	148.405000	1598.486328	670.560181
12239.736170	148.405000	1597.446289	676.158569
12239.736170	148.405000	1596.405273	619.726868
12239.736170	148.405000	1595.365234	632.222900
12239.736170	148.405000	1594.324219	506.934113
12239.736170	148.405000	1593.283203	505.668762
12239.736170	148.405000	1592.242188	568.675720
12239.736170	148.405000	1591.200195	581.166504
12239.736170	148.405000	1590.159180	531.707825
12239.736170	148.405000	1589.117188	603.849426
12239.736170	148.405000	1588.075195	685.139771
12239.736170	148.405000	1587.032227	644.861145
12239.736170	148.405000	1585.990234	643.581238
12239.736170	148.405000	1584.947266	623.963135
12239.736170	148.405000	1583.904297	831.242737
12239.736170	148.405000	1582.861328	639.753357
12239.736170	148.405000	1581.818359	798.849426
12239.736170	148.405000	1580.775391	790.685486
12239.736170	148.405000	1579.731445	752.756470
12239.736170	148.405000	1578.687500	804.140015
12239.736170	148.405000	1577.643555	619.732971
12239.736170	148.405000	1576.598633	684.862183
12239.736170	148.405000	1575.554688	749.977051
12239.736170	148.405000	1574.509766	666.365723
12239.736170	148.405000	1573.464844	701.733887
12239.736170	148.405000	1572.419922	798.841003
12239.736170	148.405000	1571.374023	911.919434
12239.736170	148.405000	1570.329102	659.213257
12239.736170	148.405000	1569.283203	683.157349
12239.736170	148.405000	1568.237305	622.553772
12239.736170	148.405000	1567.191406	571.122253
12239.736170	148.405000	1566.144531	599.662842
12239.736170	148.405000	1565.098633	507.169708
12239.736170	148.405000	1564.051758	346.221680
12239.736170	148.405000	1563.004883	509.507172
12239.736170	148.405000	1561.957031	407.982117
12239.736170	148.405000	1560.910156	555.241638
12239.736170	148.405000	1559.862305	506.245483
12239.736170	148.405000	1558.814453	350.072723
12239.736170	148.405000	1557.766602	390.104065
12239.736170	148.405000	1556.718750	313.846191
12239.736170	148.405000	1555.669922	173.797577
12239.736170	148.405000	1554.621094	138.662170
12239.736170	148.405000	1553.573242	196.989014
12239.736170	148.405000	1552.523438	209.733414
12239.736170	148.405000	1551.474609	295.384125
12239.736170	148.405000	1550.424805	333.186920
12239.736170	148.405000	1549.375000	275.356842
12239.736170	148.405000	1548.325195	292.692108
12239.736170	148.405000	1547.275391	146.157913
12239.736170	148.405000	1546.225586	220.436234
12239.736170	148.405000	1545.174805	249.195160
12239.736170	148.405000	1544.124023	230.190201
12239.736170	148.405000	1543.073242	227.131638
12239.736170	148.405000	1542.022461	128.590164
12239.736170	148.405000	1540.970703	230.162628
12239.736170	148.405000	1539.919922	208.978104
12239.736170	148.405000	1538.868164	208.270569
12239.736170	148.405000	1537.815430	178.042847
12239.736170	148.405000	1536.763672	204.641190
12239.736170	148.405000	1535.710938	240.330414
12239.736170	148.405000	1534.659180	194.284317
12239.736170	148.405000	1533.606445	80.166252
12239.736170	148.405000	1532.552734	213.521545
12239.736170	148.405000	1531.500000	224.304123
12239.736170	148.405000	1530.446289	139.806366
12239.736170	148.405000	1529.393555	-12.686339
12239.736170	148.405000	1528.338867	268.090271
12239.736170	148.405000	1527.285156	99.802757
12239.736170	148.405000	1526.231445	54.030163
12239.736170	148.405000	1525.176758	198.697784
12239.736170	148.405000	1524.122070	35.124664
12239.736170	148.405000	1523.067383	-8.272369
12239.736170	148.405000	1522.012695	88.823891
12239.736170	148.405000	1520.957031	-33.790051
12239.736170	148.405000	1519.901367	-108.776711
12239.736170	148.405000	1518.845703	87.972137
12239.736170	148.405000	1517.790039	83.213150
12239.736170	148.405000	1516.734375	101.114616
12239.736170	148.405000	1515.677734	146.184570
12239.736170	148.405000	1514.621094	-86.986702
12239.736170	148.405000	1513.564453	-41.842247
12239.736170	148.405000	1512.507813	75.673889
12239.736170	148.405000	1511.450195	-143.698212
12239.736170	148.405000	1510.393555	-143.692657
12239.736170	148.405000	1509.335938	10.017119
12239.736170	148.405000	1508.278320	-71.294212
12239.736170	148.405000	1507.219727	55.287357
12239.736170	148.405000	1506.162109	-62.078960
12239.736170	148.405000	1505.103516	-138.724579
12239.736170	148.405000	1504.044922	-93.391563
12239.736170	148.405000	1502.986328	-291.831573
12239.736170	148.405000	1501.926758	69.528732
12239.736170	148.405000	1500.868164	-81.417877
12239.736170	148.405000	1499.808594	40.692299
12239.736170	148.405000	1498.749023	77.077499
12239.736170	148.405000	1497.688477	-89.474960
12239.736170	148.405000	1496.628906	57.462116
12239.736170	148.405000	1495.568359	120.967987
12239.736170	148.405000	1494.507813	51.513695
12239.736170	148.405000	1493.447266	112.809456
12239.736170	148.405000	1492.386719	212.411697
12239.736170	148.405000	1491.325195	165.603989
12239.736170	148.405000	1490.263672	-79.318062
12239.736170	148.405000	1489.202148	27.118464
12239.736170	148.405000	1488.140625	104.284904
12239.736170	148.405000	1487.079102	57.675152
12239.736170	148.405000	1486.016602	155.124710
12239.736170	148.405000	1484.954102	-120.873230
12239.736170	148.405000	1483.891602	23.878334
12239.736170	148.405000	1482.829102	35.932373
12239.736170	148.405000	1481.765625	-35.169422
12239.736170	148.405000	1480.702148	-67.990669
12239.736170	148.405000	1479.638672	-44.576546
12239.736170	148.405000	1478.575195	205.807053
12239.736170	148.405000	1477.511719	175.323441
12239.736170	148.405000	1476.447266	288.643372
12239.736170	148.405000	1475.382813	134.722092
12239.736170	148.405000	1474.318359	140.281006
12239.736170	148.405000	1473.253906	143.689453
12239.736170	148.405000	1472.189453	111.194214
12239.736170	148.405000	1471.124023	155.029724
12239.736170	148.405000	1470.058594	57.584583
12239.736170	148.405000	1468.993164	215.855591
12239.736170	148.405000	1467.927734	163.299011
12239.736170	148.405000	1466.861328	48.208920
12239.736170	148.405000	1465.794922	284.787781
12239.736170	148.405000	1464.728516	267.981567
12239.736170	148.405000	1463.662109	309.754364
12239.736170	148.405000	1462.594727	186.080536
12239.736170	148.405000	1461.528320	124.850235
12239.736170	148.405000	1460.460938	224.809998
12239.736170	148.405000	1459.393555	11.966221
12239.736170	148.405000	1458.326172	212.343475
12239.736170	148.405000	1457.257813	57.710335
12239.736170	148.405000	1456.189453	82.676071
12239.736170	148.405000	1455.121094	307.532349
12239.736170	148.405000	1454.052734	196.145538
12239.736170	148.405000	1452.984375	371.197449
12239.736170	148.405000	1451.915039	234.953339
12239.736170	148.405000	1450.845703	354.742065
12239.736170	148.405000	1449.776367	249.838669
12239.736170	148.405000	1448.707031	-29.933979
12239.736170	148.405000	1447.636719	85.669571
12239.736170	148.405000	1446.567383	84.882996
12239.736170	148.405000	1445.497070	65.031059
12239.736170	148.405000	1444.425781	137.850342
12239.736170	148.405000	1443.355469	58.585011
12239.736170	148.405000	1442.285156	128.246185
12239.736170	148.405000	1441.213867	79.803169
12239.736170	148.405000	1440.142578	199.446640
12239.736170	148.405000	1439.070313	188.801254
12239.736170	148.405000	1437.999023	141.680557
12239.736170	148.405000	1436.926758	119.002724
12239.736170	148.405000	1435.854492	45.829838
12239.736170	148.405000	1434.782227	151.304565
12239.736170	148.405000	1433.709961	340.755585
12239.736170	148.405000	1432.636719	246.888885
12239.736170	148.405000	1431.563477	17.423557
12239.736170	148.405000	1430.490234	6.004690
12239.736170	148.405000	1429.416992	189.322311
12239.736170	148.405000	1428.343750	-6.390605
12239.736170	148.405000	1427.269531	-110.262390
12239.736170	148.405000	1426.195313	140.252502
12239.736170	148.405000	1425.121094	321.702484
12239.736170	148.405000	1424.046875	20.280445
12239.736170	148.405000	1422.971680	58.994476
12239.736170	148.405000	1421.896484	-52.255100
12239.736170	148.405000	1420.821289	79.528839
12239.736170	148.405000	1419.746094	25.901518
12239.736170	148.405000	1418.669922	112.501503
12239.736170	148.405000	1417.594727	15.716842
12239.736170	148.405000	1416.518555	-0.429223
12239.736170	148.405000	1415.442383	171.122070
12239.736170	148.405000	1414.365234	78.590988
12239.736170	148.405000	1413.289063	207.913071
12239.736170	148.405000	1412.211914	267.583588
12239.736170	148.405000	1411.134766	58.934036
12239.736170	148.405000	1410.057617	271.415619
12239.736170	148.405000	1408.979492	61.625248
12239.736170	148.405000	1407.902344	181.292953
12239.736170	148.405000	1406.824219	241.563812
12239.736170	148.405000	1405.746094	119.403389
12239.736170	148.405000	1404.666992	322.640228
12239.736170	148.405000	1403.588867	339.534729
12239.736170	148.405000	1402.509766	277.627838
12239.736170	148.405000	1401.430664	183.263306
12239.736170	148.405000	1400.351563	75.903557
12239.736170	148.405000	1399.271484	30.354851
12239.736170	148.405000	1398.192383	190.780472
12239.736170	148.405000	1397.112305	197.786682
12239.736170	148.405000	1396.031250	332.529358
12239.736170	148.405000	1394.951172	270.736938
12239.736170	148.405000	1393.871094	436.430115
12239.736170	148.405000	1392.790039	170.234268
12239.736170	148.405000	1391.708984	277.324799
12239.736170	148.405000	1390.626953	344.031219
12239.736170	148.405000	1389.545898	499.970245
12239.736170	148.405000	1388.463867	310.189728
12239.736170	148.405000	1387.381836	287.818451
12239.736170	148.405000	1386.299805	634.609314
12239.736170	148.405000	1385.217773	665.877197
12239.736170	148.405000	1384.134766	637.792175
12239.736170	148.405000	1383.051758	459.357391
12239.736170	148.405000	1381.968750	503.053314
12239.736170	148.405000	1380.885742	594.341736
12239.736170	148.405000	1379.802734	497.187347
12239.736170	148.405000	1378.718750	507.518829
12239.736170	148.405000	1377.634766	357.209717
12239.736170	148.405000	1376.550781	434.511353
12239.736170	148.405000	1375.465820	592.284607
12239.736170	148.405000	1374.381836	435.363586
12239.736170	148.405000	1373.296875	599.479492
12239.736170	148.405000	1372.211914	583.533936
12239.736170	148.405000	1371.126953	616.606873
12239.736170	148.405000	1370.041016	684.382141
12239.736170	148.405000	1368.955078	530.025269
12239.736170	148.405000	1367.869141	608.590454
12239.736170	148.405000	1366.783203	612.467163
12239.736170	148.405000	1365.697266	621.395020
12239.736170	148.405000	1364.610352	504.047272
12239.736170	148.405000	1363.523438	439.511688
12239.736170	148.405000	1362.436523	584.974182
12239.736170	148.405000	1361.349609	368.934113
12239.736170	148.405000	1360.261719	363.925232
12239.736170	148.405000	1359.174805	416.181885
12239.736170	148.405000	1358.086914	469.520752
12239.736170	148.405000	1356.998047	161.259689
12239.736170	148.405000	1355.910156	273.741180
12239.736170	148.405000	1354.821289	308.867096
12239.736170	148.405000	1353.732422	170.258545
12239.736170	148.405000	1352.643555	325.617004
12239.736170	148.405000	1351.554688	229.893478
12239.736170	148.405000	1350.464844	189.944305
12239.736170	148.405000	1349.375000	198.802521
12239.736170	148.405000	1348.285156	101.559723
12239.736170	148.405000	1347.195313	113.086334
12239.736170	148.405000	1346.105469	144.882172
12239.736170	148.405000	1345.014648	293.273956
12239.736170	148.405000	1343.923828	358.804779
12239.736170	148.405000	1342.833008	231.013962
12239.736170	148.405000	1341.741211	243.344086
12239.736170	148.405000	1340.650391	129.295685
12239.736170	148.405000	1339.558594	190.549530
12239.736170	148.405000	1338.466797	272.359894
12239.736170	148.405000	1337.374023	265.720764
12239.736170	148.405000	1336.282227	402.897491
12239.736170	148.405000	1335.189453	412.024292
12239.736170	148.405000	1334.096680	350.102295
12239.736170	148.405000	1333.003906	268.923309
12239.736170	148.405000	1331.910156	302.807648
12239.736170	148.405000	1330.817383	156.760986
12239.736170	148.405000	1329.723633	202.966705
12239.736170	148.405000	1328.629883	361.703156
12239.736170	148.405000	1327.535156	311.011963
12239.736170	148.405000	1326.441406	143.343353
12239.736170	148.405000	1325.346680	310.157806
12239.736170	148.405000	1324.251953	315.607086
12239.736170	148.405000	1323.156250	83.683098
12239.736170	148.405000	1322.061523	111.167847
12239.736170	148.405000	1320.965820	179.421509
12239.736170	148.405000	1319.870117	137.871506
12239.736170	148.405000	1318.774414	206.329132
12239.736170	148.405000	1317.678711	167.660324
12239.736170	148.405000	1316.582031	217.068176
12239.736170	148.405000	1315.485352	188.924332
12239.736170	148.405000	1314.388672	240.328110
12239.736170	148.405000	1313.291016	137.716110
12239.736170	148.405000	1312.194336	223.382355
12239.736170	148.405000	1311.096680	129.302841
12239.736170	148.405000	1309.999023	176.426178
12239.736170	148.405000	1308.901367	234.747681
12239.736170	148.405000	1307.802734	290.737793
12239.736170	148.405000	1306.705078	206.894272
12239.736170	148.405000	1305.606445	185.887787
12239.736170	148.405000	1304.506836	165.769409
12239.736170	148.405000	1303.408203	280.457611
12239.736170	148.405000	1302.308594	153.234100
12239.736170	148.405000	1301.208984	259.792786
12239.736170	148.405000	1300.109375	187.198807
12239.736170	148.405000	1299.009766	36.499226
12239.736170	148.405000	1297.909180	139.975754
12239.736170	148.405000	1296.808594	159.203552
12239.736170	148.405000	1295.708008	142.768753
12239.736170	148.405000	1294.607422	12.172497
12239.736170	148.405000	1293.506836	104.658142
12239.736170	148.405000	1292.405273	-12.091612
12239.736170	148.405000	1291.303711	79.522675
12239.736170	148.405000	1290.202148	75.709671
12239.736170	148.405000	1289.099609	-30.594416
12239.736170	148.405000	1287.998047	4.377209
12239.736170	148.405000	1286.895508	13.714584
12239.736170	148.405000	1285.792969	-36.025970
12239.736170	148.405000	1284.689453	-153.658646
12239.736170	148.405000	1283.586914	-16.244482
12239.736170	148.405000	1282.483398	-48.494522
12239.736170	148.405000	1281.379883	-60.024921
12239.736170	148.405000	1280.276367	-40.167061
12239.736170	148.405000	1279.171875	-59.572411
12239.736170	148.405000	1278.067383	121.636444
12239.736170	148.405000	1276.962891	2.838078
12239.736170	148.405000	1275.858398	85.002853
12239.736170	148.405000	1274.753906	-5.454521
12239.736170	148.405000	1273.648438	-62.147324
12239.736170	148.405000	1272.542969	-38.367210
12239.736170	148.405000	1271.437500	2.412336
12239.736170	148.405000	1270.331055	-123.707054
12239.736170	148.405000	1269.225586	-83.701134
12239.736170	148.405000	1268.119141	-185.746170
12239.736170	148.405000	1267.012695	-150.428833
12239.736170	148.405000	1265.906250	-39.124496
12239.736170	148.405000	1264.798828	-73.599091
12239.736170	148.405000	1263.691406	-166.060471
12239.736170	148.405000	1262.583984	-51.750210
12239.736170	148.405000	1261.476563	-72.616402
12239.736170	148.405000	1260.368164	36.018440
12239.736170	148.405000	1259.260742	28.017536
12239.736170	148.405000	1258.152344	-6.687103
12239.736170	148.405000	1257.043945	35.977791
12239.736170	148.405000	1255.934570	15.325520
12239.736170	148.405000	1254.825195	-2.098520
12239.736170	148.405000	1253.716797	-43.915993
12239.736170	148.405000	1252.606445	-98.663231
12239.736170	148.405000	1251.497070	-71.256775
12239.736170	148.405000	1250.387695	34.834496
12239.736170	148.405000	1249.277344	42.139793
12239.736170	148.405000	1248.166992	122.510071
12239.736170	148.405000	1247.055664	59.837376
12239.736170	148.405000	1245.945313	70.681763
12239.736170	148.405000	1244.833984	77.071350
12239.736170	148.405000	1243.722656	-86.858307
12239.736170	148.405000	1242.611328	-31.561188
12239.736170	148.405000	1241.499023	23.722496
12239.736170	148.405000	1240.387695	68.174728
12239.736170	148.405000	1239.275391	17.855022
12239.736170	148.405000	1238.162109	92.767441
12239.736170	148.405000	1237.049805	12.513804
12239.736170	148.405000	1235.936523	48.154678
12239.736170	148.405000	1234.823242	-0.124207
12239.736170	148.405000	1233.709961	180.230988
12239.736170	148.405000	1232.596680	14.266760
12239.736170	148.405000	1231.482422	31.225441
12239.736170	148.405000	1230.369141	-58.200470
12239.736170	148.405000	1229.253906	41.345161
12239.736170	148.405000	1228.139648	73.259377
12239.736170	148.405000	1227.025391	175.392899
12239.736170	148.405000	1225.910156	-13.952320
12239.736170	148.405000	1224.794922	153.999191
12239.736170	148.405000	1223.679688	217.656723
12239.736170	148.405000	1222.563477	210.609848
12239.736170	148.405000	1221.447266	177.882553
12239.736170	148.405000	1220.331055	94.523308
12239.736170	148.405000	1219.214844	42.141106
12239.736170	148.405000	1218.098633	77.464600
12239.736170	148.405000	1216.981445	-3.472763
12239.736170	148.405000	1215.864258	59.015072
12239.736170	148.405000	1214.747070	-10.399407
12239.736170	148.405000	1213.629883	13.492910
12239.736170	148.405000	1212.511719	-83.373131
12239.736170	148.405000	1211.393555	-107.995094
12239.736170	148.405000	1210.275391	-17.278130
12239.736170	148.405000	1209.157227	-34.945251
12239.736170	148.405000	1208.038086	66.971611
12239.736170	148.405000	1206.918945	116.470482
12239.736170	148.405000	1205.799805	98.836143
12239.736170	148.405000	1204.680664	165.829971
12239.736170	148.405000	1203.560547	156.280899
12239.736170	148.405000	1202.441406	99.851761
12239.736170	148.405000	1201.321289	99.789169
12239.736170	148.405000	1200.200195	157.517578
12239.736170	148.405000	1199.080078	139.861954
12239.736170	148.405000	1197.958984	1.301788
12239.736170	148.405000	1196.837891	13.104630
12239.736170	148.405000	1195.716797	70.772072
12239.736170	148.405000	1194.594727	89.081802
12239.736170	148.405000	1193.473633	239.516464
12239.736170	148.405000	1192.351563	165.451614
12239.736170	148.405000	1191.229492	83.749481
12239.736170	148.405000	1190.106445	138.935318
12239.736170	148.405000	1188.984375	196.105057
12239.736170	148.405000	1187.861328	173.632294
12239.736170	148.405000	1186.738281	325.772858
12239.736170	148.405000	1185.614258	277.639343
12239.736170	148.405000	1184.491211	281.153900
12239.736170	148.405000	1183.367188	171.386902
12239.736170	148.405000	1182.243164	211.213776
12239.736170	148.405000	1181.119141	147.208405
12239.736170	148.405000	1179.994141	35.877975
12239.736170	148.405000	1178.869141	39.386509
12239.736170	148.405000	1177.744141	53.979771
12239.736170	148.405000	1176.619141	17.654013
12239.736170	148.405000	1175.493164	59.663952
12239.736170	148.405000	1174.368164	112.439598
12239.736170	148.405000	1173.242188	84.854965
12239.736170	148.405000	1172.115234	47.493702
12239.736170	148.405000	1170.989258	50.258018
12239.736170	148.405000	1169.862305	-19.820377
12239.736170	148.405000	1168.735352	-16.627209
12239.736170	148.405000	1167.608398	109.418755
12239.736170	148.405000	1166.481445	83.885551
12239.736170	148.405000	1165.353516	36.409214
12239.736170	148.405000	1164.225586	54.266163
12239.736170	148.405000	1163.097656	8.001001
12239.736170	148.405000	1161.968750	-32.975349
12239.736170	148.405000	1160.840820	83.647163
12239.736170	148.405000	1159.711914	54.596428
12239.736170	148.405000	1158.583008	33.351059
12239.736170	148.405000	1157.453125	55.091969
12239.736170	148.405000	1156.324219	-34.926388
12239.736170	148.405000	1155.194336	69.699120
12239.736170	148.405000	1154.064453	26.098513
12239.736170	148.405000	1152.933594	100.421906
12239.736170	148.405000	1151.803711	141.292496
12239.736170	148.405000	1150.672852	44.352104
12239.736170	148.405000	1149.541992	-122.611481
12239.736170	148.405000	1148.411133	-35.076576
12239.736170	148.405000	1147.279297	-68.166542
12239.736170	148.405000	1146.147461	-38.587700
12239.736170	148.405000	1145.015625	86.408691
12239.736170	148.405000	1143.883789	-40.780190
12239.736170	148.405000	1142.750977	-111.420311
12239.736170	148.405000	1141.619141	-26.952236
12239.736170	148.405000	1140.486328	-164.136169
12239.736170	148.405000	1139.352539	-76.310791
12239.736170	148.405000	1138.219727	-97.293037
12239.736170	148.405000	1137.085938	-133.651306
12239.736170	148.405000	1135.952148	-55.159645
12239.736170	148.405000	1134.818359	-62.078091
12239.736170	148.405000	1133.683594	-135.938339
12239.736170	148.405000	1132.549805	-3.470252
12239.736170	148.405000	1131.415039	-54.163246
12239.736170	148.405000	1130.279297	67.042450
12239.736170	148.405000	1129.144531	111.281296
12239.736170	148.405000	1128.008789	45.977402
12239.736170	148.405000	1126.873047	6.887089
12239.736170	148.405000	1125.737305	-21.451307
12239.736170	148.405000	1124.601563	8.862370
12239.736170	148.405000	1123.464844	-18.383371
12239.736170	148.405000	1122.328125	-3.159177
12239.736170	148.405000	1121.191406	-14.478951
12239.736170	148.405000	1120.054688	-110.473289
12239.736170	148.405000	1118.916992	-196.173065
12239.736170	148.405000	1117.779297	-26.203171
12239.736170	148.405000	1116.641602	49.722328
12239.736170	148.405000	1115.503906	-23.880192
12239.736170	148.405000	1114.365234	-24.953775
12239.736170	148.405000	1113.226563	-96.515793
12239.736170	148.405000	1112.087891	-54.167538
12239.736170	148.405000	1110.949219	44.391087
12239.736170	148.405000	1109.809570	-118.512520
12239.736170	148.405000	1108.669922	-116.386864
12239.736170	148.405000	1107.530273	68.214149
12239.736170	148.405000	1106.390625	-34.313686
12239.736170	148.405000	1105.250000	-19.738728
12239.736170	148.405000	1104.109375	173.554138
12239.736170	148.405000	1102.968750	9.066669
12239.736170	148.405000	1101.828125	2.840192
12239.736170	148.405000	1100.686523	84.701004
12239.736170	148.405000	1099.544922	70.363419
12239.736170	148.405000	1098.403320	92.011353
12239.736170	148.405000	1097.261719	2.431247
12239.736170	148.405000	1096.120117	195.558487
12239.736170	148.405000	1094.977539	62.957058
12239.736170	148.405000	1093.834961	100.632912
12239.736170	148.405000	1092.691406	74.269157
12239.736170	148.405000	1091.548828	-19.249952
12239.736170	148.405000	1090.405273	19.078665
12239.736170	148.405000	1089.261719	44.514946
12239.736170	148.405000	1088.118164	59.008446
12239.736170	148.405000	1086.973633	129.250000
12239.736170	148.405000	1085.829102	107.993752
12239.736170	148.405000	1084.684570	-40.550480
12239.736170	148.405000	1083.540039	-65.024925
12239.736170	148.405000	1082.395508	28.039030
12239.736170	148.405000	1081.250000	16.689552
12239.736170	148.405000	1080.104492	-44.165775
12239.736170	148.405000	1078.958984	108.865005
12239.736170	148.405000	1077.812500	160.912537
12239.736170	148.405000	1076.666016	-25.655590
12239.736170	148.405000	1075.519531	160.054565
12239.736170	148.405000	1074.373047	163.073654
12239.736170	148.405000	1073.226563	80.482124
12239.736170	148.405000	1072.079102	108.597511
12239.736170	148.405000	1070.931641	164.124466
12239.736170	148.405000	1069.784180	174.282639
12239.736170	148.405000	1068.635742	176.347504
12239.736170	148.405000	1067.487305	147.106781
12239.736170	148.405000	1066.338867	54.436874
12239.736170	148.405000	1065.190430	138.778595
12239.736170	148.405000	1064.041992	156.900879
12239.736170	148.405000	1062.892578	64.024940
12239.736170	148.405000	1061.743164	124.270187
12239.736170	148.405000	1060.593750	231.921204
12239.736170	148.405000	1059.443359	68.289925
12239.736170	148.405000	1058.292969	91.395279
12239.736170	148.405000	1057.142578	169.197632
12239.736170	148.405000	1055.992188	112.955208
12239.736170	148.405000	1054.841797	-85.030289
12239.736170	148.405000	1053.690430	-23.517338
12239.736170	148.405000	1052.539063	10.198651
12239.736170	148.405000	1051.387695	-4.105037
12239.736170	148.405000	1050.235352	0.537189
12239.736170	148.405000	1049.083984	-6.255262
12239.736170	148.405000	1047.931641	34.607033
12239.736170	148.405000	1046.778320	-37.695866
12239.736170	148.405000	1045.625977	38.483925
12239.736170	148.405000	1044.472656	-20.094393
12239.736170	148.405000	1043.319336	202.701233
12239.736170	148.405000	1042.166016	8.182282
12239.736170	148.405000	1041.012695	152.068451
12239.736170	148.405000	1039.858398	75.040474
12239.736170	148.405000	1038.704102	98.366730
12239.736170	148.405000	1037.549805	130.973953
12239.736170	148.405000	1036.394531	52.033527
12239.736170	148.405000	1035.239258	12.296342
12239.736170	148.405000	1034.083984	98.328781
12239.736170	148.405000	1032.928711	167.169418
12239.736170	148.405000	1031.773438	132.774277
12239.736170	148.405000	1030.617188	89.086136
12239.736170	148.405000	1029.460938	187.192444
12239.736170	148.405000	1028.304688	167.263107
12239.736170	148.405000	1027.147461	148.685654
12239.736170	148.405000	1025.991211	61.595165
12239.736170	148.405000	1024.833984	118.212975
12239.736170	148.405000	1023.675781	130.375427
12239.736170	148.405000	1022.518555	27.044424
12239.736170	148.405000	1021.360352	77.222885
12239.736170	148.405000	1020.202148	-12.613827
12239.736170	148.405000	1019.043945	18.679316
12239.736170	148.405000	1017.884766	-7.797930
12239.736170	148.405000	1016.726563	178.233475
12239.736170	148.405000	1015.567383	91.948601
12239.736170	148.405000	1014.407227	40.450909
12239.736170	148.405000	1013.248047	162.932678
12239.736170	148.405000	1012.087891	29.924303
12239.736170	148.405000	1010.927734	209.816879
12239.736170	148.405000	1009.767578	107.956619
12239.736170	148.405000	1008.606445	195.394791
12239.736170	148.405000	1007.446289	230.480637
12239.736170	148.405000	1006.285156	154.063690
12239.736170	148.405000	1005.123047	192.560883
12239.736170	148.405000	1003.961914	282.222534
12239.736170	148.405000	1002.799805	199.449265
12239.736170	148.405000	1001.637695	285.643616
12239.736170	148.405000	1000.475586	359.038574
12239.736170	148.405000	999.312500	165.180771
12239.736170	148.405000	998.149414	266.293640
12239.736170	148.405000	996.986328	221.841141
12239.736170	148.405000	995.823242	238.067917
12239.736170	148.405000	994.659180	209.569901
12239.736170	148.405000	993.496094	110.680359
12239.736170	148.405000	992.332031	106.575882
12239.736170	148.405000	991.166992	128.623657
12239.736170	148.405000	990.002930	195.093613
12239.736170	148.405000	988.837891	-12.227421
12239.736170	148.405000	987.672852	-46.693939
12239.736170	148.405000	986.506836	50.475361
12239.736170	148.405000	985.341797	68.891441
12239.736170	148.405000	984.175781	-7.095115
12239.736170	148.405000	983.009766	-12.812310
12239.736170	148.405000	981.843750	118.142288
12239.736170	148.405000	980.676758	58.728092
12239.736170	148.405000	979.509766	-8.171403
12239.736170	148.405000	978.342773	-28.738232
12239.736170	148.405000	977.175781	2.487665
12239.736170	148.405000	976.007813	-27.823444
12239.736170	148.405000	974.839844	-60.492558
12239.736170	148.405000	973.671875	48.087360
12239.736170	148.405000	972.503906	-34.701756
12239.736170	148.405000	971.334961	63.779037
12239.736170	148.405000	970.166016	4.303564
12239.736170	148.405000	968.997070	-157.296036
12239.736170	148.405000	967.828125	-140.993301
12239.736170	148.405000	966.658203	20.508368
12239.736170	148.405000	965.488281	41.788532
12239.736170	148.405000	964.318359	161.493805
12239.736170	148.405000	963.148438	11.613538
12239.736170	148.405000	961.977539	-51.188572
12239.736170	148.405000	960.806641	206.778473
12239.736170	148.405000	959.635742	30.849272
12239.736170	148.405000	958.463867	-18.747137
12239.736170	148.405000	957.292969	126.674072
12239.736170	148.405000	956.121094	147.316956
12239.736170	148.405000	954.948242	142.256271
12239.736170	148.405000	953.776367	-0.094009
12239.736170	148.405000	952.603516	49.325012
12239.736170	148.405000	951.430664	-0.375553
12239.736170	148.405000	950.257813	-65.612572
12239.736170	148.405000	949.084961	-5.641279
12239.736170	148.405000	947.911133	-68.817772
12239.736170	148.405000	946.737305	-29.600182
12239.736170	148.405000	945.563477	43.142963
12239.736170	148.405000	944.388672	-32.684711
12239.736170	148.405000	943.213867	-85.546661
12239.736170	148.405000	942.039063	147.223755
12239.736170	148.405000	940.864258	94.611053
12239.736170	148.405000	939.688477	139.600815
12239.736170	148.405000	938.513672	-46.678616
12239.736170	148.405000	937.337891	98.522095
12239.736170	148.405000	936.161133	80.959854
12239.736170	148.405000	934.985352	34.298798
12239.736170	148.405000	933.808594	73.048866
12239.736170	148.405000	932.631836	-63.300087
12239.736170	148.405000	931.454102	56.785248
12239.736170	148.405000	930.277344	133.044830
12239.736170	148.405000	929.099609	0.791677
12239.736170	148.405000	927.921875	4.035748
12239.736170	148.405000	926.743164	26.040251
12239.736170	148.405000	925.565430	87.567764
12239.736170	148.405000	924.386719	203.218262
12239.736170	148.405000	923.208008	73.066238
12239.736170	148.405000	922.028320	188.650208
12239.736170	148.405000	920.849609	-22.698725
12239.736170	148.405000	919.669922	-20.605835
12239.736170	148.405000	919.474609	-25.480864
12239.736170	148.405000	918.309570	-12.005636
12239.736170	148.405000	917.143555	-2.715746
12239.736170	148.405000	915.977539	43.995625
12239.736170	148.405000	914.810547	9.555078
12239.736170	148.405000	913.644531	-101.832077
12239.736170	148.405000	912.477539	-38.554485
12239.736170	148.405000	911.310547	76.642189
12239.736170	148.405000	910.143555	73.317665
12239.736170	148.405000	908.975586	-67.154762
12239.736170	148.405000	907.807617	72.849426
12239.736170	148.405000	906.639648	79.856247
12239.736170	148.405000	905.471680	20.394163
12239.736170	148.405000	904.303711	75.120056
12239.736170	148.405000	903.134766	19.798258
12239.736170	148.405000	901.965820	26.736956
12239.736170	148.405000	900.796875	-49.336658
12239.736170	148.405000	899.626953	15.660058
12239.736170	148.405000	898.457031	14.246278
12239.736170	148.405000	897.287109	89.535423
12239.736170	148.405000	896.117188	54.901661
12239.736170	148.405000	894.947266	1.610753
12239.736170	148.405000	893.776367	-12.302098
12239.736170	148.405000	892.605469	69.076889
12239.736170	148.405000	891.434570	-102.305374
12239.736170	148.405000	890.262695	66.007172
12239.736170	148.405000	889.091797	-20.446014
12239.736170	148.405000	887.919922	-9.583540
12239.736170	148.405000	886.748047	133.719376
12239.736170	148.405000	885.575195	-54.137894
12239.736170	148.405000	884.403320	118.046806
12239.736170	148.405000	883.230469	-84.242897
12239.736170	148.405000	882.057617	94.049957
12239.736170	148.405000	880.883789	67.562469
12239.736170	148.405000	879.710938	32.799648
12239.736170	148.405000	878.537109	91.040413
12239.736170	148.405000	877.362305	74.854668
12239.736170	148.405000	876.188477	108.240204
12239.736170	148.405000	875.013672	19.734137
12239.736170	148.405000	873.839844	5.590153
12239.736170	148.405000	872.664063	59.571548
12239.736170	148.405000	871.489258	-8.274172
12239.736170	148.405000	870.313477	-88.489082
12239.736170	148.405000	869.138672	-82.025948
12239.736170	148.405000	867.962891	44.072128
12239.736170	148.405000	866.786133	-9.334909
12239.736170	148.405000	865.610352	83.673302
12239.736170	148.405000	864.433594	-83.142235
12239.736170	148.405000	863.256836	119.061798
12239.736170	148.405000	862.079102	-12.686137
12239.736170	148.405000	860.902344	61.645741
12239.736170	148.405000	859.724609	4.094709
12239.736170	148.405000	858.546875	20.697964
12239.736170	148.405000	857.368164	-49.203087
12239.736170	148.405000	856.190430	-26.447668
12239.736170	148.405000	855.011719	-166.319885
12239.736170	148.405000	853.833008	47.806358
12239.736170	148.405000	852.654297	-57.074680
12239.736170	148.405000	851.474609	-17.932209
12239.736170	148.405000	850.294922	-44.631298
12239.736170	148.405000	849.115234	45.870144
12239.736170	148.405000	847.935547	-38.418987
12239.736170	148.405000	846.754883	-67.191574
12239.736170	148.405000	845.575195	-28.153353
12239.736170	148.405000	844.393555	113.582611
12239.736170	148.405000	843.212891	-40.540825
12239.736170	148.405000	842.032227	-5.677499
12239.736170	148.405000	840.850586	20.946932
12239.736170	148.405000	839.668945	-83.831841
12239.736170	148.405000	838.486328	-53.121826
12239.736170	148.405000	837.304688	-90.152542
12239.736170	148.405000	836.122070	-6.138640
12239.736170	148.405000	834.939453	-112.925552
12239.736170	148.405000	833.756836	-158.160156
12239.736170	148.405000	832.573242	3.691079
12239.736170	148.405000	831.389648	-88.718712
12239.736170	148.405000	830.206055	-8.949984
12239.736170	148.405000	829.022461	-80.852760
12239.736170	148.405000	827.838867	-35.967983
12239.736170	148.405000	826.654297	111.295456
12239.736170	148.405000	825.469727	72.141502
12239.736170	148.405000	824.284180	-20.237190
12239.736170	148.405000	823.099609	77.771370
12239.736170	148.405000	821.914063	-55.523296
12239.736170	148.405000	820.728516	-4.629129
12239.736170	148.405000	819.542969	9.410978
12239.736170	148.405000	818.356445	84.791077
12239.736170	148.405000	817.169922	-91.380531
12239.736170	148.405000	815.983398	-34.432396
12239.736170	148.405000	814.796875	12.261036
12239.736170	148.405000	813.609375	-63.686310
12239.736170	148.405000	812.422852	-88.536789
12239.736170	148.405000	811.235352	21.429571
12239.736170	148.405000	810.046875	14.931543
12239.736170	148.405000	808.859375	-107.960167
12239.736170	148.405000	807.670898	-28.711205
12239.736170	148.405000	806.482422	-57.678516
12239.736170	148.405000	805.293945	-82.563721
12239.736170	148.405000	804.104492	-29.922890
12239.736170	148.405000	802.915039	10.446605
12239.736170	148.405000	801.725586	14.081427
12239.736170	148.405000	800.536133	62.559742
12239.736170	148.405000	799.345703	60.046131
12239.736170	148.405000	798.155273	-40.302639
12239.736170	148.405000	796.964844	-10.213096
12239.736170	148.405000	795.774414	-0.518704
12239.736170	148.405000	794.583008	-27.500235
12239.736170	148.405000	793.392578	33.081673
12239.736170	148.405000	792.200195	44.766453
12239.736170	148.405000	791.008789	-65.695236
12239.736170	148.405000	789.816406	-1.103301
12239.736170	148.405000	788.625000	-52.524956
12239.736170	148.405000	787.432617	-6.291882
12239.736170	148.405000	786.239258	-17.034943
12239.736170	148.405000	785.046875	-70.485863
12239.736170	148.405000	783.853516	-26.341619
12239.736170	148.405000	782.660156	48.262169
12239.736170	148.405000	781.465820	-33.648743
12239.736170	148.405000	780.272461	-15.983263
12239.736170	148.405000	779.078125	-120.212364
12239.736170	148.405000	777.883789	-27.414026
12239.736170	148.405000	776.688477	61.274380
12239.736170	148.405000	775.494141	3.753576
12239.736170	148.405000	774.298828	-25.338593
12239.736170	148.405000	773.103516	-38.195805
12239.736170	148.405000	771.907227	28.063574
12239.736170	148.405000	770.711914	-35.528816
12239.736170	148.405000	769.515625	71.239990
12239.736170	148.405000	768.318359	-59.262356
12239.736170	148.405000	767.122070	87.987526
12239.736170	148.405000	765.924805	109.513588
12239.736170	148.405000	764.727539	33.760864
12239.736170	148.405000	763.530273	-52.099266
12239.736170	148.405000	762.333008	7.893149
12239.736170	148.405000	761.134766	9.126491
12239.736170	148.405000	759.936523	8.324146
12239.736170	148.405000	758.738281	-101.791245
12239.736170	148.405000	757.540039	10.735869
12239.736170	148.405000	756.340820	-14.377556
12239.736170	148.405000	755.141602	69.743752
12239.736170	148.405000	753.942383	18.315105
12239.736170	148.405000	752.742188	31.602259
12239.736170	148.405000	751.541992	-38.012169
12239.736170	148.405000	750.341797	43.979610
12239.736170	148.405000	749.141602	4.681083
12239.736170	148.405000	747.941406	147.217712
12239.736170	148.405000	746.740234	4.877182
12239.736170	148.405000	745.539063	82.709137
12239.736170	148.405000	744.337891	49.448406
12239.736170	148.405000	743.135742	80.787918
12239.736170	148.405000	741.933594	122.194336
12239.736170	148.405000	740.731445	14.254541
12239.736170	148.405000	739.529297	-57.338146
12239.736170	148.405000	738.326172	62.699009
12239.736170	148.405000	737.124023	257.286743
12239.736170	148.405000	735.919922	266.298737
12239.736170	148.405000	734.716797	269.248901
12239.736170	148.405000	733.513672	233.896088
12239.736170	148.405000	732.309570	250.932632
12239.736170	148.405000	731.105469	259.893127
12239.736170	148.405000	729.900391	97.647186
12239.736170	148.405000	728.696289	88.490150
12239.736170	148.405000	727.491211	53.154388
12239.736170	148.405000	726.286133	106.382538
12239.736170	148.405000	725.080078	-29.582321
12239.736170	148.405000	723.874023	-8.573213
12239.736170	148.405000	722.668945	-57.986599
12239.736170	148.405000	721.461914	33.382847
12239.736170	148.405000	720.255859	-98.478882
12239.736170	148.405000	719.048828	-29.275604
12239.736170	148.405000	717.841797	29.837925
12239.736170	148.405000	716.634766	-3.517244
12239.736170	148.405000	715.427734	-62.987152
12239.736170	148.405000	714.219727	-80.264847
12239.736170	148.405000	713.011719	14.907063
12239.736170	148.405000	711.803711	3.618375
12239.736170	148.405000	710.594727	176.991928
12239.736170	148.405000	709.385742	21.155270
12239.736170	148.405000	708.176758	45.951118
12239.736170	148.405000	706.967773	96.801796
12239.736170	148.405000	705.758789	51.350323
12239.736170	148.405000	704.548828	-58.260487
12239.736170	148.405000	703.338867	68.722931
12239.736170	148.405000	702.127930	65.357918
12239.736170	148.405000	700.917969	41.943222
12239.736170	148.405000	699.707031	60.597961
12239.736170	148.405000	698.496094	27.152395
12239.736170	148.405000	697.285156	-18.308064
12239.736170	148.405000	696.073242	-95.798386
12239.736170	148.405000	694.861328	-39.147949
12239.736170	148.405000	693.649414	73.504059
12239.736170	148.405000	692.436523	158.082077
12239.736170	148.405000	691.224609	174.592560
12239.736170	148.405000	690.011719	45.073872
12239.736170	148.405000	688.798828	227.549744
12239.736170	148.405000	687.584961	311.970459
12239.736170	148.405000	686.372070	206.450455
12239.736170	148.405000	685.158203	98.962624
12239.736170	148.405000	683.943359	7.489792
12239.736170	148.405000	682.729492	91.832008
12239.736170	148.405000	681.514648	30.329777
12239.736170	148.405000	680.299805	194.474167
12239.736170	148.405000	679.084961	108.993187
12239.736170	148.405000	677.869141	-8.400748
12239.736170	148.405000	676.653320	87.759560
12239.736170	148.405000	675.437500	16.278763
12239.736170	148.405000	674.221680	34.573837
12239.736170	148.405000	673.004883	88.743401
12239.736170	148.405000	671.789063	15.271786
12239.736170	148.405000	670.571289	79.361115
12239.736170	148.405000	669.354492	73.655899
12239.736170	148.405000	668.136719	71.923668
12239.736170	148.405000	666.919922	108.028732
12239.736170	148.405000	665.701172	36.551514
12239.736170	148.405000	664.483398	4.916442
12239.736170	148.405000	663.264648	38.978863
12239.736170	148.405000	662.045898	86.946342
12239.736170	148.405000	660.827148	57.268101
12239.736170	148.405000	659.608398	21.618937
12239.736170	148.405000	658.388672	-27.953905
12239.736170	148.405000	657.168945	83.571159
12239.736170	148.405000	655.949219	47.896282
12239.736170	148.405000	654.728516	44.028648
12239.736170	148.405000	653.507813	143.499634
12239.736170	148.405000	652.287109	133.623718
12239.736170	148.405000	651.066406	64.137726
12239.736170	148.405000	649.844727	161.511688
12239.736170	148.405000	648.623047	70.175980
12239.736170	148.405000	647.401367	42.398193
12239.736170	148.405000	646.179688	-21.112177
12239.736170	148.405000	644.957031	-19.119495
12239.736170	148.405000	643.734375	-54.840321
12239.736170	148.405000	642.511719	-54.853233
12239.736170	148.405000	641.289063	-120.329582
12239.736170	148.405000	640.065430	-5.348721
12239.736170	148.405000	638.841797	155.166321
12239.736170	148.405000	637.618164	172.890854
12239.736170	148.405000	636.393555	224.281174
12239.736170	148.405000	635.168945	123.081764
12239.736170	148.405000	633.944336	249.703308
12239.736170	148.405000	632.719727	233.670258
12239.736170	148.405000	631.494141	241.388596
12239.736170	148.405000	630.269531	264.927429
12239.736170	148.405000	629.042969	310.211487
12239.736170	148.405000	627.817383	343.590576
12239.736170	148.405000	626.590820	493.660675
12239.736170	148.405000	625.365234	426.088654
12239.736170	148.405000	624.137695	368.417328
12239.736170	148.405000	622.911133	372.045929
12239.736170	148.405000	621.683594	328.220276
12239.736170	148.405000	620.456055	134.209442
12239.736170	148.405000	619.228516	98.329391
12239.736170	148.405000	618.000977	88.131500
12239.736170	148.405000	616.772461	79.898102
12239.736170	148.405000	615.543945	34.140007
12239.736170	148.405000	614.314453	-1.742311
12239.736170	148.405000	613.085938	-21.831272
12239.736170	148.405000	611.856445	19.245287
12239.736170	148.405000	610.626953	-48.214188
12239.736170	148.405000	609.397461	126.949593
12239.736170	148.405000	608.166992	31.862183
12239.736170	148.405000	606.936523	-53.339066
12239.736170	148.405000	605.706055	68.455345
12239.736170	148.405000	604.474609	71.940765
12239.736170	148.405000	603.244141	0.541300
12239.736170	148.405000	602.012695	74.932205
12239.736170	148.405000	600.780273	19.292788
12239.736170	148.405000	599.548828	-105.250648
12239.736170	148.405000	598.316406	26.170469
12239.736170	148.405000	597.083984	-74.726326
12239.736170	148.405000	595.851563	-43.748516
12239.736170	148.405000	594.618164	-8.860933
12239.736170	148.405000	593.384766	-86.116531
12239.736170	148.405000	592.151367	68.703102
12239.736170	148.405000	590.917969	42.561985
12239.736170	148.405000	589.683594	20.351707
12239.736170	148.405000	588.449219	21.724436
12239.736170	148.405000	587.214844	48.630043
12239.736170	148.405000	585.979492	-117.004257
12239.736170	148.405000	584.745117	-80.280464
12239.736170	148.405000	583.509766	-8.237864
12239.736170	148.405000	582.273438	-150.225906
12239.736170	148.405000	581.038086	-117.473511
12239.736170	148.405000	579.801758	-157.353470
12239.736170	148.405000	578.565430	-73.622261
12239.736170	148.405000	577.329102	33.602646
12239.736170	148.405000	576.091797	21.143929
12239.736170	148.405000	574.854492	69.463913
12239.736170	148.405000	573.617188	-3.781938
12239.736170	148.405000	572.378906	-57.407673
12239.736170	148.405000	571.141602	-60.071766
12239.736170	148.405000	569.903320	58.715187
12239.736170	148.405000	568.664063	46.217037
12239.736170	148.405000	567.425781	29.801208
12239.736170	148.405000	566.186523	-4.235782
12239.736170	148.405000	564.947266	118.322350
12239.736170	148.405000	563.708008	-62.502720
12239.736170	148.405000	562.467773	-57.389812
12239.736170	148.405000	561.227539	8.352967
12239.736170	148.405000	559.987305	-29.589136
12239.736170	148.405000	558.747070	0.912978
12239.736170	148.405000	557.505859	-27.250189
12239.736170	148.405000	556.264648	-14.364758
12239.736170	148.405000	555.023438	-28.846067
12239.736170	148.405000	553.781250	52.398033
12239.736170	148.405000	552.539063	205.869034
12239.736170	148.405000	551.296875	224.529999
12239.736170	148.405000	550.054688	288.081818
12239.736170	148.405000	548.811523	261.811920
12239.736170	148.405000	547.569336	161.394012
12239.736170	148.405000	546.325195	105.886360
12239.736170	148.405000	545.082031	38.696392
12239.736170	148.405000	543.837891	86.593620
12239.736170	148.405000	542.593750	105.219673
12239.736170	148.405000	541.349609	2.970725
12239.736170	148.405000	540.105469	-11.532945
12239.736170	148.405000	538.860352	-53.315449
12239.736170	148.405000	537.615234	107.525085
12239.736170	148.405000	536.369141	-12.181457
12239.736170	148.405000	535.124023	-88.997696
12239.736170	148.405000	533.877930	87.312622
12239.736170	148.405000	532.631836	101.986816
12239.736170	148.405000	531.384766	-31.250248
12239.736170	148.405000	530.138672	-16.561289
12239.736170	148.405000	528.891602	-77.746712
12239.736170	148.405000	527.643555	-43.613029
12239.736170	148.405000	526.396484	4.116461
12239.736170	148.405000	525.148438	47.934311
12239.736170	148.405000	523.900391	74.239410
12239.736170	148.405000	522.652344	32.521610
12239.736170	148.405000	521.403320	99.611671
12239.736170	148.405000	520.154297	44.305927
12239.736170	148.405000	518.905273	62.814411
12239.736170	148.405000	517.656250	40.542938
12239.736170	148.405000	516.406250	111.449196
12239.736170	148.405000	515.156250	-21.443958
12239.736170	148.405000	513.906250	-59.210228
12239.736170	148.405000	512.655273	-1.911485
12239.736170	148.405000	511.404297	-68.760262
12239.736170	148.405000	510.153320	-75.473358
12239.736170	148.405000	508.902344	-60.860367
12239.736170	148.405000	507.650391	-143.163391
12239.736170	148.405000	506.398438	26.472366
12239.736170	148.405000	505.146484	33.299297
12239.736170	148.405000	503.893555	-89.651314
12239.736170	148.405000	502.641602	6.273033
12239.736170	148.405000	501.388672	-141.790817
12239.736170	148.405000	500.134766	-65.258995
12239.736170	148.405000	498.881836	-81.651924
12239.736170	148.405000	497.627930	31.591042
12239.736170	148.405000	496.374023	-38.984512
12239.736170	148.405000	495.119141	25.845459
12239.736170	148.405000	493.865234	79.044365
12239.736170	148.405000	492.610352	72.288483
12239.736170	148.405000	491.355469	146.707306
12239.736170	148.405000	490.099609	103.218155
12239.736170	148.405000	488.843750	19.173635
12239.736170	148.405000	487.587891	76.159851
12239.736170	148.405000	486.332031	-69.645332
12239.736170	148.405000	485.075195	-109.207504
12239.736170	148.405000	483.818359	7.590499
12239.736170	148.405000	482.561523	29.771688
12239.736170	148.405000	481.304688	-112.061844
12239.736170	148.405000	480.046875	-55.156590
12239.736170	148.405000	478.789063	-32.997520
12239.736170	148.405000	477.531250	12.282508
12239.736170	148.405000	476.272461	51.749889
12239.736170	148.405000	475.013672	-62.994492
12239.736170	148.405000	473.754883	-112.183685
12239.736170	148.405000	472.496094	-3.389636
12239.736170	148.405000	471.236328	24.449987
12239.736170	148.405000	469.976563	77.300217
12239.736170	148.405000	468.716797	160.918594
12239.736170	148.405000	467.456055	-5.741565
12239.736170	148.405000	466.196289	-29.935535
12239.736170	148.405000	464.935547	24.748911
12239.736170	148.405000	463.673828	35.149696
12239.736170	148.405000	462.413086	-44.858627
12239.736170	148.405000	461.151367	190.480225
12239.736170	148.405000	459.889648	-24.128239
12239.736170	148.405000	458.626953	43.856827
12239.736170	148.405000	457.364258	73.361084
12239.736170	148.405000	456.101563	116.278389
12239.736170	148.405000	454.838867	174.518631
12239.736170	148.405000	453.575195	36.841167
12239.736170	148.405000	452.312500	166.056931
12239.736170	148.405000	451.047852	212.650406
12239.736170	148.405000	449.784180	165.164597
12239.736170	148.405000	448.519531	108.074188
12239.736170	148.405000	447.254883	50.976482
12239.736170	148.405000	445.990234	153.044678
12239.736170	148.405000	444.725586	19.198540
12239.736170	148.405000	443.459961	124.988747
12239.736170	148.405000	442.194336	142.534912
12239.736170	148.405000	440.927734	138.952988
12239.736170	148.405000	439.662109	66.366837
12239.736170	148.405000	438.395508	122.089600
12239.736170	148.405000	437.127930	93.485374
12239.736170	148.405000	435.861328	141.425095
12239.736170	148.405000	434.593750	112.728821
12239.736170	148.405000	433.326172	87.819626
12239.736170	148.405000	432.058594	13.121480
12239.736170	148.405000	430.790039	118.198700
12239.736170	148.405000	429.521484	156.236450
12239.736170	148.405000	428.252930	79.476372
12239.736170	148.405000	426.984375	115.465149
12239.736170	148.405000	425.714844	185.768570
12239.736170	148.405000	424.445313	15.218619
12239.736170	148.405000	423.174805	96.826591
12239.736170	148.405000	421.905273	-20.304485
12239.736170	148.405000	420.634766	177.596649
12239.736170	148.405000	419.364258	272.238831
12239.736170	148.405000	418.092773	152.981384
12239.736170	148.405000	416.822266	169.173050
12239.736170	148.405000	415.550781	240.588623
12239.736170	148.405000	414.278320	161.186783
12239.736170	148.405000	413.006836	146.560104
12239.736170	148.405000	411.734375	139.457718
12239.736170	148.405000	410.461914	50.285007
12239.736170	148.405000	409.188477	174.479645
12239.736170	148.405000	407.916016	39.380482
12239.736170	148.405000	406.642578	134.712631
12239.736170	148.405000	405.368164	83.226471
12239.736170	148.405000	404.094727	187.773270
12239.736170	148.405000	402.820313	137.937576
12239.736170	148.405000	401.545898	137.469833
12239.736170	148.405000	400.270508	30.294451
12239.736170	148.405000	398.996094	139.900284
12239.736170	148.405000	397.720703	102.843666
12239.736170	148.405000	396.444336	-19.933559
12239.736170	148.405000	395.168945	104.340454
12239.736170	148.405000	393.892578	-5.411874
12239.736170	148.405000	392.616211	21.535339
12239.736170	148.405000	391.339844	-27.709265
12239.736170	148.405000	390.062500	90.037415
12239.736170	148.405000	388.785156	169.556396
12239.736170	148.405000	387.507813	106.435875
12239.736170	148.405000	386.229492	-23.308941
12239.736170	148.405000	384.951172	114.394928
12239.736170	148.405000	383.672852	-30.906771
12239.736170	148.405000	382.394531	13.336902
12239.736170	148.405000	381.115234	55.425987
12239.736170	148.405000	379.835938	87.775276
12239.736170	148.405000	378.556641	26.966467
12239.736170	148.405000	377.277344	56.910202
12239.736170	148.405000	375.997070	39.195610
12239.736170	148.405000	374.716797	17.428921
12239.736170	148.405000	373.435547	109.037827
12239.736170	148.405000	372.155273	-11.776962
12239.736170	148.405000	370.874023	-64.681107
12239.736170	148.405000	369.591797	27.884169
12239.736170	148.405000	368.310547	38.723831
12239.736170	148.405000	367.028320	11.386105
12239.736170	148.405000	365.746094	-71.131516
12239.736170	148.405000	364.463867	-46.149273
12239.736170	148.405000	363.180664	-8.301073
12239.736170	148.405000	361.897461	55.636288
12239.736170	148.405000	360.614258	-11.240112
12239.736170	148.405000	359.330078	114.267349
12239.736170	148.405000	358.045898	-13.831862
12239.736170	148.405000	356.761719	8.829664
12239.736170	148.405000	355.477539	10.294406
12239.736170	148.405000	354.192383	-28.325663
12239.736170	148.405000	352.907227	-46.602367
12239.736170	148.405000	351.622070	-37.011520
12239.736170	148.405000	350.336914	115.510368
12239.736170	148.405000	349.050781	73.184242
12239.736170	148.405000	347.764648	-71.451523
12239.736170	148.405000	346.477539	-14.781744
12239.736170	148.405000	345.191406	67.756691
12239.736170	148.405000	343.904297	-4.827202
12239.736170	148.405000	342.616211	172.681122
12239.736170	148.405000	341.329102	129.156845
12239.736170	148.405000	340.041016	88.836220
12239.736170	148.405000	338.752930	-115.876923
12239.736170	148.405000	337.463867	-27.416681
12239.736170	148.405000	336.175781	114.995293
12239.736170	148.405000	334.886719	21.469463
12239.736170	148.405000	333.596680	-57.625164
12239.736170	148.405000	332.307617	-118.517128
12239.736170	148.405000	331.017578	-23.985039
12239.736170	148.405000	329.727539	-5.395517
12239.736170	148.405000	328.436523	-10.100924
12239.736170	148.405000	327.146484	-64.376816
12239.736170	148.405000	325.855469	-4.776324
12239.736170	148.405000	324.563477	-137.600952
12239.736170	148.405000	323.272461	-88.947685
12239.736170	148.405000	321.980469	-37.382904
12239.736170	148.405000	320.688477	73.413681
12239.736170	148.405000	319.395508	85.697418
12239.736170	148.405000	318.103516	-43.599419
12239.736170	148.405000	316.810547	40.131062
12239.736170	148.405000	315.516602	17.858442
12239.736170	148.405000	314.223633	-55.934361
12239.736170	148.405000	312.929688	36.198120
12239.736170	148.405000	311.635742	-120.106636
12239.736170	148.405000	310.340820	-56.222420
12239.736170	148.405000	309.045898	-27.104458
12239.736170	148.405000	307.750977	124.598236
12239.736170	148.405000	306.456055	166.550690
12239.736170	148.405000	305.160156	199.879639
12239.736170	148.405000	303.865234	114.181107
12239.736170	148.405000	302.568359	229.452927
12239.736170	148.405000	301.272461	315.480286
12239.736170	148.405000	299.975586	336.642914
12239.736170	148.405000	298.678711	334.138794
