#X		#Y		#Wave		#Intensity
11890.746277	1410.570000	1999.980469	-45.825317
11890.746277	1410.570000	1999.016602	177.429016
11890.746277	1410.570000	1998.052734	-79.143768
11890.746277	1410.570000	1997.087891	-48.351009
11890.746277	1410.570000	1996.123047	14.451206
11890.746277	1410.570000	1995.158203	-86.449646
11890.746277	1410.570000	1994.193359	27.986235
11890.746277	1410.570000	1993.228516	-97.993462
11890.746277	1410.570000	1992.262695	58.152588
11890.746277	1410.570000	1991.297852	184.373276
11890.746277	1410.570000	1990.332031	57.949612
11890.746277	1410.570000	1989.366211	-33.936859
11890.746277	1410.570000	1988.399414	-9.657940
11890.746277	1410.570000	1987.433594	157.933868
11890.746277	1410.570000	1986.466797	176.941177
11890.746277	1410.570000	1985.500977	116.684204
11890.746277	1410.570000	1984.534180	81.043159
11890.746277	1410.570000	1983.567383	32.932331
11890.746277	1410.570000	1982.599609	9.431668
11890.746277	1410.570000	1981.632813	97.009010
11890.746277	1410.570000	1980.665039	75.747787
11890.746277	1410.570000	1979.697266	42.038006
11890.746277	1410.570000	1978.729492	247.768967
11890.746277	1410.570000	1977.761719	36.071587
11890.746277	1410.570000	1976.792969	-7.786394
11890.746277	1410.570000	1975.825195	71.682159
11890.746277	1410.570000	1974.856445	-53.776997
11890.746277	1410.570000	1973.887695	20.561691
11890.746277	1410.570000	1972.918945	-119.808006
11890.746277	1410.570000	1971.949219	129.454071
11890.746277	1410.570000	1970.980469	-55.419861
11890.746277	1410.570000	1970.010742	21.021746
11890.746277	1410.570000	1969.041016	131.873611
11890.746277	1410.570000	1968.071289	-43.247345
11890.746277	1410.570000	1967.101563	156.148254
11890.746277	1410.570000	1966.130859	217.455887
11890.746277	1410.570000	1965.161133	-16.874140
11890.746277	1410.570000	1964.190430	147.758911
11890.746277	1410.570000	1963.219727	-12.714834
11890.746277	1410.570000	1962.249023	159.141403
11890.746277	1410.570000	1961.277344	74.925598
11890.746277	1410.570000	1960.306641	-31.447399
11890.746277	1410.570000	1959.334961	90.980225
11890.746277	1410.570000	1958.363281	124.770813
11890.746277	1410.570000	1957.391602	190.484344
11890.746277	1410.570000	1956.419922	-26.630766
11890.746277	1410.570000	1955.447266	-44.567001
11890.746277	1410.570000	1954.474609	202.933701
11890.746277	1410.570000	1953.501953	204.564346
11890.746277	1410.570000	1952.529297	31.719110
11890.746277	1410.570000	1951.556641	28.419504
11890.746277	1410.570000	1950.583984	113.520493
11890.746277	1410.570000	1949.610352	73.328430
11890.746277	1410.570000	1948.636719	-25.791895
11890.746277	1410.570000	1947.663086	132.859039
11890.746277	1410.570000	1946.689453	205.536362
11890.746277	1410.570000	1945.715820	94.134781
11890.746277	1410.570000	1944.741211	22.015512
11890.746277	1410.570000	1943.767578	40.674767
11890.746277	1410.570000	1942.792969	-21.615015
11890.746277	1410.570000	1941.818359	-56.916080
11890.746277	1410.570000	1940.842773	118.623268
11890.746277	1410.570000	1939.868164	53.887276
11890.746277	1410.570000	1938.892578	72.492393
11890.746277	1410.570000	1937.916992	-19.169210
11890.746277	1410.570000	1936.941406	112.129257
11890.746277	1410.570000	1935.965820	135.611618
11890.746277	1410.570000	1934.990234	-17.228331
11890.746277	1410.570000	1934.013672	74.826996
11890.746277	1410.570000	1933.037109	64.040154
11890.746277	1410.570000	1932.060547	-76.453110
11890.746277	1410.570000	1931.083984	164.845230
11890.746277	1410.570000	1930.107422	114.921425
11890.746277	1410.570000	1929.129883	47.899143
11890.746277	1410.570000	1928.153320	139.879318
11890.746277	1410.570000	1927.175781	-37.136768
11890.746277	1410.570000	1926.198242	64.621902
11890.746277	1410.570000	1925.219727	-90.296791
11890.746277	1410.570000	1924.242188	106.765450
11890.746277	1410.570000	1923.263672	-38.305367
11890.746277	1410.570000	1922.285156	-4.977193
11890.746277	1410.570000	1921.306641	21.024952
11890.746277	1410.570000	1920.328125	29.937935
11890.746277	1410.570000	1919.349609	-51.475052
11890.746277	1410.570000	1918.370117	20.943600
11890.746277	1410.570000	1917.391602	64.065613
11890.746277	1410.570000	1916.412109	-200.275757
11890.746277	1410.570000	1915.431641	57.594723
11890.746277	1410.570000	1914.452148	-35.865486
11890.746277	1410.570000	1913.472656	-2.455928
11890.746277	1410.570000	1912.492188	9.011697
11890.746277	1410.570000	1911.511719	103.380920
11890.746277	1410.570000	1910.531250	-119.134148
11890.746277	1410.570000	1909.550781	41.058475
11890.746277	1410.570000	1908.569336	-15.642974
11890.746277	1410.570000	1907.588867	-138.076904
11890.746277	1410.570000	1906.607422	56.181351
11890.746277	1410.570000	1905.625977	58.008739
11890.746277	1410.570000	1904.644531	-52.142509
11890.746277	1410.570000	1903.662109	66.584297
11890.746277	1410.570000	1902.680664	12.488142
11890.746277	1410.570000	1901.698242	-63.471088
11890.746277	1410.570000	1900.715820	96.607285
11890.746277	1410.570000	1899.733398	-32.814384
11890.746277	1410.570000	1898.750000	110.210930
11890.746277	1410.570000	1897.767578	-60.462925
11890.746277	1410.570000	1896.784180	82.551773
11890.746277	1410.570000	1895.800781	-34.544224
11890.746277	1410.570000	1894.817383	-27.639219
11890.746277	1410.570000	1893.833984	-32.867161
11890.746277	1410.570000	1892.850586	51.807915
11890.746277	1410.570000	1891.866211	17.456079
11890.746277	1410.570000	1890.881836	-63.002857
11890.746277	1410.570000	1889.897461	-12.308372
11890.746277	1410.570000	1888.913086	23.820551
11890.746277	1410.570000	1887.927734	-177.892700
11890.746277	1410.570000	1886.943359	88.807480
11890.746277	1410.570000	1885.958008	-178.312576
11890.746277	1410.570000	1884.972656	-40.238007
11890.746277	1410.570000	1883.987305	12.920506
11890.746277	1410.570000	1883.001953	150.939499
11890.746277	1410.570000	1882.015625	138.617096
11890.746277	1410.570000	1881.029297	31.786373
11890.746277	1410.570000	1880.042969	14.674494
11890.746277	1410.570000	1879.056641	-7.262363
11890.746277	1410.570000	1878.070313	-12.219891
11890.746277	1410.570000	1877.083984	-43.803463
11890.746277	1410.570000	1876.096680	-157.695404
11890.746277	1410.570000	1875.109375	108.577324
11890.746277	1410.570000	1874.122070	9.249169
11890.746277	1410.570000	1873.134766	35.818718
11890.746277	1410.570000	1872.146484	40.611473
11890.746277	1410.570000	1871.159180	72.026390
11890.746277	1410.570000	1870.170898	101.021049
11890.746277	1410.570000	1869.182617	-39.270504
11890.746277	1410.570000	1868.194336	79.216202
11890.746277	1410.570000	1867.205078	30.862839
11890.746277	1410.570000	1866.216797	-15.045076
11890.746277	1410.570000	1865.227539	55.065350
11890.746277	1410.570000	1864.238281	-22.224169
11890.746277	1410.570000	1863.249023	52.707932
11890.746277	1410.570000	1862.259766	59.993462
11890.746277	1410.570000	1861.269531	31.060986
11890.746277	1410.570000	1860.279297	-101.668495
11890.746277	1410.570000	1859.290039	2.212338
11890.746277	1410.570000	1858.298828	-29.091351
11890.746277	1410.570000	1857.308594	-55.551903
11890.746277	1410.570000	1856.318359	-33.749565
11890.746277	1410.570000	1855.327148	207.539154
11890.746277	1410.570000	1854.335938	-199.967941
11890.746277	1410.570000	1853.344727	-14.188842
11890.746277	1410.570000	1852.353516	178.753815
11890.746277	1410.570000	1851.362305	-18.826559
11890.746277	1410.570000	1850.370117	29.461008
11890.746277	1410.570000	1849.377930	60.865074
11890.746277	1410.570000	1848.385742	75.394852
11890.746277	1410.570000	1847.393555	111.593239
11890.746277	1410.570000	1846.401367	24.972382
11890.746277	1410.570000	1845.408203	174.313370
11890.746277	1410.570000	1844.415039	10.682124
11890.746277	1410.570000	1843.421875	70.920387
11890.746277	1410.570000	1842.428711	54.136002
11890.746277	1410.570000	1841.435547	162.448517
11890.746277	1410.570000	1840.441406	27.786970
11890.746277	1410.570000	1839.448242	20.624638
11890.746277	1410.570000	1838.454102	11.053032
11890.746277	1410.570000	1837.459961	1.477957
11890.746277	1410.570000	1836.464844	-75.396683
11890.746277	1410.570000	1835.470703	-12.877816
11890.746277	1410.570000	1834.475586	-108.957481
11890.746277	1410.570000	1833.480469	-10.443710
11890.746277	1410.570000	1832.485352	88.023308
11890.746277	1410.570000	1831.490234	44.776028
11890.746277	1410.570000	1830.495117	35.143993
11890.746277	1410.570000	1829.499023	186.319351
11890.746277	1410.570000	1828.502930	66.249969
11890.746277	1410.570000	1827.506836	44.586693
11890.746277	1410.570000	1826.510742	25.317270
11890.746277	1410.570000	1825.513672	135.555679
11890.746277	1410.570000	1824.517578	-181.099487
11890.746277	1410.570000	1823.520508	-140.419769
11890.746277	1410.570000	1822.523438	-15.872717
11890.746277	1410.570000	1821.526367	-30.392431
11890.746277	1410.570000	1820.529297	14.982005
11890.746277	1410.570000	1819.531250	-16.341055
11890.746277	1410.570000	1818.533203	-57.250973
11890.746277	1410.570000	1817.535156	119.765427
11890.746277	1410.570000	1816.537109	18.951311
11890.746277	1410.570000	1815.539063	83.335983
11890.746277	1410.570000	1814.540039	152.463470
11890.746277	1410.570000	1813.541992	123.433228
11890.746277	1410.570000	1812.542969	240.338684
11890.746277	1410.570000	1811.543945	161.027420
11890.746277	1410.570000	1810.543945	237.180649
11890.746277	1410.570000	1809.544922	55.036152
11890.746277	1410.570000	1808.544922	85.713600
11890.746277	1410.570000	1807.544922	142.650055
11890.746277	1410.570000	1806.544922	130.237152
11890.746277	1410.570000	1805.544922	55.681511
11890.746277	1410.570000	1804.544922	107.744423
11890.746277	1410.570000	1803.543945	176.480988
11890.746277	1410.570000	1802.542969	92.333282
11890.746277	1410.570000	1801.541992	36.843388
11890.746277	1410.570000	1800.541016	33.866371
11890.746277	1410.570000	1799.539063	104.849846
11890.746277	1410.570000	1798.538086	25.449646
11890.746277	1410.570000	1797.536133	132.141937
11890.746277	1410.570000	1796.534180	-6.921546
11890.746277	1410.570000	1795.532227	75.833534
11890.746277	1410.570000	1794.529297	-29.841110
11890.746277	1410.570000	1793.527344	150.573929
11890.746277	1410.570000	1792.524414	9.115644
11890.746277	1410.570000	1791.521484	-82.273079
11890.746277	1410.570000	1790.518555	136.083221
11890.746277	1410.570000	1789.514648	25.587048
11890.746277	1410.570000	1788.511719	34.190716
11890.746277	1410.570000	1787.507813	11.802557
11890.746277	1410.570000	1786.503906	39.389572
11890.746277	1410.570000	1785.500000	-75.886421
11890.746277	1410.570000	1784.496094	151.556808
11890.746277	1410.570000	1783.491211	100.484444
11890.746277	1410.570000	1782.486328	139.801590
11890.746277	1410.570000	1781.481445	-1.697565
11890.746277	1410.570000	1780.476563	68.475494
11890.746277	1410.570000	1779.471680	81.525597
11890.746277	1410.570000	1778.465820	163.474625
11890.746277	1410.570000	1777.460938	57.598888
11890.746277	1410.570000	1776.455078	-3.122577
11890.746277	1410.570000	1775.449219	40.682915
11890.746277	1410.570000	1774.442383	260.214905
11890.746277	1410.570000	1773.436523	161.389572
11890.746277	1410.570000	1772.429688	-15.793688
11890.746277	1410.570000	1771.422852	-57.623203
11890.746277	1410.570000	1770.416016	83.295395
11890.746277	1410.570000	1769.409180	266.842285
11890.746277	1410.570000	1768.402344	13.709256
11890.746277	1410.570000	1767.394531	12.092200
11890.746277	1410.570000	1766.386719	105.311920
11890.746277	1410.570000	1765.378906	82.265266
11890.746277	1410.570000	1764.371094	-59.352592
11890.746277	1410.570000	1763.362305	-51.617294
11890.746277	1410.570000	1762.354492	72.210938
11890.746277	1410.570000	1761.345703	-43.369678
11890.746277	1410.570000	1760.336914	61.382313
11890.746277	1410.570000	1759.328125	118.686058
11890.746277	1410.570000	1758.318359	168.823700
11890.746277	1410.570000	1757.308594	247.318527
11890.746277	1410.570000	1756.299805	200.284348
11890.746277	1410.570000	1755.290039	77.489540
11890.746277	1410.570000	1754.279297	63.555027
11890.746277	1410.570000	1753.269531	115.838463
11890.746277	1410.570000	1752.258789	0.112927
11890.746277	1410.570000	1751.249023	177.661499
11890.746277	1410.570000	1750.238281	-79.980156
11890.746277	1410.570000	1749.226563	-58.596828
11890.746277	1410.570000	1748.215820	-86.892502
11890.746277	1410.570000	1747.204102	-39.594398
11890.746277	1410.570000	1746.193359	-18.338491
11890.746277	1410.570000	1745.181641	-37.290596
11890.746277	1410.570000	1744.168945	68.903709
11890.746277	1410.570000	1743.157227	87.650673
11890.746277	1410.570000	1742.144531	-70.722542
11890.746277	1410.570000	1741.132813	-49.669392
11890.746277	1410.570000	1740.120117	32.697712
11890.746277	1410.570000	1739.106445	-43.102219
11890.746277	1410.570000	1738.093750	119.370155
11890.746277	1410.570000	1737.080078	-114.525581
11890.746277	1410.570000	1736.067383	-77.163422
11890.746277	1410.570000	1735.053711	66.245789
11890.746277	1410.570000	1734.040039	-12.029058
11890.746277	1410.570000	1733.025391	-102.098564
11890.746277	1410.570000	1732.011719	67.045410
11890.746277	1410.570000	1730.997070	-70.198349
11890.746277	1410.570000	1729.982422	82.309807
11890.746277	1410.570000	1728.967773	-47.891392
11890.746277	1410.570000	1727.952148	-32.092861
11890.746277	1410.570000	1726.937500	-32.811478
11890.746277	1410.570000	1725.921875	-97.121414
11890.746277	1410.570000	1724.906250	-133.202637
11890.746277	1410.570000	1723.890625	-145.776642
11890.746277	1410.570000	1722.875000	149.786148
11890.746277	1410.570000	1721.858398	-74.589027
11890.746277	1410.570000	1720.841797	35.002998
11890.746277	1410.570000	1719.825195	78.687920
11890.746277	1410.570000	1718.808594	-25.766968
11890.746277	1410.570000	1717.791992	43.696178
11890.746277	1410.570000	1716.774414	-27.889124
11890.746277	1410.570000	1715.756836	13.284331
11890.746277	1410.570000	1714.739258	-147.590347
11890.746277	1410.570000	1713.721680	41.470482
11890.746277	1410.570000	1712.704102	-131.154022
11890.746277	1410.570000	1711.685547	60.108120
11890.746277	1410.570000	1710.667969	86.976974
11890.746277	1410.570000	1709.649414	85.639687
11890.746277	1410.570000	1708.630859	32.655666
11890.746277	1410.570000	1707.611328	-109.479851
11890.746277	1410.570000	1706.592773	41.564774
11890.746277	1410.570000	1705.573242	150.309006
11890.746277	1410.570000	1704.553711	83.156639
11890.746277	1410.570000	1703.534180	-61.349056
11890.746277	1410.570000	1702.513672	40.225025
11890.746277	1410.570000	1701.494141	69.101952
11890.746277	1410.570000	1700.473633	158.839035
11890.746277	1410.570000	1699.453125	65.829956
11890.746277	1410.570000	1698.432617	-52.931282
11890.746277	1410.570000	1697.412109	29.665508
11890.746277	1410.570000	1696.390625	16.227150
11890.746277	1410.570000	1695.369141	-4.255364
11890.746277	1410.570000	1694.347656	80.534233
11890.746277	1410.570000	1693.326172	10.863885
11890.746277	1410.570000	1692.304688	104.918518
11890.746277	1410.570000	1691.282227	72.626640
11890.746277	1410.570000	1690.260742	45.001469
11890.746277	1410.570000	1689.238281	5.667695
11890.746277	1410.570000	1688.214844	83.174454
11890.746277	1410.570000	1687.192383	120.907211
11890.746277	1410.570000	1686.168945	-75.028046
11890.746277	1410.570000	1685.146484	-18.643700
11890.746277	1410.570000	1684.123047	236.192535
11890.746277	1410.570000	1683.099609	75.297668
11890.746277	1410.570000	1682.075195	19.485804
11890.746277	1410.570000	1681.051758	-43.325600
11890.746277	1410.570000	1680.027344	-38.467770
11890.746277	1410.570000	1679.002930	216.004822
11890.746277	1410.570000	1677.978516	69.144379
11890.746277	1410.570000	1676.953125	106.556396
11890.746277	1410.570000	1675.928711	127.615593
11890.746277	1410.570000	1674.903320	43.732269
11890.746277	1410.570000	1673.877930	125.350609
11890.746277	1410.570000	1672.852539	155.648804
11890.746277	1410.570000	1671.826172	27.474463
11890.746277	1410.570000	1670.800781	88.024292
11890.746277	1410.570000	1669.774414	-72.732002
11890.746277	1410.570000	1668.748047	120.500946
11890.746277	1410.570000	1667.721680	113.421349
11890.746277	1410.570000	1666.694336	194.774246
11890.746277	1410.570000	1665.667969	-61.366066
11890.746277	1410.570000	1664.640625	19.955343
11890.746277	1410.570000	1663.613281	5.849355
11890.746277	1410.570000	1662.585938	133.612839
11890.746277	1410.570000	1661.557617	161.312057
11890.746277	1410.570000	1660.530273	42.517063
11890.746277	1410.570000	1659.501953	132.957108
11890.746277	1410.570000	1658.473633	167.570267
11890.746277	1410.570000	1657.444336	132.441864
11890.746277	1410.570000	1656.416016	266.913483
11890.746277	1410.570000	1655.386719	129.553192
11890.746277	1410.570000	1654.358398	205.891602
11890.746277	1410.570000	1653.328125	307.718689
11890.746277	1410.570000	1652.298828	370.037476
11890.746277	1410.570000	1651.269531	374.297485
11890.746277	1410.570000	1650.239258	288.041016
11890.746277	1410.570000	1649.208984	271.410339
11890.746277	1410.570000	1648.178711	245.499252
11890.746277	1410.570000	1647.148438	293.802399
11890.746277	1410.570000	1646.117188	274.830811
11890.746277	1410.570000	1645.086914	348.595673
11890.746277	1410.570000	1644.055664	345.831451
11890.746277	1410.570000	1643.024414	227.194138
11890.746277	1410.570000	1641.992188	344.916443
11890.746277	1410.570000	1640.960938	353.719543
11890.746277	1410.570000	1639.928711	306.924805
11890.746277	1410.570000	1638.896484	410.655518
11890.746277	1410.570000	1637.864258	419.422485
11890.746277	1410.570000	1636.832031	368.001587
11890.746277	1410.570000	1635.798828	464.702179
11890.746277	1410.570000	1634.766602	399.405182
11890.746277	1410.570000	1633.733398	324.872833
11890.746277	1410.570000	1632.699219	444.643707
11890.746277	1410.570000	1631.666016	467.251556
11890.746277	1410.570000	1630.632813	503.722076
11890.746277	1410.570000	1629.598633	454.647308
11890.746277	1410.570000	1628.564453	541.945496
11890.746277	1410.570000	1627.530273	511.369659
11890.746277	1410.570000	1626.495117	496.973785
11890.746277	1410.570000	1625.460938	434.086945
11890.746277	1410.570000	1624.425781	435.881592
11890.746277	1410.570000	1623.390625	573.900513
11890.746277	1410.570000	1622.355469	674.935669
11890.746277	1410.570000	1621.319336	593.603638
11890.746277	1410.570000	1620.284180	632.303772
11890.746277	1410.570000	1619.248047	532.566528
11890.746277	1410.570000	1618.211914	693.518555
11890.746277	1410.570000	1617.174805	607.652344
11890.746277	1410.570000	1616.138672	671.702271
11890.746277	1410.570000	1615.101563	514.426758
11890.746277	1410.570000	1614.065430	603.838867
11890.746277	1410.570000	1613.027344	538.822998
11890.746277	1410.570000	1611.990234	432.377075
11890.746277	1410.570000	1610.953125	551.720337
11890.746277	1410.570000	1609.915039	484.479584
11890.746277	1410.570000	1608.876953	456.419159
11890.746277	1410.570000	1607.838867	488.235870
11890.746277	1410.570000	1606.800781	632.833008
11890.746277	1410.570000	1605.761719	706.043701
11890.746277	1410.570000	1604.723633	533.063232
11890.746277	1410.570000	1603.684570	534.981934
11890.746277	1410.570000	1602.644531	481.712006
11890.746277	1410.570000	1601.605469	499.764679
11890.746277	1410.570000	1600.566406	589.093079
11890.746277	1410.570000	1599.526367	453.143097
11890.746277	1410.570000	1598.486328	308.069977
11890.746277	1410.570000	1597.446289	436.486053
11890.746277	1410.570000	1596.405273	489.057465
11890.746277	1410.570000	1595.365234	493.400177
11890.746277	1410.570000	1594.324219	426.570160
11890.746277	1410.570000	1593.283203	433.250885
11890.746277	1410.570000	1592.242188	490.446716
11890.746277	1410.570000	1591.200195	639.430847
11890.746277	1410.570000	1590.159180	616.298096
11890.746277	1410.570000	1589.117188	462.429230
11890.746277	1410.570000	1588.075195	556.348450
11890.746277	1410.570000	1587.032227	583.747009
11890.746277	1410.570000	1585.990234	627.210205
11890.746277	1410.570000	1584.947266	556.063416
11890.746277	1410.570000	1583.904297	633.932678
11890.746277	1410.570000	1582.861328	615.559753
11890.746277	1410.570000	1581.818359	723.216614
11890.746277	1410.570000	1580.775391	643.040344
11890.746277	1410.570000	1579.731445	773.594971
11890.746277	1410.570000	1578.687500	643.115295
11890.746277	1410.570000	1577.643555	679.817688
11890.746277	1410.570000	1576.598633	789.763123
11890.746277	1410.570000	1575.554688	750.964661
11890.746277	1410.570000	1574.509766	806.002075
11890.746277	1410.570000	1573.464844	783.277039
11890.746277	1410.570000	1572.419922	691.984314
11890.746277	1410.570000	1571.374023	630.475220
11890.746277	1410.570000	1570.329102	630.744812
11890.746277	1410.570000	1569.283203	505.336029
11890.746277	1410.570000	1568.237305	754.755859
11890.746277	1410.570000	1567.191406	444.380310
11890.746277	1410.570000	1566.144531	549.869751
11890.746277	1410.570000	1565.098633	675.906982
11890.746277	1410.570000	1564.051758	356.686127
11890.746277	1410.570000	1563.004883	553.539246
11890.746277	1410.570000	1561.957031	465.047272
11890.746277	1410.570000	1560.910156	257.968475
11890.746277	1410.570000	1559.862305	505.013214
11890.746277	1410.570000	1558.814453	544.420715
11890.746277	1410.570000	1557.766602	339.827026
11890.746277	1410.570000	1556.718750	292.677429
11890.746277	1410.570000	1555.669922	573.850403
11890.746277	1410.570000	1554.621094	428.732971
11890.746277	1410.570000	1553.573242	534.378784
11890.746277	1410.570000	1552.523438	462.301483
11890.746277	1410.570000	1551.474609	253.620499
11890.746277	1410.570000	1550.424805	286.463470
11890.746277	1410.570000	1549.375000	93.909454
11890.746277	1410.570000	1548.325195	201.972031
11890.746277	1410.570000	1547.275391	300.926910
11890.746277	1410.570000	1546.225586	201.899963
11890.746277	1410.570000	1545.174805	18.766129
11890.746277	1410.570000	1544.124023	35.921215
11890.746277	1410.570000	1543.073242	37.189289
11890.746277	1410.570000	1542.022461	-2.431767
11890.746277	1410.570000	1540.970703	10.288145
11890.746277	1410.570000	1539.919922	152.606155
11890.746277	1410.570000	1538.868164	149.465546
11890.746277	1410.570000	1537.815430	48.665581
11890.746277	1410.570000	1536.763672	191.013428
11890.746277	1410.570000	1535.710938	1.754380
11890.746277	1410.570000	1534.659180	-26.162987
11890.746277	1410.570000	1533.606445	14.078549
11890.746277	1410.570000	1532.552734	-16.020596
11890.746277	1410.570000	1531.500000	-73.292862
11890.746277	1410.570000	1530.446289	-46.551643
11890.746277	1410.570000	1529.393555	23.327469
11890.746277	1410.570000	1528.338867	-24.719936
11890.746277	1410.570000	1527.285156	-140.727539
11890.746277	1410.570000	1526.231445	24.479956
11890.746277	1410.570000	1525.176758	132.997482
11890.746277	1410.570000	1524.122070	23.959719
11890.746277	1410.570000	1523.067383	26.034874
11890.746277	1410.570000	1522.012695	23.624559
11890.746277	1410.570000	1520.957031	37.113400
11890.746277	1410.570000	1519.901367	16.677385
11890.746277	1410.570000	1518.845703	-139.543121
11890.746277	1410.570000	1517.790039	93.675728
11890.746277	1410.570000	1516.734375	66.593437
11890.746277	1410.570000	1515.677734	-109.767471
11890.746277	1410.570000	1514.621094	-50.741520
11890.746277	1410.570000	1513.564453	-310.597534
11890.746277	1410.570000	1512.507813	-75.076065
11890.746277	1410.570000	1511.450195	-74.731064
11890.746277	1410.570000	1510.393555	36.425907
11890.746277	1410.570000	1509.335938	-103.269890
11890.746277	1410.570000	1508.278320	-168.296829
11890.746277	1410.570000	1507.219727	-75.115944
11890.746277	1410.570000	1506.162109	-20.315845
11890.746277	1410.570000	1505.103516	-40.009640
11890.746277	1410.570000	1504.044922	-25.778948
11890.746277	1410.570000	1502.986328	137.476486
11890.746277	1410.570000	1501.926758	151.765579
11890.746277	1410.570000	1500.868164	-14.408518
11890.746277	1410.570000	1499.808594	-38.343502
11890.746277	1410.570000	1498.749023	-59.962566
11890.746277	1410.570000	1497.688477	33.483612
11890.746277	1410.570000	1496.628906	-96.258072
11890.746277	1410.570000	1495.568359	-36.550385
11890.746277	1410.570000	1494.507813	-55.693687
11890.746277	1410.570000	1493.447266	-47.738159
11890.746277	1410.570000	1492.386719	-35.228142
11890.746277	1410.570000	1491.325195	49.403343
11890.746277	1410.570000	1490.263672	16.954355
11890.746277	1410.570000	1489.202148	-28.937815
11890.746277	1410.570000	1488.140625	58.050644
11890.746277	1410.570000	1487.079102	-1.229118
11890.746277	1410.570000	1486.016602	81.323784
11890.746277	1410.570000	1484.954102	-4.828306
11890.746277	1410.570000	1483.891602	152.022675
11890.746277	1410.570000	1482.829102	-28.450857
11890.746277	1410.570000	1481.765625	90.225220
11890.746277	1410.570000	1480.702148	226.892410
11890.746277	1410.570000	1479.638672	66.897430
11890.746277	1410.570000	1478.575195	75.546478
11890.746277	1410.570000	1477.511719	207.771713
11890.746277	1410.570000	1476.447266	277.105560
11890.746277	1410.570000	1475.382813	308.336060
11890.746277	1410.570000	1474.318359	220.622894
11890.746277	1410.570000	1473.253906	148.655487
11890.746277	1410.570000	1472.189453	148.613586
11890.746277	1410.570000	1471.124023	36.447788
11890.746277	1410.570000	1470.058594	88.095261
11890.746277	1410.570000	1468.993164	175.549164
11890.746277	1410.570000	1467.927734	137.701569
11890.746277	1410.570000	1466.861328	68.466171
11890.746277	1410.570000	1465.794922	77.968407
11890.746277	1410.570000	1464.728516	58.090057
11890.746277	1410.570000	1463.662109	-44.493114
11890.746277	1410.570000	1462.594727	148.776337
11890.746277	1410.570000	1461.528320	3.847389
11890.746277	1410.570000	1460.460938	82.660233
11890.746277	1410.570000	1459.393555	63.000587
11890.746277	1410.570000	1458.326172	92.993881
11890.746277	1410.570000	1457.257813	140.762238
11890.746277	1410.570000	1456.189453	44.845112
11890.746277	1410.570000	1455.121094	159.821548
11890.746277	1410.570000	1454.052734	120.422409
11890.746277	1410.570000	1452.984375	181.954758
11890.746277	1410.570000	1451.915039	191.939377
11890.746277	1410.570000	1450.845703	215.406662
11890.746277	1410.570000	1449.776367	172.019592
11890.746277	1410.570000	1448.707031	119.527122
11890.746277	1410.570000	1447.636719	138.192871
11890.746277	1410.570000	1446.567383	261.788605
11890.746277	1410.570000	1445.497070	291.987244
11890.746277	1410.570000	1444.425781	332.021759
11890.746277	1410.570000	1443.355469	277.046875
11890.746277	1410.570000	1442.285156	260.977173
11890.746277	1410.570000	1441.213867	422.197235
11890.746277	1410.570000	1440.142578	379.873077
11890.746277	1410.570000	1439.070313	380.833679
11890.746277	1410.570000	1437.999023	363.993042
11890.746277	1410.570000	1436.926758	312.453583
11890.746277	1410.570000	1435.854492	301.730743
11890.746277	1410.570000	1434.782227	571.799988
11890.746277	1410.570000	1433.709961	456.391571
11890.746277	1410.570000	1432.636719	358.220490
11890.746277	1410.570000	1431.563477	410.431885
11890.746277	1410.570000	1430.490234	338.540222
11890.746277	1410.570000	1429.416992	259.735779
11890.746277	1410.570000	1428.343750	155.671173
11890.746277	1410.570000	1427.269531	171.214890
11890.746277	1410.570000	1426.195313	-1.543813
11890.746277	1410.570000	1425.121094	94.740059
11890.746277	1410.570000	1424.046875	235.070221
11890.746277	1410.570000	1422.971680	186.810928
11890.746277	1410.570000	1421.896484	172.902283
11890.746277	1410.570000	1420.821289	306.581390
11890.746277	1410.570000	1419.746094	228.508652
11890.746277	1410.570000	1418.669922	102.124687
11890.746277	1410.570000	1417.594727	247.452942
11890.746277	1410.570000	1416.518555	253.731827
11890.746277	1410.570000	1415.442383	248.441147
11890.746277	1410.570000	1414.365234	347.050018
11890.746277	1410.570000	1413.289063	205.944809
11890.746277	1410.570000	1412.211914	372.481384
11890.746277	1410.570000	1411.134766	433.378235
11890.746277	1410.570000	1410.057617	386.136047
11890.746277	1410.570000	1408.979492	381.230469
11890.746277	1410.570000	1407.902344	393.293457
11890.746277	1410.570000	1406.824219	350.157471
11890.746277	1410.570000	1405.746094	352.045563
11890.746277	1410.570000	1404.666992	301.390564
11890.746277	1410.570000	1403.588867	266.808472
11890.746277	1410.570000	1402.509766	515.329285
11890.746277	1410.570000	1401.430664	297.541656
11890.746277	1410.570000	1400.351563	426.494568
11890.746277	1410.570000	1399.271484	374.596161
11890.746277	1410.570000	1398.192383	349.727112
11890.746277	1410.570000	1397.112305	377.925690
11890.746277	1410.570000	1396.031250	455.644836
11890.746277	1410.570000	1394.951172	437.537933
11890.746277	1410.570000	1393.871094	275.497070
11890.746277	1410.570000	1392.790039	297.056061
11890.746277	1410.570000	1391.708984	301.924683
11890.746277	1410.570000	1390.626953	314.562653
11890.746277	1410.570000	1389.545898	-5.459117
11890.746277	1410.570000	1388.463867	166.463181
11890.746277	1410.570000	1387.381836	282.511810
11890.746277	1410.570000	1386.299805	234.524841
11890.746277	1410.570000	1385.217773	261.875000
11890.746277	1410.570000	1384.134766	320.185699
11890.746277	1410.570000	1383.051758	360.862762
11890.746277	1410.570000	1381.968750	297.408722
11890.746277	1410.570000	1380.885742	274.596222
11890.746277	1410.570000	1379.802734	174.484482
11890.746277	1410.570000	1378.718750	205.633682
11890.746277	1410.570000	1377.634766	217.244278
11890.746277	1410.570000	1376.550781	243.728012
11890.746277	1410.570000	1375.465820	209.162750
11890.746277	1410.570000	1374.381836	215.592484
11890.746277	1410.570000	1373.296875	214.905685
11890.746277	1410.570000	1372.211914	168.648331
11890.746277	1410.570000	1371.126953	53.077873
11890.746277	1410.570000	1370.041016	240.642441
11890.746277	1410.570000	1368.955078	267.176941
11890.746277	1410.570000	1367.869141	314.236694
11890.746277	1410.570000	1366.783203	245.049362
11890.746277	1410.570000	1365.697266	144.312332
11890.746277	1410.570000	1364.610352	273.694092
11890.746277	1410.570000	1363.523438	112.095276
11890.746277	1410.570000	1362.436523	127.840752
11890.746277	1410.570000	1361.349609	112.095657
11890.746277	1410.570000	1360.261719	-36.837620
11890.746277	1410.570000	1359.174805	30.872551
11890.746277	1410.570000	1358.086914	169.558395
11890.746277	1410.570000	1356.998047	116.969650
11890.746277	1410.570000	1355.910156	152.078827
11890.746277	1410.570000	1354.821289	56.011826
11890.746277	1410.570000	1353.732422	135.607971
11890.746277	1410.570000	1352.643555	187.907883
11890.746277	1410.570000	1351.554688	243.156311
11890.746277	1410.570000	1350.464844	149.919556
11890.746277	1410.570000	1349.375000	37.654510
11890.746277	1410.570000	1348.285156	111.986763
11890.746277	1410.570000	1347.195313	328.328033
11890.746277	1410.570000	1346.105469	211.984573
11890.746277	1410.570000	1345.014648	342.591675
11890.746277	1410.570000	1343.923828	378.295502
11890.746277	1410.570000	1342.833008	158.649918
11890.746277	1410.570000	1341.741211	259.490448
11890.746277	1410.570000	1340.650391	335.952393
11890.746277	1410.570000	1339.558594	132.918793
11890.746277	1410.570000	1338.466797	250.657242
11890.746277	1410.570000	1337.374023	391.925293
11890.746277	1410.570000	1336.282227	309.103638
11890.746277	1410.570000	1335.189453	267.350891
11890.746277	1410.570000	1334.096680	233.354980
11890.746277	1410.570000	1333.003906	322.418701
11890.746277	1410.570000	1331.910156	328.258240
11890.746277	1410.570000	1330.817383	332.641724
11890.746277	1410.570000	1329.723633	149.683578
11890.746277	1410.570000	1328.629883	354.634552
11890.746277	1410.570000	1327.535156	341.534180
11890.746277	1410.570000	1326.441406	260.124542
11890.746277	1410.570000	1325.346680	362.324890
11890.746277	1410.570000	1324.251953	421.092438
11890.746277	1410.570000	1323.156250	385.966309
11890.746277	1410.570000	1322.061523	507.993622
11890.746277	1410.570000	1320.965820	457.694336
11890.746277	1410.570000	1319.870117	512.076904
11890.746277	1410.570000	1318.774414	430.520355
11890.746277	1410.570000	1317.678711	321.622894
11890.746277	1410.570000	1316.582031	434.980774
11890.746277	1410.570000	1315.485352	432.786499
11890.746277	1410.570000	1314.388672	332.908844
11890.746277	1410.570000	1313.291016	389.265869
11890.746277	1410.570000	1312.194336	416.515778
11890.746277	1410.570000	1311.096680	333.597778
11890.746277	1410.570000	1309.999023	368.795532
11890.746277	1410.570000	1308.901367	318.043732
11890.746277	1410.570000	1307.802734	323.934875
11890.746277	1410.570000	1306.705078	382.627014
11890.746277	1410.570000	1305.606445	312.456909
11890.746277	1410.570000	1304.506836	307.481812
11890.746277	1410.570000	1303.408203	367.703949
11890.746277	1410.570000	1302.308594	195.381531
11890.746277	1410.570000	1301.208984	185.086304
11890.746277	1410.570000	1300.109375	201.317841
11890.746277	1410.570000	1299.009766	197.544998
11890.746277	1410.570000	1297.909180	219.862808
11890.746277	1410.570000	1296.808594	261.309723
11890.746277	1410.570000	1295.708008	262.681274
11890.746277	1410.570000	1294.607422	217.106430
11890.746277	1410.570000	1293.506836	274.596527
11890.746277	1410.570000	1292.405273	138.994720
11890.746277	1410.570000	1291.303711	117.731499
11890.746277	1410.570000	1290.202148	164.431961
11890.746277	1410.570000	1289.099609	111.980301
11890.746277	1410.570000	1287.998047	187.933624
11890.746277	1410.570000	1286.895508	-72.353806
11890.746277	1410.570000	1285.792969	-11.871970
11890.746277	1410.570000	1284.689453	59.651558
11890.746277	1410.570000	1283.586914	139.050201
11890.746277	1410.570000	1282.483398	108.667511
11890.746277	1410.570000	1281.379883	-22.132971
11890.746277	1410.570000	1280.276367	88.499947
11890.746277	1410.570000	1279.171875	-27.320477
11890.746277	1410.570000	1278.067383	53.920658
11890.746277	1410.570000	1276.962891	-113.336594
11890.746277	1410.570000	1275.858398	32.001133
11890.746277	1410.570000	1274.753906	2.328986
11890.746277	1410.570000	1273.648438	-27.975578
11890.746277	1410.570000	1272.542969	92.592056
11890.746277	1410.570000	1271.437500	-4.299520
11890.746277	1410.570000	1270.331055	190.214951
11890.746277	1410.570000	1269.225586	23.697786
11890.746277	1410.570000	1268.119141	171.189957
11890.746277	1410.570000	1267.012695	42.126740
11890.746277	1410.570000	1265.906250	125.878380
11890.746277	1410.570000	1264.798828	90.644638
11890.746277	1410.570000	1263.691406	136.678162
11890.746277	1410.570000	1262.583984	90.895615
11890.746277	1410.570000	1261.476563	57.078373
11890.746277	1410.570000	1260.368164	88.236740
11890.746277	1410.570000	1259.260742	84.814888
11890.746277	1410.570000	1258.152344	65.260536
11890.746277	1410.570000	1257.043945	164.302917
11890.746277	1410.570000	1255.934570	148.469940
11890.746277	1410.570000	1254.825195	126.217888
11890.746277	1410.570000	1253.716797	61.821415
11890.746277	1410.570000	1252.606445	11.450813
11890.746277	1410.570000	1251.497070	198.712479
11890.746277	1410.570000	1250.387695	7.405794
11890.746277	1410.570000	1249.277344	-29.099554
11890.746277	1410.570000	1248.166992	105.881271
11890.746277	1410.570000	1247.055664	45.200367
11890.746277	1410.570000	1245.945313	-24.249285
11890.746277	1410.570000	1244.833984	-9.967259
11890.746277	1410.570000	1243.722656	72.280617
11890.746277	1410.570000	1242.611328	80.497459
11890.746277	1410.570000	1241.499023	87.062691
11890.746277	1410.570000	1240.387695	182.542694
11890.746277	1410.570000	1239.275391	55.299191
11890.746277	1410.570000	1238.162109	32.309395
11890.746277	1410.570000	1237.049805	74.252518
11890.746277	1410.570000	1235.936523	33.710461
11890.746277	1410.570000	1234.823242	187.636215
11890.746277	1410.570000	1233.709961	175.383011
11890.746277	1410.570000	1232.596680	235.448120
11890.746277	1410.570000	1231.482422	40.270012
11890.746277	1410.570000	1230.369141	11.662774
11890.746277	1410.570000	1229.253906	44.611832
11890.746277	1410.570000	1228.139648	23.636084
11890.746277	1410.570000	1227.025391	4.770208
11890.746277	1410.570000	1225.910156	22.040548
11890.746277	1410.570000	1224.794922	-70.647667
11890.746277	1410.570000	1223.679688	80.081772
11890.746277	1410.570000	1222.563477	181.527634
11890.746277	1410.570000	1221.447266	0.897939
11890.746277	1410.570000	1220.331055	25.061558
11890.746277	1410.570000	1219.214844	44.399101
11890.746277	1410.570000	1218.098633	-27.945639
11890.746277	1410.570000	1216.981445	-61.482014
11890.746277	1410.570000	1215.864258	24.802238
11890.746277	1410.570000	1214.747070	-5.798693
11890.746277	1410.570000	1213.629883	-73.736214
11890.746277	1410.570000	1212.511719	-37.478207
11890.746277	1410.570000	1211.393555	-113.701324
11890.746277	1410.570000	1210.275391	-159.360870
11890.746277	1410.570000	1209.157227	-132.710968
11890.746277	1410.570000	1208.038086	-95.271790
11890.746277	1410.570000	1206.918945	-143.059280
11890.746277	1410.570000	1205.799805	-22.809011
11890.746277	1410.570000	1204.680664	38.448051
11890.746277	1410.570000	1203.560547	-18.417673
11890.746277	1410.570000	1202.441406	-96.956261
11890.746277	1410.570000	1201.321289	7.440041
11890.746277	1410.570000	1200.200195	52.637680
11890.746277	1410.570000	1199.080078	-23.390373
11890.746277	1410.570000	1197.958984	-14.714180
11890.746277	1410.570000	1196.837891	-9.487725
11890.746277	1410.570000	1195.716797	-46.517834
11890.746277	1410.570000	1194.594727	37.242584
11890.746277	1410.570000	1193.473633	-74.039986
11890.746277	1410.570000	1192.351563	-36.552433
11890.746277	1410.570000	1191.229492	-34.989182
11890.746277	1410.570000	1190.106445	-53.131798
11890.746277	1410.570000	1188.984375	-72.314636
11890.746277	1410.570000	1187.861328	-145.552338
11890.746277	1410.570000	1186.738281	29.150194
11890.746277	1410.570000	1185.614258	48.040657
11890.746277	1410.570000	1184.491211	44.191551
11890.746277	1410.570000	1183.367188	97.101326
11890.746277	1410.570000	1182.243164	27.378435
11890.746277	1410.570000	1181.119141	52.278595
11890.746277	1410.570000	1179.994141	-25.098036
11890.746277	1410.570000	1178.869141	27.300415
11890.746277	1410.570000	1177.744141	-38.886536
11890.746277	1410.570000	1176.619141	-48.124840
11890.746277	1410.570000	1175.493164	-86.866638
11890.746277	1410.570000	1174.368164	6.712367
11890.746277	1410.570000	1173.242188	-21.626465
11890.746277	1410.570000	1172.115234	-71.391609
11890.746277	1410.570000	1170.989258	-94.217628
11890.746277	1410.570000	1169.862305	-112.995117
11890.746277	1410.570000	1168.735352	-45.157368
11890.746277	1410.570000	1167.608398	-67.897362
11890.746277	1410.570000	1166.481445	-6.034045
11890.746277	1410.570000	1165.353516	-25.654940
11890.746277	1410.570000	1164.225586	65.592384
11890.746277	1410.570000	1163.097656	-130.934250
11890.746277	1410.570000	1161.968750	-112.046539
11890.746277	1410.570000	1160.840820	-45.727825
11890.746277	1410.570000	1159.711914	-43.651703
11890.746277	1410.570000	1158.583008	-41.640434
11890.746277	1410.570000	1157.453125	86.562096
11890.746277	1410.570000	1156.324219	-54.881790
11890.746277	1410.570000	1155.194336	-116.706856
11890.746277	1410.570000	1154.064453	-10.467702
11890.746277	1410.570000	1152.933594	-75.964417
11890.746277	1410.570000	1151.803711	-30.827013
11890.746277	1410.570000	1150.672852	-38.638031
11890.746277	1410.570000	1149.541992	-73.119965
11890.746277	1410.570000	1148.411133	14.608976
11890.746277	1410.570000	1147.279297	-21.680086
11890.746277	1410.570000	1146.147461	-85.339455
11890.746277	1410.570000	1145.015625	-26.887245
11890.746277	1410.570000	1143.883789	-47.857666
11890.746277	1410.570000	1142.750977	-77.853195
11890.746277	1410.570000	1141.619141	-72.481987
11890.746277	1410.570000	1140.486328	-116.879631
11890.746277	1410.570000	1139.352539	1.090011
11890.746277	1410.570000	1138.219727	25.554264
11890.746277	1410.570000	1137.085938	1.296864
11890.746277	1410.570000	1135.952148	-152.807739
11890.746277	1410.570000	1134.818359	6.710665
11890.746277	1410.570000	1133.683594	-41.587936
11890.746277	1410.570000	1132.549805	26.749180
11890.746277	1410.570000	1131.415039	33.487015
11890.746277	1410.570000	1130.279297	-115.994118
11890.746277	1410.570000	1129.144531	62.673668
11890.746277	1410.570000	1128.008789	134.306046
11890.746277	1410.570000	1126.873047	141.394852
11890.746277	1410.570000	1125.737305	140.488892
11890.746277	1410.570000	1124.601563	286.849426
11890.746277	1410.570000	1123.464844	146.447449
11890.746277	1410.570000	1122.328125	40.697704
11890.746277	1410.570000	1121.191406	163.073364
11890.746277	1410.570000	1120.054688	73.352760
11890.746277	1410.570000	1118.916992	110.051254
11890.746277	1410.570000	1117.779297	-70.750298
11890.746277	1410.570000	1116.641602	102.327042
11890.746277	1410.570000	1115.503906	40.594349
11890.746277	1410.570000	1114.365234	-19.887686
11890.746277	1410.570000	1113.226563	73.699188
11890.746277	1410.570000	1112.087891	86.375031
11890.746277	1410.570000	1110.949219	120.771729
11890.746277	1410.570000	1109.809570	242.386917
11890.746277	1410.570000	1108.669922	67.529175
11890.746277	1410.570000	1107.530273	-0.970393
11890.746277	1410.570000	1106.390625	126.622154
11890.746277	1410.570000	1105.250000	152.153992
11890.746277	1410.570000	1104.109375	113.922081
11890.746277	1410.570000	1102.968750	130.389847
11890.746277	1410.570000	1101.828125	93.094948
11890.746277	1410.570000	1100.686523	120.362053
11890.746277	1410.570000	1099.544922	176.387604
11890.746277	1410.570000	1098.403320	232.936783
11890.746277	1410.570000	1097.261719	225.935959
11890.746277	1410.570000	1096.120117	94.717720
11890.746277	1410.570000	1094.977539	114.668663
11890.746277	1410.570000	1093.834961	176.537064
11890.746277	1410.570000	1092.691406	159.828659
11890.746277	1410.570000	1091.548828	99.058601
11890.746277	1410.570000	1090.405273	148.942825
11890.746277	1410.570000	1089.261719	231.616394
11890.746277	1410.570000	1088.118164	-92.726242
11890.746277	1410.570000	1086.973633	82.178825
11890.746277	1410.570000	1085.829102	238.811981
11890.746277	1410.570000	1084.684570	64.896446
11890.746277	1410.570000	1083.540039	112.793167
11890.746277	1410.570000	1082.395508	61.194630
11890.746277	1410.570000	1081.250000	83.791435
11890.746277	1410.570000	1080.104492	168.968842
11890.746277	1410.570000	1078.958984	172.858765
11890.746277	1410.570000	1077.812500	51.190372
11890.746277	1410.570000	1076.666016	171.676102
11890.746277	1410.570000	1075.519531	-9.595565
11890.746277	1410.570000	1074.373047	14.254889
11890.746277	1410.570000	1073.226563	-36.724091
11890.746277	1410.570000	1072.079102	135.677032
11890.746277	1410.570000	1070.931641	128.712799
11890.746277	1410.570000	1069.784180	-1.171873
11890.746277	1410.570000	1068.635742	64.215927
11890.746277	1410.570000	1067.487305	165.211823
11890.746277	1410.570000	1066.338867	100.853065
11890.746277	1410.570000	1065.190430	4.737910
11890.746277	1410.570000	1064.041992	134.909454
11890.746277	1410.570000	1062.892578	42.684036
11890.746277	1410.570000	1061.743164	77.020927
11890.746277	1410.570000	1060.593750	85.238129
11890.746277	1410.570000	1059.443359	75.355560
11890.746277	1410.570000	1058.292969	196.024429
11890.746277	1410.570000	1057.142578	-49.729259
11890.746277	1410.570000	1055.992188	30.688871
11890.746277	1410.570000	1054.841797	171.514297
11890.746277	1410.570000	1053.690430	105.721474
11890.746277	1410.570000	1052.539063	83.650154
11890.746277	1410.570000	1051.387695	-35.751278
11890.746277	1410.570000	1050.235352	-47.098763
11890.746277	1410.570000	1049.083984	89.132454
11890.746277	1410.570000	1047.931641	-14.585064
11890.746277	1410.570000	1046.778320	38.334724
11890.746277	1410.570000	1045.625977	94.430321
11890.746277	1410.570000	1044.472656	131.948151
11890.746277	1410.570000	1043.319336	194.035202
11890.746277	1410.570000	1042.166016	46.050056
11890.746277	1410.570000	1041.012695	-42.031590
11890.746277	1410.570000	1039.858398	60.723053
11890.746277	1410.570000	1038.704102	172.293579
11890.746277	1410.570000	1037.549805	53.530216
11890.746277	1410.570000	1036.394531	92.733391
11890.746277	1410.570000	1035.239258	199.790451
11890.746277	1410.570000	1034.083984	89.742554
11890.746277	1410.570000	1032.928711	91.192871
11890.746277	1410.570000	1031.773438	181.507767
11890.746277	1410.570000	1030.617188	80.800575
11890.746277	1410.570000	1029.460938	259.322479
11890.746277	1410.570000	1028.304688	149.789444
11890.746277	1410.570000	1027.147461	175.421707
11890.746277	1410.570000	1025.991211	206.979416
11890.746277	1410.570000	1024.833984	71.680733
11890.746277	1410.570000	1023.675781	166.373413
11890.746277	1410.570000	1022.518555	114.800087
11890.746277	1410.570000	1021.360352	152.430313
11890.746277	1410.570000	1020.202148	67.007065
11890.746277	1410.570000	1019.043945	-4.749790
11890.746277	1410.570000	1017.884766	23.947775
11890.746277	1410.570000	1016.726563	117.230202
11890.746277	1410.570000	1015.567383	41.253929
11890.746277	1410.570000	1014.407227	24.520052
11890.746277	1410.570000	1013.248047	-10.098737
11890.746277	1410.570000	1012.087891	-30.476818
11890.746277	1410.570000	1010.927734	24.879850
11890.746277	1410.570000	1009.767578	74.014374
11890.746277	1410.570000	1008.606445	-24.936670
11890.746277	1410.570000	1007.446289	-73.232826
11890.746277	1410.570000	1006.285156	33.915985
11890.746277	1410.570000	1005.123047	65.140724
11890.746277	1410.570000	1003.961914	-96.182823
11890.746277	1410.570000	1002.799805	46.894524
11890.746277	1410.570000	1001.637695	135.523132
11890.746277	1410.570000	1000.475586	88.024933
11890.746277	1410.570000	999.312500	-44.182362
11890.746277	1410.570000	998.149414	-36.186142
11890.746277	1410.570000	996.986328	130.226120
11890.746277	1410.570000	995.823242	-62.616806
11890.746277	1410.570000	994.659180	-33.708382
11890.746277	1410.570000	993.496094	-44.967091
11890.746277	1410.570000	992.332031	36.973557
11890.746277	1410.570000	991.166992	-36.000591
11890.746277	1410.570000	990.002930	132.620255
11890.746277	1410.570000	988.837891	76.822624
11890.746277	1410.570000	987.672852	5.598315
11890.746277	1410.570000	986.506836	21.809280
11890.746277	1410.570000	985.341797	-96.405243
11890.746277	1410.570000	984.175781	-15.645199
11890.746277	1410.570000	983.009766	-25.467123
11890.746277	1410.570000	981.843750	58.781448
11890.746277	1410.570000	980.676758	-75.019012
11890.746277	1410.570000	979.509766	34.372341
11890.746277	1410.570000	978.342773	-17.125921
11890.746277	1410.570000	977.175781	-56.675793
11890.746277	1410.570000	976.007813	6.122696
11890.746277	1410.570000	974.839844	107.335609
11890.746277	1410.570000	973.671875	55.222336
11890.746277	1410.570000	972.503906	54.723412
11890.746277	1410.570000	971.334961	125.531746
11890.746277	1410.570000	970.166016	62.214394
11890.746277	1410.570000	968.997070	74.434059
11890.746277	1410.570000	967.828125	70.726982
11890.746277	1410.570000	966.658203	153.600967
11890.746277	1410.570000	965.488281	191.360428
11890.746277	1410.570000	964.318359	-5.378860
11890.746277	1410.570000	963.148438	-148.085037
11890.746277	1410.570000	961.977539	-4.649725
11890.746277	1410.570000	960.806641	13.411148
11890.746277	1410.570000	959.635742	93.764183
11890.746277	1410.570000	958.463867	49.043610
11890.746277	1410.570000	957.292969	21.742458
11890.746277	1410.570000	956.121094	32.273617
11890.746277	1410.570000	954.948242	56.917423
11890.746277	1410.570000	953.776367	102.626419
11890.746277	1410.570000	952.603516	42.592743
11890.746277	1410.570000	951.430664	124.333229
11890.746277	1410.570000	950.257813	-41.800968
11890.746277	1410.570000	949.084961	-29.848351
11890.746277	1410.570000	947.911133	37.381386
11890.746277	1410.570000	946.737305	12.544747
11890.746277	1410.570000	945.563477	189.192581
11890.746277	1410.570000	944.388672	26.744656
11890.746277	1410.570000	943.213867	104.304756
11890.746277	1410.570000	942.039063	56.730370
11890.746277	1410.570000	940.864258	128.990295
11890.746277	1410.570000	939.688477	-102.225212
11890.746277	1410.570000	938.513672	8.374888
11890.746277	1410.570000	937.337891	136.487930
11890.746277	1410.570000	936.161133	55.678425
11890.746277	1410.570000	934.985352	112.542091
11890.746277	1410.570000	933.808594	126.164421
11890.746277	1410.570000	932.631836	9.677551
11890.746277	1410.570000	931.454102	109.851761
11890.746277	1410.570000	930.277344	125.905861
11890.746277	1410.570000	929.099609	136.835953
11890.746277	1410.570000	927.921875	127.395737
11890.746277	1410.570000	926.743164	87.429214
11890.746277	1410.570000	925.565430	32.179153
11890.746277	1410.570000	924.386719	-17.994638
11890.746277	1410.570000	923.208008	82.034126
11890.746277	1410.570000	922.028320	105.682159
11890.746277	1410.570000	920.849609	-10.619267
11890.746277	1410.570000	919.669922	-8.627565
11890.746277	1410.570000	919.474609	20.989344
11890.746277	1410.570000	918.309570	72.571716
11890.746277	1410.570000	917.143555	182.611908
11890.746277	1410.570000	915.977539	-12.460570
11890.746277	1410.570000	914.810547	44.168907
11890.746277	1410.570000	913.644531	108.392105
11890.746277	1410.570000	912.477539	180.207886
11890.746277	1410.570000	911.310547	-37.584126
11890.746277	1410.570000	910.143555	44.380344
11890.746277	1410.570000	908.975586	105.995956
11890.746277	1410.570000	907.807617	121.887062
11890.746277	1410.570000	906.639648	-24.669001
11890.746277	1410.570000	905.471680	-49.368534
11890.746277	1410.570000	904.303711	-79.136841
11890.746277	1410.570000	903.134766	-157.090042
11890.746277	1410.570000	901.965820	-153.864990
11890.746277	1410.570000	900.796875	-127.826942
11890.746277	1410.570000	899.626953	-61.243885
11890.746277	1410.570000	898.457031	-167.034912
11890.746277	1410.570000	897.287109	89.562668
11890.746277	1410.570000	896.117188	-69.427765
11890.746277	1410.570000	894.947266	113.581657
11890.746277	1410.570000	893.776367	25.548512
11890.746277	1410.570000	892.605469	23.628910
11890.746277	1410.570000	891.434570	107.770569
11890.746277	1410.570000	890.262695	-119.417114
11890.746277	1410.570000	889.091797	20.375256
11890.746277	1410.570000	887.919922	0.729790
11890.746277	1410.570000	886.748047	-34.088978
11890.746277	1410.570000	885.575195	-134.645020
11890.746277	1410.570000	884.403320	-50.605953
11890.746277	1410.570000	883.230469	68.782631
11890.746277	1410.570000	882.057617	-92.402695
11890.746277	1410.570000	880.883789	135.583160
11890.746277	1410.570000	879.710938	108.325493
11890.746277	1410.570000	878.537109	88.650986
11890.746277	1410.570000	877.362305	207.862762
11890.746277	1410.570000	876.188477	94.752724
11890.746277	1410.570000	875.013672	-119.280258
11890.746277	1410.570000	873.839844	9.975658
11890.746277	1410.570000	872.664063	-108.086548
11890.746277	1410.570000	871.489258	21.102392
11890.746277	1410.570000	870.313477	56.917870
11890.746277	1410.570000	869.138672	-15.714871
11890.746277	1410.570000	867.962891	176.382767
11890.746277	1410.570000	866.786133	-29.841585
11890.746277	1410.570000	865.610352	-112.510483
11890.746277	1410.570000	864.433594	-28.867262
11890.746277	1410.570000	863.256836	-40.984726
11890.746277	1410.570000	862.079102	-15.326895
11890.746277	1410.570000	860.902344	90.885063
11890.746277	1410.570000	859.724609	139.147507
11890.746277	1410.570000	858.546875	74.123497
11890.746277	1410.570000	857.368164	49.381203
11890.746277	1410.570000	856.190430	-204.301468
11890.746277	1410.570000	855.011719	155.853989
11890.746277	1410.570000	853.833008	7.861264
11890.746277	1410.570000	852.654297	48.493671
11890.746277	1410.570000	851.474609	13.688981
11890.746277	1410.570000	850.294922	54.288502
11890.746277	1410.570000	849.115234	-13.184928
11890.746277	1410.570000	847.935547	218.316437
11890.746277	1410.570000	846.754883	5.141460
11890.746277	1410.570000	845.575195	-19.615444
11890.746277	1410.570000	844.393555	-59.432880
11890.746277	1410.570000	843.212891	-1.347122
11890.746277	1410.570000	842.032227	-18.584511
11890.746277	1410.570000	840.850586	19.379066
11890.746277	1410.570000	839.668945	7.145223
11890.746277	1410.570000	838.486328	177.999283
11890.746277	1410.570000	837.304688	158.196411
11890.746277	1410.570000	836.122070	-97.272240
11890.746277	1410.570000	834.939453	23.338535
11890.746277	1410.570000	833.756836	241.624817
11890.746277	1410.570000	832.573242	-98.919159
11890.746277	1410.570000	831.389648	24.092960
11890.746277	1410.570000	830.206055	1.784093
11890.746277	1410.570000	829.022461	29.553524
11890.746277	1410.570000	827.838867	-32.823971
11890.746277	1410.570000	826.654297	-82.670578
11890.746277	1410.570000	825.469727	50.170082
11890.746277	1410.570000	824.284180	72.861649
11890.746277	1410.570000	823.099609	-79.566109
11890.746277	1410.570000	821.914063	-64.381523
11890.746277	1410.570000	820.728516	153.314514
11890.746277	1410.570000	819.542969	3.431035
11890.746277	1410.570000	818.356445	-121.407425
11890.746277	1410.570000	817.169922	-46.300770
11890.746277	1410.570000	815.983398	91.220596
11890.746277	1410.570000	814.796875	-21.106146
11890.746277	1410.570000	813.609375	88.860069
11890.746277	1410.570000	812.422852	56.451931
11890.746277	1410.570000	811.235352	213.760300
11890.746277	1410.570000	810.046875	-90.716942
11890.746277	1410.570000	808.859375	101.463783
11890.746277	1410.570000	807.670898	-80.650162
11890.746277	1410.570000	806.482422	-8.296292
11890.746277	1410.570000	805.293945	34.090698
11890.746277	1410.570000	804.104492	31.571238
11890.746277	1410.570000	802.915039	4.112936
11890.746277	1410.570000	801.725586	51.415371
11890.746277	1410.570000	800.536133	148.516983
11890.746277	1410.570000	799.345703	53.751602
11890.746277	1410.570000	798.155273	28.747528
11890.746277	1410.570000	796.964844	70.970940
11890.746277	1410.570000	795.774414	53.413898
11890.746277	1410.570000	794.583008	-66.199677
11890.746277	1410.570000	793.392578	147.680527
11890.746277	1410.570000	792.200195	100.220131
11890.746277	1410.570000	791.008789	40.326511
11890.746277	1410.570000	789.816406	-14.582705
11890.746277	1410.570000	788.625000	-9.810612
11890.746277	1410.570000	787.432617	29.748354
11890.746277	1410.570000	786.239258	191.061325
11890.746277	1410.570000	785.046875	188.287689
11890.746277	1410.570000	783.853516	232.703827
11890.746277	1410.570000	782.660156	113.150627
11890.746277	1410.570000	781.465820	-75.902527
11890.746277	1410.570000	780.272461	139.808853
11890.746277	1410.570000	779.078125	84.841820
11890.746277	1410.570000	777.883789	-133.917297
11890.746277	1410.570000	776.688477	-119.360451
11890.746277	1410.570000	775.494141	-27.922787
11890.746277	1410.570000	774.298828	13.855498
11890.746277	1410.570000	773.103516	63.039516
11890.746277	1410.570000	771.907227	149.374939
11890.746277	1410.570000	770.711914	62.146969
11890.746277	1410.570000	769.515625	-54.799438
11890.746277	1410.570000	768.318359	88.442802
11890.746277	1410.570000	767.122070	-8.677913
11890.746277	1410.570000	765.924805	-48.811840
11890.746277	1410.570000	764.727539	-39.423542
11890.746277	1410.570000	763.530273	66.492279
11890.746277	1410.570000	762.333008	33.740227
11890.746277	1410.570000	761.134766	-43.557671
11890.746277	1410.570000	759.936523	-9.508478
11890.746277	1410.570000	758.738281	9.668003
11890.746277	1410.570000	757.540039	4.087429
11890.746277	1410.570000	756.340820	0.964555
11890.746277	1410.570000	755.141602	42.320801
11890.746277	1410.570000	753.942383	-74.534325
11890.746277	1410.570000	752.742188	-57.925655
11890.746277	1410.570000	751.541992	87.122391
11890.746277	1410.570000	750.341797	-123.582146
11890.746277	1410.570000	749.141602	6.565200
11890.746277	1410.570000	747.941406	-162.100174
11890.746277	1410.570000	746.740234	12.396156
11890.746277	1410.570000	745.539063	-5.695238
11890.746277	1410.570000	744.337891	3.343384
11890.746277	1410.570000	743.135742	14.826748
11890.746277	1410.570000	741.933594	-42.771381
11890.746277	1410.570000	740.731445	106.765770
11890.746277	1410.570000	739.529297	81.183800
11890.746277	1410.570000	738.326172	82.707039
11890.746277	1410.570000	737.124023	175.389206
11890.746277	1410.570000	735.919922	206.419434
11890.746277	1410.570000	734.716797	239.881012
11890.746277	1410.570000	733.513672	381.670685
11890.746277	1410.570000	732.309570	392.883850
11890.746277	1410.570000	731.105469	303.142334
11890.746277	1410.570000	729.900391	250.337952
11890.746277	1410.570000	728.696289	394.391785
11890.746277	1410.570000	727.491211	255.446243
11890.746277	1410.570000	726.286133	227.224335
11890.746277	1410.570000	725.080078	130.139252
11890.746277	1410.570000	723.874023	269.105011
11890.746277	1410.570000	722.668945	262.964355
11890.746277	1410.570000	721.461914	207.655487
11890.746277	1410.570000	720.255859	36.867275
11890.746277	1410.570000	719.048828	92.137421
11890.746277	1410.570000	717.841797	34.386364
11890.746277	1410.570000	716.634766	60.129803
11890.746277	1410.570000	715.427734	100.573860
11890.746277	1410.570000	714.219727	-55.379105
11890.746277	1410.570000	713.011719	56.201206
11890.746277	1410.570000	711.803711	47.495049
11890.746277	1410.570000	710.594727	-64.250511
11890.746277	1410.570000	709.385742	-19.009922
11890.746277	1410.570000	708.176758	-20.393421
11890.746277	1410.570000	706.967773	115.485817
11890.746277	1410.570000	705.758789	40.510712
11890.746277	1410.570000	704.548828	41.511787
11890.746277	1410.570000	703.338867	-35.901810
11890.746277	1410.570000	702.127930	-108.402023
11890.746277	1410.570000	700.917969	22.366657
11890.746277	1410.570000	699.707031	126.131004
11890.746277	1410.570000	698.496094	36.455322
11890.746277	1410.570000	697.285156	-40.962959
11890.746277	1410.570000	696.073242	89.612373
11890.746277	1410.570000	694.861328	114.925377
11890.746277	1410.570000	693.649414	142.656891
11890.746277	1410.570000	692.436523	82.330696
11890.746277	1410.570000	691.224609	36.681965
11890.746277	1410.570000	690.011719	32.588173
11890.746277	1410.570000	688.798828	70.023460
11890.746277	1410.570000	687.584961	126.972046
11890.746277	1410.570000	686.372070	-18.861567
11890.746277	1410.570000	685.158203	-25.445650
11890.746277	1410.570000	683.943359	53.415768
11890.746277	1410.570000	682.729492	7.730518
11890.746277	1410.570000	681.514648	-13.544448
11890.746277	1410.570000	680.299805	104.262390
11890.746277	1410.570000	679.084961	85.387123
11890.746277	1410.570000	677.869141	25.040466
11890.746277	1410.570000	676.653320	37.862759
11890.746277	1410.570000	675.437500	131.122314
11890.746277	1410.570000	674.221680	148.764709
11890.746277	1410.570000	673.004883	188.320007
11890.746277	1410.570000	671.789063	49.979378
11890.746277	1410.570000	670.571289	233.237701
11890.746277	1410.570000	669.354492	104.662193
11890.746277	1410.570000	668.136719	51.613445
11890.746277	1410.570000	666.919922	127.602554
11890.746277	1410.570000	665.701172	40.471981
11890.746277	1410.570000	664.483398	-136.669922
11890.746277	1410.570000	663.264648	102.283478
11890.746277	1410.570000	662.045898	146.531296
11890.746277	1410.570000	660.827148	69.154907
11890.746277	1410.570000	659.608398	-8.198380
11890.746277	1410.570000	658.388672	84.632309
11890.746277	1410.570000	657.168945	72.908638
11890.746277	1410.570000	655.949219	-9.284583
11890.746277	1410.570000	654.728516	173.345856
11890.746277	1410.570000	653.507813	52.287720
11890.746277	1410.570000	652.287109	144.964218
11890.746277	1410.570000	651.066406	142.909912
11890.746277	1410.570000	649.844727	70.457550
11890.746277	1410.570000	648.623047	15.016318
11890.746277	1410.570000	647.401367	117.299011
11890.746277	1410.570000	646.179688	95.819695
11890.746277	1410.570000	644.957031	50.090317
11890.746277	1410.570000	643.734375	33.472263
11890.746277	1410.570000	642.511719	-4.961794
11890.746277	1410.570000	641.289063	104.461884
11890.746277	1410.570000	640.065430	87.828514
11890.746277	1410.570000	638.841797	252.899399
11890.746277	1410.570000	637.618164	153.882019
11890.746277	1410.570000	636.393555	185.671616
11890.746277	1410.570000	635.168945	110.915764
11890.746277	1410.570000	633.944336	191.109528
11890.746277	1410.570000	632.719727	55.877872
11890.746277	1410.570000	631.494141	-4.290187
11890.746277	1410.570000	630.269531	29.911322
11890.746277	1410.570000	629.042969	136.653717
11890.746277	1410.570000	627.817383	100.686974
11890.746277	1410.570000	626.590820	30.889643
11890.746277	1410.570000	625.365234	26.383602
11890.746277	1410.570000	624.137695	-36.116348
11890.746277	1410.570000	622.911133	0.469375
11890.746277	1410.570000	621.683594	49.118931
11890.746277	1410.570000	620.456055	97.750923
11890.746277	1410.570000	619.228516	25.642181
11890.746277	1410.570000	618.000977	-126.092560
11890.746277	1410.570000	616.772461	-229.489594
11890.746277	1410.570000	615.543945	62.882862
11890.746277	1410.570000	614.314453	27.047115
11890.746277	1410.570000	613.085938	17.764174
11890.746277	1410.570000	611.856445	47.073315
11890.746277	1410.570000	610.626953	-181.587830
11890.746277	1410.570000	609.397461	-0.380907
11890.746277	1410.570000	608.166992	43.394184
11890.746277	1410.570000	606.936523	-4.396241
11890.746277	1410.570000	605.706055	-8.798091
11890.746277	1410.570000	604.474609	37.385326
11890.746277	1410.570000	603.244141	102.822136
11890.746277	1410.570000	602.012695	-7.492213
11890.746277	1410.570000	600.780273	-57.579681
11890.746277	1410.570000	599.548828	17.492456
11890.746277	1410.570000	598.316406	82.921356
11890.746277	1410.570000	597.083984	18.450699
11890.746277	1410.570000	595.851563	91.090248
11890.746277	1410.570000	594.618164	-112.774284
11890.746277	1410.570000	593.384766	-59.340652
11890.746277	1410.570000	592.151367	8.503428
11890.746277	1410.570000	590.917969	-5.357796
11890.746277	1410.570000	589.683594	-9.589835
11890.746277	1410.570000	588.449219	-131.486694
11890.746277	1410.570000	587.214844	51.632248
11890.746277	1410.570000	585.979492	49.839306
11890.746277	1410.570000	584.745117	-184.749039
11890.746277	1410.570000	583.509766	-59.276695
11890.746277	1410.570000	582.273438	-75.387718
11890.746277	1410.570000	581.038086	47.646084
11890.746277	1410.570000	579.801758	19.565647
11890.746277	1410.570000	578.565430	-46.844578
11890.746277	1410.570000	577.329102	37.807903
11890.746277	1410.570000	576.091797	-145.969955
11890.746277	1410.570000	574.854492	-109.213120
11890.746277	1410.570000	573.617188	-84.428520
11890.746277	1410.570000	572.378906	-100.348930
11890.746277	1410.570000	571.141602	70.531364
11890.746277	1410.570000	569.903320	23.506212
11890.746277	1410.570000	568.664063	-18.690096
11890.746277	1410.570000	567.425781	-123.062737
11890.746277	1410.570000	566.186523	45.373146
11890.746277	1410.570000	564.947266	-92.409798
11890.746277	1410.570000	563.708008	-53.143219
11890.746277	1410.570000	562.467773	31.557858
11890.746277	1410.570000	561.227539	34.972626
11890.746277	1410.570000	559.987305	-21.337143
11890.746277	1410.570000	558.747070	3.641491
11890.746277	1410.570000	557.505859	-26.310488
11890.746277	1410.570000	556.264648	-1.290973
11890.746277	1410.570000	555.023438	-78.935516
11890.746277	1410.570000	553.781250	-3.730202
11890.746277	1410.570000	552.539063	-57.420986
11890.746277	1410.570000	551.296875	8.253989
11890.746277	1410.570000	550.054688	33.368095
11890.746277	1410.570000	548.811523	-82.236130
11890.746277	1410.570000	547.569336	176.650101
11890.746277	1410.570000	546.325195	158.874054
11890.746277	1410.570000	545.082031	181.656464
11890.746277	1410.570000	543.837891	171.090027
11890.746277	1410.570000	542.593750	215.358154
11890.746277	1410.570000	541.349609	140.520889
11890.746277	1410.570000	540.105469	65.742737
11890.746277	1410.570000	538.860352	10.072776
11890.746277	1410.570000	537.615234	-26.500591
11890.746277	1410.570000	536.369141	48.838306
11890.746277	1410.570000	535.124023	-16.231678
11890.746277	1410.570000	533.877930	32.954079
11890.746277	1410.570000	532.631836	27.435064
11890.746277	1410.570000	531.384766	-61.291439
11890.746277	1410.570000	530.138672	163.896500
11890.746277	1410.570000	528.891602	201.218735
11890.746277	1410.570000	527.643555	65.054901
11890.746277	1410.570000	526.396484	114.312347
11890.746277	1410.570000	525.148438	218.212921
11890.746277	1410.570000	523.900391	48.954422
11890.746277	1410.570000	522.652344	-8.601282
11890.746277	1410.570000	521.403320	116.696312
11890.746277	1410.570000	520.154297	66.317314
11890.746277	1410.570000	518.905273	46.831970
11890.746277	1410.570000	517.656250	-48.545952
11890.746277	1410.570000	516.406250	67.251938
11890.746277	1410.570000	515.156250	121.360077
11890.746277	1410.570000	513.906250	85.364182
11890.746277	1410.570000	512.655273	127.631401
11890.746277	1410.570000	511.404297	264.698822
11890.746277	1410.570000	510.153320	167.142761
11890.746277	1410.570000	508.902344	152.560013
11890.746277	1410.570000	507.650391	140.367844
11890.746277	1410.570000	506.398438	142.403458
11890.746277	1410.570000	505.146484	75.794708
11890.746277	1410.570000	503.893555	288.529602
11890.746277	1410.570000	502.641602	210.108871
11890.746277	1410.570000	501.388672	257.128143
11890.746277	1410.570000	500.134766	174.037872
11890.746277	1410.570000	498.881836	15.311748
11890.746277	1410.570000	497.627930	152.214203
11890.746277	1410.570000	496.374023	274.878784
11890.746277	1410.570000	495.119141	390.404510
11890.746277	1410.570000	493.865234	319.212524
11890.746277	1410.570000	492.610352	224.428909
11890.746277	1410.570000	491.355469	306.825623
11890.746277	1410.570000	490.099609	20.810997
11890.746277	1410.570000	488.843750	355.820923
11890.746277	1410.570000	487.587891	263.456635
11890.746277	1410.570000	486.332031	277.316345
11890.746277	1410.570000	485.075195	321.832031
11890.746277	1410.570000	483.818359	135.151230
11890.746277	1410.570000	482.561523	450.857849
11890.746277	1410.570000	481.304688	344.364258
11890.746277	1410.570000	480.046875	351.048401
11890.746277	1410.570000	478.789063	433.126434
11890.746277	1410.570000	477.531250	418.537415
11890.746277	1410.570000	476.272461	312.053955
11890.746277	1410.570000	475.013672	401.075714
11890.746277	1410.570000	473.754883	447.641510
11890.746277	1410.570000	472.496094	338.773132
11890.746277	1410.570000	471.236328	385.262329
11890.746277	1410.570000	469.976563	438.752106
11890.746277	1410.570000	468.716797	529.819580
11890.746277	1410.570000	467.456055	394.989594
11890.746277	1410.570000	466.196289	495.339569
11890.746277	1410.570000	464.935547	569.731995
11890.746277	1410.570000	463.673828	545.307434
11890.746277	1410.570000	462.413086	603.091125
11890.746277	1410.570000	461.151367	590.297485
11890.746277	1410.570000	459.889648	617.379150
11890.746277	1410.570000	458.626953	479.973206
11890.746277	1410.570000	457.364258	593.806091
11890.746277	1410.570000	456.101563	620.649353
11890.746277	1410.570000	454.838867	689.647949
11890.746277	1410.570000	453.575195	671.705811
11890.746277	1410.570000	452.312500	738.141663
11890.746277	1410.570000	451.047852	483.104034
11890.746277	1410.570000	449.784180	704.136902
11890.746277	1410.570000	448.519531	491.217499
11890.746277	1410.570000	447.254883	533.789246
11890.746277	1410.570000	445.990234	632.476318
11890.746277	1410.570000	444.725586	656.023315
11890.746277	1410.570000	443.459961	492.029938
11890.746277	1410.570000	442.194336	686.317322
11890.746277	1410.570000	440.927734	751.598999
11890.746277	1410.570000	439.662109	711.367004
11890.746277	1410.570000	438.395508	579.724670
11890.746277	1410.570000	437.127930	635.191833
11890.746277	1410.570000	435.861328	711.535339
11890.746277	1410.570000	434.593750	815.750366
11890.746277	1410.570000	433.326172	629.774170
11890.746277	1410.570000	432.058594	866.885620
11890.746277	1410.570000	430.790039	692.307861
11890.746277	1410.570000	429.521484	678.871704
11890.746277	1410.570000	428.252930	756.369751
11890.746277	1410.570000	426.984375	653.761047
11890.746277	1410.570000	425.714844	597.695313
11890.746277	1410.570000	424.445313	693.211670
11890.746277	1410.570000	423.174805	732.432800
11890.746277	1410.570000	421.905273	601.028381
11890.746277	1410.570000	420.634766	786.791016
11890.746277	1410.570000	419.364258	664.274902
11890.746277	1410.570000	418.092773	791.126831
11890.746277	1410.570000	416.822266	805.730591
11890.746277	1410.570000	415.550781	806.063660
11890.746277	1410.570000	414.278320	917.997742
11890.746277	1410.570000	413.006836	815.198364
11890.746277	1410.570000	411.734375	996.392456
11890.746277	1410.570000	410.461914	641.433350
11890.746277	1410.570000	409.188477	719.485413
11890.746277	1410.570000	407.916016	890.319153
11890.746277	1410.570000	406.642578	739.486511
11890.746277	1410.570000	405.368164	669.826294
11890.746277	1410.570000	404.094727	653.365234
11890.746277	1410.570000	402.820313	687.719116
11890.746277	1410.570000	401.545898	705.399780
11890.746277	1410.570000	400.270508	743.606506
11890.746277	1410.570000	398.996094	655.862061
11890.746277	1410.570000	397.720703	718.822083
11890.746277	1410.570000	396.444336	676.751404
11890.746277	1410.570000	395.168945	755.088684
11890.746277	1410.570000	393.892578	853.843872
11890.746277	1410.570000	392.616211	747.732178
11890.746277	1410.570000	391.339844	741.036377
11890.746277	1410.570000	390.062500	701.353149
11890.746277	1410.570000	388.785156	670.475098
11890.746277	1410.570000	387.507813	713.352844
11890.746277	1410.570000	386.229492	523.697388
11890.746277	1410.570000	384.951172	514.495483
11890.746277	1410.570000	383.672852	722.717651
11890.746277	1410.570000	382.394531	691.500061
11890.746277	1410.570000	381.115234	701.426575
11890.746277	1410.570000	379.835938	717.708618
11890.746277	1410.570000	378.556641	668.505188
11890.746277	1410.570000	377.277344	514.468140
11890.746277	1410.570000	375.997070	681.741699
11890.746277	1410.570000	374.716797	602.868286
11890.746277	1410.570000	373.435547	571.954529
11890.746277	1410.570000	372.155273	535.755066
11890.746277	1410.570000	370.874023	357.711853
11890.746277	1410.570000	369.591797	498.242065
11890.746277	1410.570000	368.310547	404.401550
11890.746277	1410.570000	367.028320	455.502136
11890.746277	1410.570000	365.746094	540.485291
11890.746277	1410.570000	364.463867	576.104492
11890.746277	1410.570000	363.180664	421.397461
11890.746277	1410.570000	361.897461	406.855774
11890.746277	1410.570000	360.614258	419.190552
11890.746277	1410.570000	359.330078	405.230530
11890.746277	1410.570000	358.045898	385.772430
11890.746277	1410.570000	356.761719	501.602997
11890.746277	1410.570000	355.477539	567.994019
11890.746277	1410.570000	354.192383	393.431915
11890.746277	1410.570000	352.907227	319.472931
11890.746277	1410.570000	351.622070	378.317596
11890.746277	1410.570000	350.336914	362.341858
11890.746277	1410.570000	349.050781	366.058441
11890.746277	1410.570000	347.764648	193.557877
11890.746277	1410.570000	346.477539	443.999512
11890.746277	1410.570000	345.191406	207.173477
11890.746277	1410.570000	343.904297	436.846710
11890.746277	1410.570000	342.616211	467.202972
11890.746277	1410.570000	341.329102	540.143677
11890.746277	1410.570000	340.041016	503.639008
11890.746277	1410.570000	338.752930	378.477417
11890.746277	1410.570000	337.463867	166.957367
11890.746277	1410.570000	336.175781	191.207718
11890.746277	1410.570000	334.886719	154.314178
11890.746277	1410.570000	333.596680	88.476387
11890.746277	1410.570000	332.307617	60.423538
11890.746277	1410.570000	331.017578	97.604263
11890.746277	1410.570000	329.727539	43.742943
11890.746277	1410.570000	328.436523	197.462494
11890.746277	1410.570000	327.146484	138.388443
11890.746277	1410.570000	325.855469	-25.534948
11890.746277	1410.570000	324.563477	6.462807
11890.746277	1410.570000	323.272461	-252.265228
11890.746277	1410.570000	321.980469	38.201427
11890.746277	1410.570000	320.688477	10.317279
11890.746277	1410.570000	319.395508	-28.439371
11890.746277	1410.570000	318.103516	-9.196954
11890.746277	1410.570000	316.810547	-67.397659
11890.746277	1410.570000	315.516602	-19.653133
11890.746277	1410.570000	314.223633	37.790909
11890.746277	1410.570000	312.929688	93.326256
11890.746277	1410.570000	311.635742	-8.790321
11890.746277	1410.570000	310.340820	-174.654312
11890.746277	1410.570000	309.045898	-56.171345
11890.746277	1410.570000	307.750977	-77.062996
11890.746277	1410.570000	306.456055	-19.848246
11890.746277	1410.570000	305.160156	35.229797
11890.746277	1410.570000	303.865234	35.649677
11890.746277	1410.570000	302.568359	6.364595
11890.746277	1410.570000	301.272461	68.751808
11890.746277	1410.570000	299.975586	316.305145
11890.746277	1410.570000	298.678711	111.227287
