#X		#Y		#Wave		#Intensity
11932.026064	2855.515000	1999.980469	-210.435745
11932.026064	2855.515000	1999.016602	-51.210293
11932.026064	2855.515000	1998.052734	14.905551
11932.026064	2855.515000	1997.087891	-47.884319
11932.026064	2855.515000	1996.123047	-28.908800
11932.026064	2855.515000	1995.158203	99.036522
11932.026064	2855.515000	1994.193359	83.260597
11932.026064	2855.515000	1993.228516	10.513798
11932.026064	2855.515000	1992.262695	51.659756
11932.026064	2855.515000	1991.297852	13.554515
11932.026064	2855.515000	1990.332031	17.513811
11932.026064	2855.515000	1989.366211	-5.772319
11932.026064	2855.515000	1988.399414	114.417686
11932.026064	2855.515000	1987.433594	-57.339600
11932.026064	2855.515000	1986.466797	67.710449
11932.026064	2855.515000	1985.500977	22.076685
11932.026064	2855.515000	1984.534180	53.071304
11932.026064	2855.515000	1983.567383	-61.802834
11932.026064	2855.515000	1982.599609	33.394100
11932.026064	2855.515000	1981.632813	-41.955677
11932.026064	2855.515000	1980.665039	-30.843307
11932.026064	2855.515000	1979.697266	190.175674
11932.026064	2855.515000	1978.729492	8.571323
11932.026064	2855.515000	1977.761719	2.301477
11932.026064	2855.515000	1976.792969	-31.147671
11932.026064	2855.515000	1975.825195	-81.889030
11932.026064	2855.515000	1974.856445	-4.326553
11932.026064	2855.515000	1973.887695	21.369785
11932.026064	2855.515000	1972.918945	96.360580
11932.026064	2855.515000	1971.949219	109.639778
11932.026064	2855.515000	1970.980469	43.981579
11932.026064	2855.515000	1970.010742	67.069244
11932.026064	2855.515000	1969.041016	-205.660049
11932.026064	2855.515000	1968.071289	-47.051949
11932.026064	2855.515000	1967.101563	99.148949
11932.026064	2855.515000	1966.130859	43.263206
11932.026064	2855.515000	1965.161133	120.371597
11932.026064	2855.515000	1964.190430	59.520905
11932.026064	2855.515000	1963.219727	77.450333
11932.026064	2855.515000	1962.249023	179.039902
11932.026064	2855.515000	1961.277344	-147.678986
11932.026064	2855.515000	1960.306641	69.511513
11932.026064	2855.515000	1959.334961	170.961197
11932.026064	2855.515000	1958.363281	87.861130
11932.026064	2855.515000	1957.391602	112.974686
11932.026064	2855.515000	1956.419922	42.155567
11932.026064	2855.515000	1955.447266	62.295940
11932.026064	2855.515000	1954.474609	-156.019913
11932.026064	2855.515000	1953.501953	203.231659
11932.026064	2855.515000	1952.529297	-15.083389
11932.026064	2855.515000	1951.556641	115.492714
11932.026064	2855.515000	1950.583984	69.151619
11932.026064	2855.515000	1949.610352	199.610092
11932.026064	2855.515000	1948.636719	55.009739
11932.026064	2855.515000	1947.663086	45.449959
11932.026064	2855.515000	1946.689453	97.225456
11932.026064	2855.515000	1945.715820	77.795509
11932.026064	2855.515000	1944.741211	68.160469
11932.026064	2855.515000	1943.767578	151.717438
11932.026064	2855.515000	1942.792969	-29.649870
11932.026064	2855.515000	1941.818359	-54.044247
11932.026064	2855.515000	1940.842773	-29.422440
11932.026064	2855.515000	1939.868164	9.874086
11932.026064	2855.515000	1938.892578	56.484253
11932.026064	2855.515000	1937.916992	54.050491
11932.026064	2855.515000	1936.941406	76.092651
11932.026064	2855.515000	1935.965820	-14.562769
11932.026064	2855.515000	1934.990234	-39.087322
11932.026064	2855.515000	1934.013672	56.344349
11932.026064	2855.515000	1933.037109	24.427523
11932.026064	2855.515000	1932.060547	36.556580
11932.026064	2855.515000	1931.083984	-7.620693
11932.026064	2855.515000	1930.107422	-73.820755
11932.026064	2855.515000	1929.129883	6.748456
11932.026064	2855.515000	1928.153320	121.507706
11932.026064	2855.515000	1927.175781	11.247799
11932.026064	2855.515000	1926.198242	-45.206451
11932.026064	2855.515000	1925.219727	164.765564
11932.026064	2855.515000	1924.242188	-16.367393
11932.026064	2855.515000	1923.263672	-45.963593
11932.026064	2855.515000	1922.285156	-131.753799
11932.026064	2855.515000	1921.306641	117.086029
11932.026064	2855.515000	1920.328125	-132.350006
11932.026064	2855.515000	1919.349609	-22.804258
11932.026064	2855.515000	1918.370117	-57.340824
11932.026064	2855.515000	1917.391602	-21.100573
11932.026064	2855.515000	1916.412109	-53.216431
11932.026064	2855.515000	1915.431641	-24.343885
11932.026064	2855.515000	1914.452148	43.532040
11932.026064	2855.515000	1913.472656	191.848679
11932.026064	2855.515000	1912.492188	-25.658367
11932.026064	2855.515000	1911.511719	112.833511
11932.026064	2855.515000	1910.531250	117.201080
11932.026064	2855.515000	1909.550781	177.603821
11932.026064	2855.515000	1908.569336	-42.231499
11932.026064	2855.515000	1907.588867	64.437302
11932.026064	2855.515000	1906.607422	-18.926329
11932.026064	2855.515000	1905.625977	-75.484100
11932.026064	2855.515000	1904.644531	-76.035049
11932.026064	2855.515000	1903.662109	200.905319
11932.026064	2855.515000	1902.680664	-62.570606
11932.026064	2855.515000	1901.698242	0.106443
11932.026064	2855.515000	1900.715820	67.614632
11932.026064	2855.515000	1899.733398	-30.318737
11932.026064	2855.515000	1898.750000	131.993896
11932.026064	2855.515000	1897.767578	131.325165
11932.026064	2855.515000	1896.784180	-0.633228
11932.026064	2855.515000	1895.800781	-120.398888
11932.026064	2855.515000	1894.817383	-16.554583
11932.026064	2855.515000	1893.833984	-12.376943
11932.026064	2855.515000	1892.850586	93.818344
11932.026064	2855.515000	1891.866211	20.232397
11932.026064	2855.515000	1890.881836	-60.620148
11932.026064	2855.515000	1889.897461	35.784840
11932.026064	2855.515000	1888.913086	-91.178406
11932.026064	2855.515000	1887.927734	-116.171127
11932.026064	2855.515000	1886.943359	60.240578
11932.026064	2855.515000	1885.958008	156.516251
11932.026064	2855.515000	1884.972656	109.636826
11932.026064	2855.515000	1883.987305	-39.089401
11932.026064	2855.515000	1883.001953	132.294281
11932.026064	2855.515000	1882.015625	63.603123
11932.026064	2855.515000	1881.029297	48.254608
11932.026064	2855.515000	1880.042969	64.408554
11932.026064	2855.515000	1879.056641	90.240883
11932.026064	2855.515000	1878.070313	82.142845
11932.026064	2855.515000	1877.083984	69.197594
11932.026064	2855.515000	1876.096680	17.504002
11932.026064	2855.515000	1875.109375	-101.966263
11932.026064	2855.515000	1874.122070	168.322083
11932.026064	2855.515000	1873.134766	-67.312515
11932.026064	2855.515000	1872.146484	-24.598837
11932.026064	2855.515000	1871.159180	88.253036
11932.026064	2855.515000	1870.170898	68.020744
11932.026064	2855.515000	1869.182617	-48.944180
11932.026064	2855.515000	1868.194336	-165.870651
11932.026064	2855.515000	1867.205078	-16.841537
11932.026064	2855.515000	1866.216797	6.444342
11932.026064	2855.515000	1865.227539	152.957901
11932.026064	2855.515000	1864.238281	2.232307
11932.026064	2855.515000	1863.249023	-22.829550
11932.026064	2855.515000	1862.259766	87.363190
11932.026064	2855.515000	1861.269531	26.061579
11932.026064	2855.515000	1860.279297	-88.336456
11932.026064	2855.515000	1859.290039	-31.313852
11932.026064	2855.515000	1858.298828	-41.895363
11932.026064	2855.515000	1857.308594	46.452576
11932.026064	2855.515000	1856.318359	59.976112
11932.026064	2855.515000	1855.327148	66.251434
11932.026064	2855.515000	1854.335938	-98.701469
11932.026064	2855.515000	1853.344727	-29.720524
11932.026064	2855.515000	1852.353516	85.031181
11932.026064	2855.515000	1851.362305	11.739152
11932.026064	2855.515000	1850.370117	-44.664501
11932.026064	2855.515000	1849.377930	45.914894
11932.026064	2855.515000	1848.385742	88.277588
11932.026064	2855.515000	1847.393555	68.000671
11932.026064	2855.515000	1846.401367	-67.854874
11932.026064	2855.515000	1845.408203	17.821232
11932.026064	2855.515000	1844.415039	-26.520393
11932.026064	2855.515000	1843.421875	-8.279726
11932.026064	2855.515000	1842.428711	62.882515
11932.026064	2855.515000	1841.435547	32.974052
11932.026064	2855.515000	1840.441406	89.656380
11932.026064	2855.515000	1839.448242	-106.186241
11932.026064	2855.515000	1838.454102	29.830765
11932.026064	2855.515000	1837.459961	93.674622
11932.026064	2855.515000	1836.464844	75.769958
11932.026064	2855.515000	1835.470703	50.658768
11932.026064	2855.515000	1834.475586	54.377918
11932.026064	2855.515000	1833.480469	245.448822
11932.026064	2855.515000	1832.485352	-139.942139
11932.026064	2855.515000	1831.490234	15.061860
11932.026064	2855.515000	1830.495117	28.359583
11932.026064	2855.515000	1829.499023	-109.572159
11932.026064	2855.515000	1828.502930	112.508270
11932.026064	2855.515000	1827.506836	-15.805530
11932.026064	2855.515000	1826.510742	117.399361
11932.026064	2855.515000	1825.513672	-54.057030
11932.026064	2855.515000	1824.517578	-0.044743
11932.026064	2855.515000	1823.520508	-44.362064
11932.026064	2855.515000	1822.523438	-127.024666
11932.026064	2855.515000	1821.526367	20.410631
11932.026064	2855.515000	1820.529297	88.708282
11932.026064	2855.515000	1819.531250	-113.747292
11932.026064	2855.515000	1818.533203	-7.147056
11932.026064	2855.515000	1817.535156	82.639648
11932.026064	2855.515000	1816.537109	-16.772133
11932.026064	2855.515000	1815.539063	-27.581343
11932.026064	2855.515000	1814.540039	131.536301
11932.026064	2855.515000	1813.541992	170.935516
11932.026064	2855.515000	1812.542969	-38.518646
11932.026064	2855.515000	1811.543945	29.579094
11932.026064	2855.515000	1810.543945	52.196526
11932.026064	2855.515000	1809.544922	165.661545
11932.026064	2855.515000	1808.544922	97.373329
11932.026064	2855.515000	1807.544922	-64.122208
11932.026064	2855.515000	1806.544922	25.364145
11932.026064	2855.515000	1805.544922	71.795540
11932.026064	2855.515000	1804.544922	10.694685
11932.026064	2855.515000	1803.543945	-24.125021
11932.026064	2855.515000	1802.542969	29.412651
11932.026064	2855.515000	1801.541992	195.133133
11932.026064	2855.515000	1800.541016	-102.326111
11932.026064	2855.515000	1799.539063	-39.300678
11932.026064	2855.515000	1798.538086	214.587845
11932.026064	2855.515000	1797.536133	108.110893
11932.026064	2855.515000	1796.534180	11.201212
11932.026064	2855.515000	1795.532227	66.944481
11932.026064	2855.515000	1794.529297	101.190094
11932.026064	2855.515000	1793.527344	-38.620918
11932.026064	2855.515000	1792.524414	-42.536098
11932.026064	2855.515000	1791.521484	15.493556
11932.026064	2855.515000	1790.518555	97.311531
11932.026064	2855.515000	1789.514648	-85.341263
11932.026064	2855.515000	1788.511719	27.393339
11932.026064	2855.515000	1787.507813	75.771355
11932.026064	2855.515000	1786.503906	-33.019482
11932.026064	2855.515000	1785.500000	-141.787552
11932.026064	2855.515000	1784.496094	-19.680578
11932.026064	2855.515000	1783.491211	-73.720932
11932.026064	2855.515000	1782.486328	41.149784
11932.026064	2855.515000	1781.481445	101.251610
11932.026064	2855.515000	1780.476563	132.774216
11932.026064	2855.515000	1779.471680	178.531281
11932.026064	2855.515000	1778.465820	76.861671
11932.026064	2855.515000	1777.460938	241.409561
11932.026064	2855.515000	1776.455078	89.824150
11932.026064	2855.515000	1775.449219	-71.227661
11932.026064	2855.515000	1774.442383	26.676437
11932.026064	2855.515000	1773.436523	39.026443
11932.026064	2855.515000	1772.429688	120.207733
11932.026064	2855.515000	1771.422852	-112.037010
11932.026064	2855.515000	1770.416016	78.283630
11932.026064	2855.515000	1769.409180	33.568310
11932.026064	2855.515000	1768.402344	74.264503
11932.026064	2855.515000	1767.394531	93.569267
11932.026064	2855.515000	1766.386719	8.484172
11932.026064	2855.515000	1765.378906	11.147616
11932.026064	2855.515000	1764.371094	-71.565674
11932.026064	2855.515000	1763.362305	49.583279
11932.026064	2855.515000	1762.354492	-14.194859
11932.026064	2855.515000	1761.345703	38.130848
11932.026064	2855.515000	1760.336914	59.613850
11932.026064	2855.515000	1759.328125	-89.478539
11932.026064	2855.515000	1758.318359	12.485132
11932.026064	2855.515000	1757.308594	-20.577360
11932.026064	2855.515000	1756.299805	119.161537
11932.026064	2855.515000	1755.290039	107.340401
11932.026064	2855.515000	1754.279297	36.334866
11932.026064	2855.515000	1753.269531	-8.642978
11932.026064	2855.515000	1752.258789	-98.577744
11932.026064	2855.515000	1751.249023	-46.601006
11932.026064	2855.515000	1750.238281	-79.800003
11932.026064	2855.515000	1749.226563	73.748268
11932.026064	2855.515000	1748.215820	101.938293
11932.026064	2855.515000	1747.204102	92.273972
11932.026064	2855.515000	1746.193359	-16.648932
11932.026064	2855.515000	1745.181641	-175.171341
11932.026064	2855.515000	1744.168945	-168.335068
11932.026064	2855.515000	1743.157227	-97.769302
11932.026064	2855.515000	1742.144531	-34.346352
11932.026064	2855.515000	1741.132813	102.201691
11932.026064	2855.515000	1740.120117	66.378380
11932.026064	2855.515000	1739.106445	30.534979
11932.026064	2855.515000	1738.093750	15.909777
11932.026064	2855.515000	1737.080078	-45.918629
11932.026064	2855.515000	1736.067383	-60.585842
11932.026064	2855.515000	1735.053711	21.387989
11932.026064	2855.515000	1734.040039	-99.435143
11932.026064	2855.515000	1733.025391	1.302657
11932.026064	2855.515000	1732.011719	-60.622845
11932.026064	2855.515000	1730.997070	87.124435
11932.026064	2855.515000	1729.982422	18.070488
11932.026064	2855.515000	1728.967773	87.961708
11932.026064	2855.515000	1727.952148	-75.323151
11932.026064	2855.515000	1726.937500	20.389458
11932.026064	2855.515000	1725.921875	-62.858608
11932.026064	2855.515000	1724.906250	-106.102226
11932.026064	2855.515000	1723.890625	-114.070076
11932.026064	2855.515000	1722.875000	4.961785
11932.026064	2855.515000	1721.858398	34.534565
11932.026064	2855.515000	1720.841797	-124.059822
11932.026064	2855.515000	1719.825195	-28.712633
11932.026064	2855.515000	1718.808594	-1.605181
11932.026064	2855.515000	1717.791992	1.955757
11932.026064	2855.515000	1716.774414	-8.623037
11932.026064	2855.515000	1715.756836	51.245457
11932.026064	2855.515000	1714.739258	96.962471
11932.026064	2855.515000	1713.721680	11.117727
11932.026064	2855.515000	1712.704102	-23.076006
11932.026064	2855.515000	1711.685547	102.331375
11932.026064	2855.515000	1710.667969	-138.476730
11932.026064	2855.515000	1709.649414	45.496658
11932.026064	2855.515000	1708.630859	-31.056690
11932.026064	2855.515000	1707.611328	77.686752
11932.026064	2855.515000	1706.592773	8.119642
11932.026064	2855.515000	1705.573242	-63.807171
11932.026064	2855.515000	1704.553711	150.264236
11932.026064	2855.515000	1703.534180	66.544739
11932.026064	2855.515000	1702.513672	1.562788
11932.026064	2855.515000	1701.494141	-51.711441
11932.026064	2855.515000	1700.473633	-67.527122
11932.026064	2855.515000	1699.453125	-13.111588
11932.026064	2855.515000	1698.432617	-57.102573
11932.026064	2855.515000	1697.412109	93.203484
11932.026064	2855.515000	1696.390625	-25.774010
11932.026064	2855.515000	1695.369141	140.770004
11932.026064	2855.515000	1694.347656	143.424850
11932.026064	2855.515000	1693.326172	96.913658
11932.026064	2855.515000	1692.304688	62.077702
11932.026064	2855.515000	1691.282227	310.167816
11932.026064	2855.515000	1690.260742	130.270645
11932.026064	2855.515000	1689.238281	-12.199080
11932.026064	2855.515000	1688.214844	34.650635
11932.026064	2855.515000	1687.192383	170.242615
11932.026064	2855.515000	1686.168945	317.421570
11932.026064	2855.515000	1685.146484	153.851700
11932.026064	2855.515000	1684.123047	39.343857
11932.026064	2855.515000	1683.099609	132.646454
11932.026064	2855.515000	1682.075195	92.807426
11932.026064	2855.515000	1681.051758	230.333038
11932.026064	2855.515000	1680.027344	52.736580
11932.026064	2855.515000	1679.002930	145.808090
11932.026064	2855.515000	1677.978516	101.179970
11932.026064	2855.515000	1676.953125	231.440033
11932.026064	2855.515000	1675.928711	-4.465120
11932.026064	2855.515000	1674.903320	39.432056
11932.026064	2855.515000	1673.877930	-100.861870
11932.026064	2855.515000	1672.852539	122.401237
11932.026064	2855.515000	1671.826172	152.150864
11932.026064	2855.515000	1670.800781	172.538559
11932.026064	2855.515000	1669.774414	127.662422
11932.026064	2855.515000	1668.748047	120.023361
11932.026064	2855.515000	1667.721680	219.444748
11932.026064	2855.515000	1666.694336	237.316360
11932.026064	2855.515000	1665.667969	224.895096
11932.026064	2855.515000	1664.640625	307.834412
11932.026064	2855.515000	1663.613281	169.702820
11932.026064	2855.515000	1662.585938	175.792450
11932.026064	2855.515000	1661.557617	230.671661
11932.026064	2855.515000	1660.530273	329.674866
11932.026064	2855.515000	1659.501953	379.781403
11932.026064	2855.515000	1658.473633	99.811897
11932.026064	2855.515000	1657.444336	342.728180
11932.026064	2855.515000	1656.416016	320.676453
11932.026064	2855.515000	1655.386719	451.892670
11932.026064	2855.515000	1654.358398	334.542694
11932.026064	2855.515000	1653.328125	447.054352
11932.026064	2855.515000	1652.298828	492.172089
11932.026064	2855.515000	1651.269531	309.785431
11932.026064	2855.515000	1650.239258	176.157776
11932.026064	2855.515000	1649.208984	432.316132
11932.026064	2855.515000	1648.178711	249.936554
11932.026064	2855.515000	1647.148438	287.912811
11932.026064	2855.515000	1646.117188	311.922272
11932.026064	2855.515000	1645.086914	699.860901
11932.026064	2855.515000	1644.055664	549.878113
11932.026064	2855.515000	1643.024414	471.758972
11932.026064	2855.515000	1641.992188	504.841858
11932.026064	2855.515000	1640.960938	454.492737
11932.026064	2855.515000	1639.928711	668.149902
11932.026064	2855.515000	1638.896484	606.139526
11932.026064	2855.515000	1637.864258	483.928650
11932.026064	2855.515000	1636.832031	671.899475
11932.026064	2855.515000	1635.798828	612.137390
11932.026064	2855.515000	1634.766602	591.707825
11932.026064	2855.515000	1633.733398	464.836914
11932.026064	2855.515000	1632.699219	617.834473
11932.026064	2855.515000	1631.666016	747.625488
11932.026064	2855.515000	1630.632813	629.954590
11932.026064	2855.515000	1629.598633	570.081726
11932.026064	2855.515000	1628.564453	683.532715
11932.026064	2855.515000	1627.530273	584.334229
11932.026064	2855.515000	1626.495117	732.326355
11932.026064	2855.515000	1625.460938	771.683533
11932.026064	2855.515000	1624.425781	727.856018
11932.026064	2855.515000	1623.390625	905.665588
11932.026064	2855.515000	1622.355469	859.466125
11932.026064	2855.515000	1621.319336	635.540039
11932.026064	2855.515000	1620.284180	667.812012
11932.026064	2855.515000	1619.248047	695.424500
11932.026064	2855.515000	1618.211914	681.481567
11932.026064	2855.515000	1617.174805	794.349670
11932.026064	2855.515000	1616.138672	708.866638
11932.026064	2855.515000	1615.101563	918.455078
11932.026064	2855.515000	1614.065430	768.398376
11932.026064	2855.515000	1613.027344	728.970215
11932.026064	2855.515000	1611.990234	949.881165
11932.026064	2855.515000	1610.953125	721.512146
11932.026064	2855.515000	1609.915039	626.775208
11932.026064	2855.515000	1608.876953	937.301086
11932.026064	2855.515000	1607.838867	978.339294
11932.026064	2855.515000	1606.800781	998.625671
11932.026064	2855.515000	1605.761719	685.202087
11932.026064	2855.515000	1604.723633	926.368835
11932.026064	2855.515000	1603.684570	829.268921
11932.026064	2855.515000	1602.644531	863.272949
11932.026064	2855.515000	1601.605469	943.239807
11932.026064	2855.515000	1600.566406	788.662659
11932.026064	2855.515000	1599.526367	1132.897827
11932.026064	2855.515000	1598.486328	976.004028
11932.026064	2855.515000	1597.446289	899.569641
11932.026064	2855.515000	1596.405273	855.302429
11932.026064	2855.515000	1595.365234	1052.198486
11932.026064	2855.515000	1594.324219	1111.218750
11932.026064	2855.515000	1593.283203	1046.226807
11932.026064	2855.515000	1592.242188	1077.650757
11932.026064	2855.515000	1591.200195	1118.221191
11932.026064	2855.515000	1590.159180	1066.990479
11932.026064	2855.515000	1589.117188	914.822144
11932.026064	2855.515000	1588.075195	978.296509
11932.026064	2855.515000	1587.032227	1094.469116
11932.026064	2855.515000	1585.990234	1155.567383
11932.026064	2855.515000	1584.947266	810.899048
11932.026064	2855.515000	1583.904297	938.462524
11932.026064	2855.515000	1582.861328	1098.044434
11932.026064	2855.515000	1581.818359	1156.755737
11932.026064	2855.515000	1580.775391	1045.942627
11932.026064	2855.515000	1579.731445	795.469116
11932.026064	2855.515000	1578.687500	961.781006
11932.026064	2855.515000	1577.643555	830.439270
11932.026064	2855.515000	1576.598633	923.421326
11932.026064	2855.515000	1575.554688	734.921692
11932.026064	2855.515000	1574.509766	926.247925
11932.026064	2855.515000	1573.464844	909.351624
11932.026064	2855.515000	1572.419922	784.974487
11932.026064	2855.515000	1571.374023	1145.352783
11932.026064	2855.515000	1570.329102	952.392944
11932.026064	2855.515000	1569.283203	1015.475708
11932.026064	2855.515000	1568.237305	774.619202
11932.026064	2855.515000	1567.191406	798.870789
11932.026064	2855.515000	1566.144531	781.990112
11932.026064	2855.515000	1565.098633	730.867004
11932.026064	2855.515000	1564.051758	666.058167
11932.026064	2855.515000	1563.004883	640.083496
11932.026064	2855.515000	1561.957031	814.961487
11932.026064	2855.515000	1560.910156	768.435364
11932.026064	2855.515000	1559.862305	856.528687
11932.026064	2855.515000	1558.814453	737.018250
11932.026064	2855.515000	1557.766602	704.221069
11932.026064	2855.515000	1556.718750	573.396545
11932.026064	2855.515000	1555.669922	467.697876
11932.026064	2855.515000	1554.621094	687.976074
11932.026064	2855.515000	1553.573242	734.995117
11932.026064	2855.515000	1552.523438	690.854187
11932.026064	2855.515000	1551.474609	662.692627
11932.026064	2855.515000	1550.424805	707.419922
11932.026064	2855.515000	1549.375000	633.736633
11932.026064	2855.515000	1548.325195	635.217590
11932.026064	2855.515000	1547.275391	670.849731
11932.026064	2855.515000	1546.225586	604.075073
11932.026064	2855.515000	1545.174805	596.486572
11932.026064	2855.515000	1544.124023	638.958374
11932.026064	2855.515000	1543.073242	667.780212
11932.026064	2855.515000	1542.022461	717.069946
11932.026064	2855.515000	1540.970703	816.361938
11932.026064	2855.515000	1539.919922	590.604980
11932.026064	2855.515000	1538.868164	699.002991
11932.026064	2855.515000	1537.815430	734.661987
11932.026064	2855.515000	1536.763672	547.714478
11932.026064	2855.515000	1535.710938	572.068420
11932.026064	2855.515000	1534.659180	734.951843
11932.026064	2855.515000	1533.606445	725.243469
11932.026064	2855.515000	1532.552734	499.918671
11932.026064	2855.515000	1531.500000	626.462158
11932.026064	2855.515000	1530.446289	539.691345
11932.026064	2855.515000	1529.393555	514.232483
11932.026064	2855.515000	1528.338867	413.946655
11932.026064	2855.515000	1527.285156	447.518036
11932.026064	2855.515000	1526.231445	460.694946
11932.026064	2855.515000	1525.176758	385.484802
11932.026064	2855.515000	1524.122070	328.458679
11932.026064	2855.515000	1523.067383	493.527435
11932.026064	2855.515000	1522.012695	443.350891
11932.026064	2855.515000	1520.957031	259.585876
11932.026064	2855.515000	1519.901367	177.820038
11932.026064	2855.515000	1518.845703	351.947571
11932.026064	2855.515000	1517.790039	354.005280
11932.026064	2855.515000	1516.734375	322.145172
11932.026064	2855.515000	1515.677734	376.302490
11932.026064	2855.515000	1514.621094	208.773804
11932.026064	2855.515000	1513.564453	210.973770
11932.026064	2855.515000	1512.507813	45.868866
11932.026064	2855.515000	1511.450195	201.898422
11932.026064	2855.515000	1510.393555	172.551880
11932.026064	2855.515000	1509.335938	152.285477
11932.026064	2855.515000	1508.278320	100.427711
11932.026064	2855.515000	1507.219727	227.087021
11932.026064	2855.515000	1506.162109	-30.226936
11932.026064	2855.515000	1505.103516	-145.142609
11932.026064	2855.515000	1504.044922	-22.914658
11932.026064	2855.515000	1502.986328	13.525914
11932.026064	2855.515000	1501.926758	-135.074600
11932.026064	2855.515000	1500.868164	-109.828979
11932.026064	2855.515000	1499.808594	-5.601660
11932.026064	2855.515000	1498.749023	-131.434586
11932.026064	2855.515000	1497.688477	22.443129
11932.026064	2855.515000	1496.628906	18.485729
11932.026064	2855.515000	1495.568359	79.937515
11932.026064	2855.515000	1494.507813	28.723167
11932.026064	2855.515000	1493.447266	96.995621
11932.026064	2855.515000	1492.386719	-224.448624
11932.026064	2855.515000	1491.325195	28.623455
11932.026064	2855.515000	1490.263672	49.694950
11932.026064	2855.515000	1489.202148	262.178558
11932.026064	2855.515000	1488.140625	-47.608738
11932.026064	2855.515000	1487.079102	9.615879
11932.026064	2855.515000	1486.016602	-104.147751
11932.026064	2855.515000	1484.954102	-35.594505
11932.026064	2855.515000	1483.891602	-173.946487
11932.026064	2855.515000	1482.829102	-22.100571
11932.026064	2855.515000	1481.765625	-43.385838
11932.026064	2855.515000	1480.702148	20.809259
11932.026064	2855.515000	1479.638672	-43.074291
11932.026064	2855.515000	1478.575195	160.486526
11932.026064	2855.515000	1477.511719	-118.902267
11932.026064	2855.515000	1476.447266	167.773254
11932.026064	2855.515000	1475.382813	133.340210
11932.026064	2855.515000	1474.318359	-17.772156
11932.026064	2855.515000	1473.253906	-2.709804
11932.026064	2855.515000	1472.189453	57.352020
11932.026064	2855.515000	1471.124023	9.868917
11932.026064	2855.515000	1470.058594	78.794647
11932.026064	2855.515000	1468.993164	98.577972
11932.026064	2855.515000	1467.927734	161.054367
11932.026064	2855.515000	1466.861328	-87.683647
11932.026064	2855.515000	1465.794922	106.916084
11932.026064	2855.515000	1464.728516	196.123611
11932.026064	2855.515000	1463.662109	236.285110
11932.026064	2855.515000	1462.594727	242.974777
11932.026064	2855.515000	1461.528320	169.307495
11932.026064	2855.515000	1460.460938	283.628448
11932.026064	2855.515000	1459.393555	283.622223
11932.026064	2855.515000	1458.326172	158.452408
11932.026064	2855.515000	1457.257813	196.882889
11932.026064	2855.515000	1456.189453	295.485779
11932.026064	2855.515000	1455.121094	384.913849
11932.026064	2855.515000	1454.052734	182.599243
11932.026064	2855.515000	1452.984375	249.740616
11932.026064	2855.515000	1451.915039	301.618774
11932.026064	2855.515000	1450.845703	284.176575
11932.026064	2855.515000	1449.776367	445.614624
11932.026064	2855.515000	1448.707031	350.410950
11932.026064	2855.515000	1447.636719	544.635559
11932.026064	2855.515000	1446.567383	243.543213
11932.026064	2855.515000	1445.497070	348.726807
11932.026064	2855.515000	1444.425781	226.391083
11932.026064	2855.515000	1443.355469	279.755127
11932.026064	2855.515000	1442.285156	463.003418
11932.026064	2855.515000	1441.213867	233.144867
11932.026064	2855.515000	1440.142578	286.122620
11932.026064	2855.515000	1439.070313	280.098083
11932.026064	2855.515000	1437.999023	295.122681
11932.026064	2855.515000	1436.926758	265.785492
11932.026064	2855.515000	1435.854492	247.607498
11932.026064	2855.515000	1434.782227	287.234558
11932.026064	2855.515000	1433.709961	307.714844
11932.026064	2855.515000	1432.636719	176.245300
11932.026064	2855.515000	1431.563477	446.978455
11932.026064	2855.515000	1430.490234	531.270081
11932.026064	2855.515000	1429.416992	420.615570
11932.026064	2855.515000	1428.343750	370.812195
11932.026064	2855.515000	1427.269531	409.229034
11932.026064	2855.515000	1426.195313	552.160828
11932.026064	2855.515000	1425.121094	359.928101
11932.026064	2855.515000	1424.046875	359.196259
11932.026064	2855.515000	1422.971680	141.170593
11932.026064	2855.515000	1421.896484	154.805649
11932.026064	2855.515000	1420.821289	72.496239
11932.026064	2855.515000	1419.746094	120.682068
11932.026064	2855.515000	1418.669922	169.092163
11932.026064	2855.515000	1417.594727	66.053467
11932.026064	2855.515000	1416.518555	48.429123
11932.026064	2855.515000	1415.442383	38.834332
11932.026064	2855.515000	1414.365234	20.070658
11932.026064	2855.515000	1413.289063	-67.399834
11932.026064	2855.515000	1412.211914	-10.716371
11932.026064	2855.515000	1411.134766	22.645113
11932.026064	2855.515000	1410.057617	136.177002
11932.026064	2855.515000	1408.979492	39.856964
11932.026064	2855.515000	1407.902344	49.739071
11932.026064	2855.515000	1406.824219	144.643799
11932.026064	2855.515000	1405.746094	238.368210
11932.026064	2855.515000	1404.666992	162.090485
11932.026064	2855.515000	1403.588867	107.407990
11932.026064	2855.515000	1402.509766	224.655426
11932.026064	2855.515000	1401.430664	89.236008
11932.026064	2855.515000	1400.351563	214.268036
11932.026064	2855.515000	1399.271484	62.224915
11932.026064	2855.515000	1398.192383	194.296967
11932.026064	2855.515000	1397.112305	206.426102
11932.026064	2855.515000	1396.031250	183.855789
11932.026064	2855.515000	1394.951172	153.815933
11932.026064	2855.515000	1393.871094	-34.858624
11932.026064	2855.515000	1392.790039	292.119446
11932.026064	2855.515000	1391.708984	266.003143
11932.026064	2855.515000	1390.626953	150.702026
11932.026064	2855.515000	1389.545898	216.627762
11932.026064	2855.515000	1388.463867	54.716587
11932.026064	2855.515000	1387.381836	159.372559
11932.026064	2855.515000	1386.299805	111.738274
11932.026064	2855.515000	1385.217773	314.346985
11932.026064	2855.515000	1384.134766	393.266815
11932.026064	2855.515000	1383.051758	143.055786
11932.026064	2855.515000	1381.968750	200.311569
11932.026064	2855.515000	1380.885742	170.331009
11932.026064	2855.515000	1379.802734	216.281113
11932.026064	2855.515000	1378.718750	198.214737
11932.026064	2855.515000	1377.634766	151.934586
11932.026064	2855.515000	1376.550781	153.851746
11932.026064	2855.515000	1375.465820	66.770294
11932.026064	2855.515000	1374.381836	143.674820
11932.026064	2855.515000	1373.296875	304.139343
11932.026064	2855.515000	1372.211914	153.734741
11932.026064	2855.515000	1371.126953	193.846649
11932.026064	2855.515000	1370.041016	191.890808
11932.026064	2855.515000	1368.955078	224.990509
11932.026064	2855.515000	1367.869141	8.344908
11932.026064	2855.515000	1366.783203	-19.983622
11932.026064	2855.515000	1365.697266	151.878830
11932.026064	2855.515000	1364.610352	43.968472
11932.026064	2855.515000	1363.523438	21.008760
11932.026064	2855.515000	1362.436523	246.902893
11932.026064	2855.515000	1361.349609	116.490555
11932.026064	2855.515000	1360.261719	173.231079
11932.026064	2855.515000	1359.174805	157.749390
11932.026064	2855.515000	1358.086914	86.471146
11932.026064	2855.515000	1356.998047	119.602486
11932.026064	2855.515000	1355.910156	77.313728
11932.026064	2855.515000	1354.821289	134.168701
11932.026064	2855.515000	1353.732422	284.657684
11932.026064	2855.515000	1352.643555	243.101776
11932.026064	2855.515000	1351.554688	364.427521
11932.026064	2855.515000	1350.464844	269.096802
11932.026064	2855.515000	1349.375000	169.615204
11932.026064	2855.515000	1348.285156	354.778381
11932.026064	2855.515000	1347.195313	156.105621
11932.026064	2855.515000	1346.105469	317.312531
11932.026064	2855.515000	1345.014648	155.750916
11932.026064	2855.515000	1343.923828	388.755096
11932.026064	2855.515000	1342.833008	324.789642
11932.026064	2855.515000	1341.741211	147.982956
11932.026064	2855.515000	1340.650391	155.555923
11932.026064	2855.515000	1339.558594	253.938629
11932.026064	2855.515000	1338.466797	230.505920
11932.026064	2855.515000	1337.374023	204.228302
11932.026064	2855.515000	1336.282227	149.198105
11932.026064	2855.515000	1335.189453	295.157471
11932.026064	2855.515000	1334.096680	211.695786
11932.026064	2855.515000	1333.003906	31.447502
11932.026064	2855.515000	1331.910156	183.998642
11932.026064	2855.515000	1330.817383	172.781616
11932.026064	2855.515000	1329.723633	289.998230
11932.026064	2855.515000	1328.629883	367.845856
11932.026064	2855.515000	1327.535156	17.170588
11932.026064	2855.515000	1326.441406	145.897400
11932.026064	2855.515000	1325.346680	303.489349
11932.026064	2855.515000	1324.251953	218.110336
11932.026064	2855.515000	1323.156250	117.933815
11932.026064	2855.515000	1322.061523	73.725990
11932.026064	2855.515000	1320.965820	126.723877
11932.026064	2855.515000	1319.870117	202.836197
11932.026064	2855.515000	1318.774414	239.814453
11932.026064	2855.515000	1317.678711	290.097687
11932.026064	2855.515000	1316.582031	225.062820
11932.026064	2855.515000	1315.485352	269.752075
11932.026064	2855.515000	1314.388672	179.913025
11932.026064	2855.515000	1313.291016	292.340790
11932.026064	2855.515000	1312.194336	290.101044
11932.026064	2855.515000	1311.096680	220.962219
11932.026064	2855.515000	1309.999023	237.782593
11932.026064	2855.515000	1308.901367	155.804840
11932.026064	2855.515000	1307.802734	299.583099
11932.026064	2855.515000	1306.705078	83.992958
11932.026064	2855.515000	1305.606445	106.498772
11932.026064	2855.515000	1304.506836	147.575790
11932.026064	2855.515000	1303.408203	175.923431
11932.026064	2855.515000	1302.308594	111.759308
11932.026064	2855.515000	1301.208984	115.844452
11932.026064	2855.515000	1300.109375	30.658787
11932.026064	2855.515000	1299.009766	96.931259
11932.026064	2855.515000	1297.909180	-56.620407
11932.026064	2855.515000	1296.808594	13.447178
11932.026064	2855.515000	1295.708008	94.498680
11932.026064	2855.515000	1294.607422	138.853836
11932.026064	2855.515000	1293.506836	30.312860
11932.026064	2855.515000	1292.405273	40.739235
11932.026064	2855.515000	1291.303711	30.891462
11932.026064	2855.515000	1290.202148	5.696678
11932.026064	2855.515000	1289.099609	163.545868
11932.026064	2855.515000	1287.998047	-59.592731
11932.026064	2855.515000	1286.895508	-108.242180
11932.026064	2855.515000	1285.792969	49.978771
11932.026064	2855.515000	1284.689453	161.068710
11932.026064	2855.515000	1283.586914	-40.115894
11932.026064	2855.515000	1282.483398	4.027293
11932.026064	2855.515000	1281.379883	99.226944
11932.026064	2855.515000	1280.276367	72.879875
11932.026064	2855.515000	1279.171875	22.029827
11932.026064	2855.515000	1278.067383	-69.109352
11932.026064	2855.515000	1276.962891	-24.859598
11932.026064	2855.515000	1275.858398	40.147560
11932.026064	2855.515000	1274.753906	32.967121
11932.026064	2855.515000	1273.648438	8.828595
11932.026064	2855.515000	1272.542969	17.765873
11932.026064	2855.515000	1271.437500	51.125931
11932.026064	2855.515000	1270.331055	68.773163
11932.026064	2855.515000	1269.225586	-43.898220
11932.026064	2855.515000	1268.119141	-17.649933
11932.026064	2855.515000	1267.012695	-34.342861
11932.026064	2855.515000	1265.906250	-41.132000
11932.026064	2855.515000	1264.798828	-115.879326
11932.026064	2855.515000	1263.691406	-219.309143
11932.026064	2855.515000	1262.583984	-214.641907
11932.026064	2855.515000	1261.476563	25.433197
11932.026064	2855.515000	1260.368164	9.981104
11932.026064	2855.515000	1259.260742	49.787800
11932.026064	2855.515000	1258.152344	26.837410
11932.026064	2855.515000	1257.043945	50.711994
11932.026064	2855.515000	1255.934570	5.653374
11932.026064	2855.515000	1254.825195	75.170288
11932.026064	2855.515000	1253.716797	-2.952318
11932.026064	2855.515000	1252.606445	93.783211
11932.026064	2855.515000	1251.497070	-47.041214
11932.026064	2855.515000	1250.387695	17.289928
11932.026064	2855.515000	1249.277344	-66.975494
11932.026064	2855.515000	1248.166992	81.815552
11932.026064	2855.515000	1247.055664	-8.921041
11932.026064	2855.515000	1245.945313	-8.690201
11932.026064	2855.515000	1244.833984	95.429512
11932.026064	2855.515000	1243.722656	-116.637520
11932.026064	2855.515000	1242.611328	35.624538
11932.026064	2855.515000	1241.499023	95.911987
11932.026064	2855.515000	1240.387695	6.683449
11932.026064	2855.515000	1239.275391	113.426079
11932.026064	2855.515000	1238.162109	108.855011
11932.026064	2855.515000	1237.049805	184.254852
11932.026064	2855.515000	1235.936523	-31.698599
11932.026064	2855.515000	1234.823242	95.900230
11932.026064	2855.515000	1233.709961	37.061295
11932.026064	2855.515000	1232.596680	57.957642
11932.026064	2855.515000	1231.482422	101.831680
11932.026064	2855.515000	1230.369141	0.994106
11932.026064	2855.515000	1229.253906	59.039993
11932.026064	2855.515000	1228.139648	12.230109
11932.026064	2855.515000	1227.025391	3.489498
11932.026064	2855.515000	1225.910156	-82.619026
11932.026064	2855.515000	1224.794922	-67.286774
11932.026064	2855.515000	1223.679688	-57.947166
11932.026064	2855.515000	1222.563477	-110.629128
11932.026064	2855.515000	1221.447266	-128.418564
11932.026064	2855.515000	1220.331055	71.675896
11932.026064	2855.515000	1219.214844	-47.072109
11932.026064	2855.515000	1218.098633	-54.410458
11932.026064	2855.515000	1216.981445	-161.096527
11932.026064	2855.515000	1215.864258	33.048351
11932.026064	2855.515000	1214.747070	-72.114326
11932.026064	2855.515000	1213.629883	-60.314854
11932.026064	2855.515000	1212.511719	-44.740242
11932.026064	2855.515000	1211.393555	10.338895
11932.026064	2855.515000	1210.275391	-16.411253
11932.026064	2855.515000	1209.157227	98.957741
11932.026064	2855.515000	1208.038086	43.683689
11932.026064	2855.515000	1206.918945	56.909031
11932.026064	2855.515000	1205.799805	-158.228363
11932.026064	2855.515000	1204.680664	-85.063263
11932.026064	2855.515000	1203.560547	66.157791
11932.026064	2855.515000	1202.441406	4.738959
11932.026064	2855.515000	1201.321289	58.832512
11932.026064	2855.515000	1200.200195	-51.700027
11932.026064	2855.515000	1199.080078	-52.550617
11932.026064	2855.515000	1197.958984	-126.507393
11932.026064	2855.515000	1196.837891	-36.919178
11932.026064	2855.515000	1195.716797	14.054070
11932.026064	2855.515000	1194.594727	86.822090
11932.026064	2855.515000	1193.473633	64.015182
11932.026064	2855.515000	1192.351563	-49.651840
11932.026064	2855.515000	1191.229492	-57.979946
11932.026064	2855.515000	1190.106445	-91.659004
11932.026064	2855.515000	1188.984375	-64.867271
11932.026064	2855.515000	1187.861328	-78.357742
11932.026064	2855.515000	1186.738281	-42.848347
11932.026064	2855.515000	1185.614258	-43.086586
11932.026064	2855.515000	1184.491211	41.370419
11932.026064	2855.515000	1183.367188	-1.568244
11932.026064	2855.515000	1182.243164	10.193972
11932.026064	2855.515000	1181.119141	-31.989202
11932.026064	2855.515000	1179.994141	-61.841858
11932.026064	2855.515000	1178.869141	34.295082
11932.026064	2855.515000	1177.744141	-46.335968
11932.026064	2855.515000	1176.619141	84.552322
11932.026064	2855.515000	1175.493164	10.024894
11932.026064	2855.515000	1174.368164	-95.048431
11932.026064	2855.515000	1173.242188	-52.808521
11932.026064	2855.515000	1172.115234	-11.756157
11932.026064	2855.515000	1170.989258	-34.812439
11932.026064	2855.515000	1169.862305	-93.089012
11932.026064	2855.515000	1168.735352	-65.620995
11932.026064	2855.515000	1167.608398	51.904350
11932.026064	2855.515000	1166.481445	122.715805
11932.026064	2855.515000	1165.353516	-85.531967
11932.026064	2855.515000	1164.225586	-48.256809
11932.026064	2855.515000	1163.097656	46.211452
11932.026064	2855.515000	1161.968750	94.846786
11932.026064	2855.515000	1160.840820	41.138588
11932.026064	2855.515000	1159.711914	73.321609
11932.026064	2855.515000	1158.583008	52.532787
11932.026064	2855.515000	1157.453125	-30.678783
11932.026064	2855.515000	1156.324219	137.047577
11932.026064	2855.515000	1155.194336	40.646637
11932.026064	2855.515000	1154.064453	112.276947
11932.026064	2855.515000	1152.933594	70.774628
11932.026064	2855.515000	1151.803711	18.796942
11932.026064	2855.515000	1150.672852	32.844913
11932.026064	2855.515000	1149.541992	75.610390
11932.026064	2855.515000	1148.411133	-44.106506
11932.026064	2855.515000	1147.279297	138.640121
11932.026064	2855.515000	1146.147461	162.447464
11932.026064	2855.515000	1145.015625	114.062462
11932.026064	2855.515000	1143.883789	17.629980
11932.026064	2855.515000	1142.750977	157.031845
11932.026064	2855.515000	1141.619141	201.312088
11932.026064	2855.515000	1140.486328	347.464935
11932.026064	2855.515000	1139.352539	316.509186
11932.026064	2855.515000	1138.219727	401.795776
11932.026064	2855.515000	1137.085938	372.103394
11932.026064	2855.515000	1135.952148	365.857666
11932.026064	2855.515000	1134.818359	237.169357
11932.026064	2855.515000	1133.683594	311.916168
11932.026064	2855.515000	1132.549805	344.087036
11932.026064	2855.515000	1131.415039	396.376373
11932.026064	2855.515000	1130.279297	397.964203
11932.026064	2855.515000	1129.144531	414.949036
11932.026064	2855.515000	1128.008789	418.681366
11932.026064	2855.515000	1126.873047	600.211182
11932.026064	2855.515000	1125.737305	510.498901
11932.026064	2855.515000	1124.601563	504.286163
11932.026064	2855.515000	1123.464844	555.913269
11932.026064	2855.515000	1122.328125	435.928497
11932.026064	2855.515000	1121.191406	466.416229
11932.026064	2855.515000	1120.054688	439.521515
11932.026064	2855.515000	1118.916992	526.483948
11932.026064	2855.515000	1117.779297	606.631226
11932.026064	2855.515000	1116.641602	532.489197
11932.026064	2855.515000	1115.503906	549.012512
11932.026064	2855.515000	1114.365234	605.672058
11932.026064	2855.515000	1113.226563	478.908020
11932.026064	2855.515000	1112.087891	456.555878
11932.026064	2855.515000	1110.949219	341.457458
11932.026064	2855.515000	1109.809570	411.765717
11932.026064	2855.515000	1108.669922	360.343323
11932.026064	2855.515000	1107.530273	424.538544
11932.026064	2855.515000	1106.390625	418.378754
11932.026064	2855.515000	1105.250000	451.610016
11932.026064	2855.515000	1104.109375	582.877930
11932.026064	2855.515000	1102.968750	387.311066
11932.026064	2855.515000	1101.828125	586.435364
11932.026064	2855.515000	1100.686523	443.934174
11932.026064	2855.515000	1099.544922	531.879211
11932.026064	2855.515000	1098.403320	620.495117
11932.026064	2855.515000	1097.261719	608.878784
11932.026064	2855.515000	1096.120117	508.210052
11932.026064	2855.515000	1094.977539	551.217407
11932.026064	2855.515000	1093.834961	493.586639
11932.026064	2855.515000	1092.691406	516.252258
11932.026064	2855.515000	1091.548828	559.126343
11932.026064	2855.515000	1090.405273	438.880554
11932.026064	2855.515000	1089.261719	605.737915
11932.026064	2855.515000	1088.118164	755.928162
11932.026064	2855.515000	1086.973633	540.486206
11932.026064	2855.515000	1085.829102	553.331970
11932.026064	2855.515000	1084.684570	589.030640
11932.026064	2855.515000	1083.540039	491.381805
11932.026064	2855.515000	1082.395508	496.270416
11932.026064	2855.515000	1081.250000	513.136536
11932.026064	2855.515000	1080.104492	413.488220
11932.026064	2855.515000	1078.958984	417.651459
11932.026064	2855.515000	1077.812500	549.919678
11932.026064	2855.515000	1076.666016	548.787476
11932.026064	2855.515000	1075.519531	464.708801
11932.026064	2855.515000	1074.373047	334.005219
11932.026064	2855.515000	1073.226563	395.951416
11932.026064	2855.515000	1072.079102	405.581818
11932.026064	2855.515000	1070.931641	455.779572
11932.026064	2855.515000	1069.784180	309.647003
11932.026064	2855.515000	1068.635742	485.434723
11932.026064	2855.515000	1067.487305	501.781860
11932.026064	2855.515000	1066.338867	418.844086
11932.026064	2855.515000	1065.190430	432.997742
11932.026064	2855.515000	1064.041992	505.184082
11932.026064	2855.515000	1062.892578	602.692566
11932.026064	2855.515000	1061.743164	472.463379
11932.026064	2855.515000	1060.593750	390.218170
11932.026064	2855.515000	1059.443359	488.330200
11932.026064	2855.515000	1058.292969	483.885376
11932.026064	2855.515000	1057.142578	370.410034
11932.026064	2855.515000	1055.992188	388.492004
11932.026064	2855.515000	1054.841797	271.844116
11932.026064	2855.515000	1053.690430	431.314026
11932.026064	2855.515000	1052.539063	325.216034
11932.026064	2855.515000	1051.387695	311.654602
11932.026064	2855.515000	1050.235352	313.970367
11932.026064	2855.515000	1049.083984	348.063507
11932.026064	2855.515000	1047.931641	341.815491
11932.026064	2855.515000	1046.778320	329.799438
11932.026064	2855.515000	1045.625977	305.473389
11932.026064	2855.515000	1044.472656	345.753784
11932.026064	2855.515000	1043.319336	262.350861
11932.026064	2855.515000	1042.166016	430.062531
11932.026064	2855.515000	1041.012695	381.838104
11932.026064	2855.515000	1039.858398	529.934326
11932.026064	2855.515000	1038.704102	537.689148
11932.026064	2855.515000	1037.549805	433.195953
11932.026064	2855.515000	1036.394531	313.261200
11932.026064	2855.515000	1035.239258	528.901245
11932.026064	2855.515000	1034.083984	497.592773
11932.026064	2855.515000	1032.928711	499.378845
11932.026064	2855.515000	1031.773438	321.534027
11932.026064	2855.515000	1030.617188	509.610596
11932.026064	2855.515000	1029.460938	419.760071
11932.026064	2855.515000	1028.304688	489.200836
11932.026064	2855.515000	1027.147461	317.230652
11932.026064	2855.515000	1025.991211	421.298340
11932.026064	2855.515000	1024.833984	404.971436
11932.026064	2855.515000	1023.675781	513.958984
11932.026064	2855.515000	1022.518555	445.934204
11932.026064	2855.515000	1021.360352	275.212891
11932.026064	2855.515000	1020.202148	561.824463
11932.026064	2855.515000	1019.043945	356.152374
11932.026064	2855.515000	1017.884766	237.286118
11932.026064	2855.515000	1016.726563	173.860428
11932.026064	2855.515000	1015.567383	215.168137
11932.026064	2855.515000	1014.407227	295.199615
11932.026064	2855.515000	1013.248047	329.756409
11932.026064	2855.515000	1012.087891	481.310760
11932.026064	2855.515000	1010.927734	261.212921
11932.026064	2855.515000	1009.767578	429.175507
11932.026064	2855.515000	1008.606445	473.665070
11932.026064	2855.515000	1007.446289	84.894875
11932.026064	2855.515000	1006.285156	488.068634
11932.026064	2855.515000	1005.123047	370.039551
11932.026064	2855.515000	1003.961914	309.493347
11932.026064	2855.515000	1002.799805	386.677460
11932.026064	2855.515000	1001.637695	456.658783
11932.026064	2855.515000	1000.475586	505.217987
11932.026064	2855.515000	999.312500	380.959412
11932.026064	2855.515000	998.149414	441.118164
11932.026064	2855.515000	996.986328	487.430908
11932.026064	2855.515000	995.823242	363.646515
11932.026064	2855.515000	994.659180	422.419067
11932.026064	2855.515000	993.496094	324.558716
11932.026064	2855.515000	992.332031	340.999115
11932.026064	2855.515000	991.166992	328.038879
11932.026064	2855.515000	990.002930	420.859528
11932.026064	2855.515000	988.837891	259.509247
11932.026064	2855.515000	987.672852	422.650330
11932.026064	2855.515000	986.506836	423.196289
11932.026064	2855.515000	985.341797	415.971710
11932.026064	2855.515000	984.175781	367.251862
11932.026064	2855.515000	983.009766	375.720795
11932.026064	2855.515000	981.843750	222.481964
11932.026064	2855.515000	980.676758	306.816864
11932.026064	2855.515000	979.509766	159.370102
11932.026064	2855.515000	978.342773	284.728088
11932.026064	2855.515000	977.175781	255.254028
11932.026064	2855.515000	976.007813	273.252777
11932.026064	2855.515000	974.839844	357.113251
11932.026064	2855.515000	973.671875	276.416931
11932.026064	2855.515000	972.503906	201.423157
11932.026064	2855.515000	971.334961	224.454620
11932.026064	2855.515000	970.166016	126.863335
11932.026064	2855.515000	968.997070	179.454483
11932.026064	2855.515000	967.828125	254.230530
11932.026064	2855.515000	966.658203	153.434952
11932.026064	2855.515000	965.488281	319.199249
11932.026064	2855.515000	964.318359	238.019028
11932.026064	2855.515000	963.148438	263.535950
11932.026064	2855.515000	961.977539	200.771179
11932.026064	2855.515000	960.806641	329.858337
11932.026064	2855.515000	959.635742	362.842407
11932.026064	2855.515000	958.463867	363.352875
11932.026064	2855.515000	957.292969	542.100586
11932.026064	2855.515000	956.121094	410.045593
11932.026064	2855.515000	954.948242	390.798767
11932.026064	2855.515000	953.776367	287.011566
11932.026064	2855.515000	952.603516	297.102905
11932.026064	2855.515000	951.430664	84.900497
11932.026064	2855.515000	950.257813	358.187164
11932.026064	2855.515000	949.084961	267.253510
11932.026064	2855.515000	947.911133	249.629150
11932.026064	2855.515000	946.737305	356.549225
11932.026064	2855.515000	945.563477	234.043137
11932.026064	2855.515000	944.388672	421.968048
11932.026064	2855.515000	943.213867	354.225677
11932.026064	2855.515000	942.039063	425.439209
11932.026064	2855.515000	940.864258	243.199020
11932.026064	2855.515000	939.688477	413.838806
11932.026064	2855.515000	938.513672	453.854095
11932.026064	2855.515000	937.337891	292.943390
11932.026064	2855.515000	936.161133	446.974823
11932.026064	2855.515000	934.985352	386.564240
11932.026064	2855.515000	933.808594	445.123840
11932.026064	2855.515000	932.631836	417.813385
11932.026064	2855.515000	931.454102	304.580658
11932.026064	2855.515000	930.277344	348.789246
11932.026064	2855.515000	929.099609	493.210510
11932.026064	2855.515000	927.921875	413.373932
11932.026064	2855.515000	926.743164	562.462097
11932.026064	2855.515000	925.565430	310.831970
11932.026064	2855.515000	924.386719	211.855240
11932.026064	2855.515000	923.208008	258.320862
11932.026064	2855.515000	922.028320	245.169571
11932.026064	2855.515000	920.849609	170.031921
11932.026064	2855.515000	919.669922	170.251709
11932.026064	2855.515000	919.474609	204.548553
11932.026064	2855.515000	918.309570	374.785767
11932.026064	2855.515000	917.143555	282.925140
11932.026064	2855.515000	915.977539	157.741516
11932.026064	2855.515000	914.810547	325.441132
11932.026064	2855.515000	913.644531	240.726974
11932.026064	2855.515000	912.477539	122.709221
11932.026064	2855.515000	911.310547	135.591476
11932.026064	2855.515000	910.143555	43.775188
11932.026064	2855.515000	908.975586	175.557861
11932.026064	2855.515000	907.807617	71.847244
11932.026064	2855.515000	906.639648	91.793335
11932.026064	2855.515000	905.471680	-57.053978
11932.026064	2855.515000	904.303711	103.096901
11932.026064	2855.515000	903.134766	46.945251
11932.026064	2855.515000	901.965820	142.840286
11932.026064	2855.515000	900.796875	136.553085
11932.026064	2855.515000	899.626953	132.630554
11932.026064	2855.515000	898.457031	285.390656
11932.026064	2855.515000	897.287109	136.622101
11932.026064	2855.515000	896.117188	170.637405
11932.026064	2855.515000	894.947266	100.229660
11932.026064	2855.515000	893.776367	129.473495
11932.026064	2855.515000	892.605469	87.543915
11932.026064	2855.515000	891.434570	74.077675
11932.026064	2855.515000	890.262695	-93.490715
11932.026064	2855.515000	889.091797	234.387894
11932.026064	2855.515000	887.919922	76.318756
11932.026064	2855.515000	886.748047	200.254684
11932.026064	2855.515000	885.575195	63.563763
11932.026064	2855.515000	884.403320	0.341037
11932.026064	2855.515000	883.230469	27.117506
11932.026064	2855.515000	882.057617	44.408493
11932.026064	2855.515000	880.883789	165.831055
11932.026064	2855.515000	879.710938	-44.094921
11932.026064	2855.515000	878.537109	143.535049
11932.026064	2855.515000	877.362305	33.040802
11932.026064	2855.515000	876.188477	-39.570473
11932.026064	2855.515000	875.013672	211.777557
11932.026064	2855.515000	873.839844	184.072067
11932.026064	2855.515000	872.664063	168.194366
11932.026064	2855.515000	871.489258	93.247528
11932.026064	2855.515000	870.313477	65.582748
11932.026064	2855.515000	869.138672	156.032379
11932.026064	2855.515000	867.962891	33.905170
11932.026064	2855.515000	866.786133	77.105392
11932.026064	2855.515000	865.610352	139.174835
11932.026064	2855.515000	864.433594	-124.473755
11932.026064	2855.515000	863.256836	3.686596
11932.026064	2855.515000	862.079102	-26.264233
11932.026064	2855.515000	860.902344	156.080261
11932.026064	2855.515000	859.724609	22.358881
11932.026064	2855.515000	858.546875	-7.564513
11932.026064	2855.515000	857.368164	148.749329
11932.026064	2855.515000	856.190430	29.267881
11932.026064	2855.515000	855.011719	81.846764
11932.026064	2855.515000	853.833008	23.690598
11932.026064	2855.515000	852.654297	57.420387
11932.026064	2855.515000	851.474609	27.564251
11932.026064	2855.515000	850.294922	68.357536
11932.026064	2855.515000	849.115234	116.203445
11932.026064	2855.515000	847.935547	22.837700
11932.026064	2855.515000	846.754883	94.219070
11932.026064	2855.515000	845.575195	95.009201
11932.026064	2855.515000	844.393555	-85.287376
11932.026064	2855.515000	843.212891	143.644806
11932.026064	2855.515000	842.032227	31.609726
11932.026064	2855.515000	840.850586	30.101320
11932.026064	2855.515000	839.668945	85.003250
11932.026064	2855.515000	838.486328	-15.171503
11932.026064	2855.515000	837.304688	60.881096
11932.026064	2855.515000	836.122070	12.443061
11932.026064	2855.515000	834.939453	-21.874968
11932.026064	2855.515000	833.756836	-13.911102
11932.026064	2855.515000	832.573242	-22.367186
11932.026064	2855.515000	831.389648	-19.073559
11932.026064	2855.515000	830.206055	-100.228218
11932.026064	2855.515000	829.022461	-92.202515
11932.026064	2855.515000	827.838867	-44.299438
11932.026064	2855.515000	826.654297	-36.261356
11932.026064	2855.515000	825.469727	-68.063232
11932.026064	2855.515000	824.284180	19.689789
11932.026064	2855.515000	823.099609	62.899998
11932.026064	2855.515000	821.914063	-139.876495
11932.026064	2855.515000	820.728516	41.569832
11932.026064	2855.515000	819.542969	-46.343876
11932.026064	2855.515000	818.356445	15.634685
11932.026064	2855.515000	817.169922	58.876579
11932.026064	2855.515000	815.983398	-96.808975
11932.026064	2855.515000	814.796875	2.625022
11932.026064	2855.515000	813.609375	-117.863068
11932.026064	2855.515000	812.422852	-20.773611
11932.026064	2855.515000	811.235352	13.156681
11932.026064	2855.515000	810.046875	51.764359
11932.026064	2855.515000	808.859375	-7.797739
11932.026064	2855.515000	807.670898	-81.340973
11932.026064	2855.515000	806.482422	-59.043312
11932.026064	2855.515000	805.293945	-48.418869
11932.026064	2855.515000	804.104492	-0.414520
11932.026064	2855.515000	802.915039	-129.871872
11932.026064	2855.515000	801.725586	16.211025
11932.026064	2855.515000	800.536133	-113.163368
11932.026064	2855.515000	799.345703	-13.781754
11932.026064	2855.515000	798.155273	-89.402840
11932.026064	2855.515000	796.964844	-90.334267
11932.026064	2855.515000	795.774414	-112.237701
11932.026064	2855.515000	794.583008	-117.793861
11932.026064	2855.515000	793.392578	0.216970
11932.026064	2855.515000	792.200195	90.228294
11932.026064	2855.515000	791.008789	-113.379570
11932.026064	2855.515000	789.816406	-102.557861
11932.026064	2855.515000	788.625000	-54.458092
11932.026064	2855.515000	787.432617	-76.222870
11932.026064	2855.515000	786.239258	-70.023682
11932.026064	2855.515000	785.046875	36.280842
11932.026064	2855.515000	783.853516	-20.350321
11932.026064	2855.515000	782.660156	-163.032135
11932.026064	2855.515000	781.465820	-56.727032
11932.026064	2855.515000	780.272461	61.177368
11932.026064	2855.515000	779.078125	25.578112
11932.026064	2855.515000	777.883789	-37.890350
11932.026064	2855.515000	776.688477	-54.829609
11932.026064	2855.515000	775.494141	-29.918438
11932.026064	2855.515000	774.298828	76.315956
11932.026064	2855.515000	773.103516	-114.811897
11932.026064	2855.515000	771.907227	-3.930930
11932.026064	2855.515000	770.711914	113.882500
11932.026064	2855.515000	769.515625	87.731102
11932.026064	2855.515000	768.318359	-68.370712
11932.026064	2855.515000	767.122070	26.217390
11932.026064	2855.515000	765.924805	55.819359
11932.026064	2855.515000	764.727539	57.586979
11932.026064	2855.515000	763.530273	80.236725
11932.026064	2855.515000	762.333008	-24.632109
11932.026064	2855.515000	761.134766	-96.992218
11932.026064	2855.515000	759.936523	-118.324211
11932.026064	2855.515000	758.738281	68.903290
11932.026064	2855.515000	757.540039	-91.431664
11932.026064	2855.515000	756.340820	12.352041
11932.026064	2855.515000	755.141602	-20.522665
11932.026064	2855.515000	753.942383	55.438934
11932.026064	2855.515000	752.742188	68.881332
11932.026064	2855.515000	751.541992	107.783249
11932.026064	2855.515000	750.341797	132.793686
11932.026064	2855.515000	749.141602	215.632904
11932.026064	2855.515000	747.941406	129.611984
11932.026064	2855.515000	746.740234	115.314865
11932.026064	2855.515000	745.539063	186.567352
11932.026064	2855.515000	744.337891	112.181473
11932.026064	2855.515000	743.135742	-1.451236
11932.026064	2855.515000	741.933594	49.003788
11932.026064	2855.515000	740.731445	53.243805
11932.026064	2855.515000	739.529297	191.430908
11932.026064	2855.515000	738.326172	161.013718
11932.026064	2855.515000	737.124023	278.350769
11932.026064	2855.515000	735.919922	388.718170
11932.026064	2855.515000	734.716797	286.753754
11932.026064	2855.515000	733.513672	413.224030
11932.026064	2855.515000	732.309570	477.367126
11932.026064	2855.515000	731.105469	363.919861
11932.026064	2855.515000	729.900391	257.436798
11932.026064	2855.515000	728.696289	187.876907
11932.026064	2855.515000	727.491211	120.649689
11932.026064	2855.515000	726.286133	131.787308
11932.026064	2855.515000	725.080078	136.007339
11932.026064	2855.515000	723.874023	66.521683
11932.026064	2855.515000	722.668945	79.955276
11932.026064	2855.515000	721.461914	-26.332390
11932.026064	2855.515000	720.255859	72.267685
11932.026064	2855.515000	719.048828	136.303513
11932.026064	2855.515000	717.841797	-38.969086
11932.026064	2855.515000	716.634766	117.058113
11932.026064	2855.515000	715.427734	54.535343
11932.026064	2855.515000	714.219727	118.491135
11932.026064	2855.515000	713.011719	19.195930
11932.026064	2855.515000	711.803711	32.549942
11932.026064	2855.515000	710.594727	-71.301155
11932.026064	2855.515000	709.385742	105.156250
11932.026064	2855.515000	708.176758	-97.454979
11932.026064	2855.515000	706.967773	-58.873817
11932.026064	2855.515000	705.758789	39.370739
11932.026064	2855.515000	704.548828	-20.822788
11932.026064	2855.515000	703.338867	-74.121422
11932.026064	2855.515000	702.127930	-67.757034
11932.026064	2855.515000	700.917969	-15.532631
11932.026064	2855.515000	699.707031	-91.781898
11932.026064	2855.515000	698.496094	-57.952579
11932.026064	2855.515000	697.285156	65.252953
11932.026064	2855.515000	696.073242	135.670609
11932.026064	2855.515000	694.861328	-41.450073
11932.026064	2855.515000	693.649414	-30.648373
11932.026064	2855.515000	692.436523	51.137146
11932.026064	2855.515000	691.224609	6.908387
11932.026064	2855.515000	690.011719	-37.323872
11932.026064	2855.515000	688.798828	177.113831
11932.026064	2855.515000	687.584961	112.218376
11932.026064	2855.515000	686.372070	40.460587
11932.026064	2855.515000	685.158203	-12.991205
11932.026064	2855.515000	683.943359	162.277252
11932.026064	2855.515000	682.729492	69.893616
11932.026064	2855.515000	681.514648	190.144760
11932.026064	2855.515000	680.299805	138.881989
11932.026064	2855.515000	679.084961	-31.224985
11932.026064	2855.515000	677.869141	13.483638
11932.026064	2855.515000	676.653320	76.417358
11932.026064	2855.515000	675.437500	63.925079
11932.026064	2855.515000	674.221680	140.457245
11932.026064	2855.515000	673.004883	-2.234620
11932.026064	2855.515000	671.789063	1.174370
11932.026064	2855.515000	670.571289	77.569992
11932.026064	2855.515000	669.354492	83.172478
11932.026064	2855.515000	668.136719	-82.337311
11932.026064	2855.515000	666.919922	-53.972130
11932.026064	2855.515000	665.701172	47.304821
11932.026064	2855.515000	664.483398	148.500275
11932.026064	2855.515000	663.264648	-37.547398
11932.026064	2855.515000	662.045898	8.858757
11932.026064	2855.515000	660.827148	244.286438
11932.026064	2855.515000	659.608398	247.256454
11932.026064	2855.515000	658.388672	79.398918
11932.026064	2855.515000	657.168945	134.680969
11932.026064	2855.515000	655.949219	117.059006
11932.026064	2855.515000	654.728516	172.222595
11932.026064	2855.515000	653.507813	33.925159
11932.026064	2855.515000	652.287109	118.564491
11932.026064	2855.515000	651.066406	73.489586
11932.026064	2855.515000	649.844727	89.779076
11932.026064	2855.515000	648.623047	117.380386
11932.026064	2855.515000	647.401367	-25.538631
11932.026064	2855.515000	646.179688	106.506310
11932.026064	2855.515000	644.957031	299.785126
11932.026064	2855.515000	643.734375	77.272781
11932.026064	2855.515000	642.511719	263.563416
11932.026064	2855.515000	641.289063	125.056412
11932.026064	2855.515000	640.065430	193.119217
11932.026064	2855.515000	638.841797	136.281174
11932.026064	2855.515000	637.618164	88.490997
11932.026064	2855.515000	636.393555	219.876785
11932.026064	2855.515000	635.168945	237.753204
11932.026064	2855.515000	633.944336	40.152966
11932.026064	2855.515000	632.719727	241.580978
11932.026064	2855.515000	631.494141	257.009460
11932.026064	2855.515000	630.269531	272.376862
11932.026064	2855.515000	629.042969	197.055237
11932.026064	2855.515000	627.817383	164.746872
11932.026064	2855.515000	626.590820	193.539566
11932.026064	2855.515000	625.365234	29.809643
11932.026064	2855.515000	624.137695	228.277847
11932.026064	2855.515000	622.911133	308.918030
11932.026064	2855.515000	621.683594	192.607727
11932.026064	2855.515000	620.456055	135.105148
11932.026064	2855.515000	619.228516	113.755707
11932.026064	2855.515000	618.000977	83.310555
11932.026064	2855.515000	616.772461	46.034027
11932.026064	2855.515000	615.543945	146.592300
11932.026064	2855.515000	614.314453	176.990875
11932.026064	2855.515000	613.085938	302.209686
11932.026064	2855.515000	611.856445	-17.687326
11932.026064	2855.515000	610.626953	157.079559
11932.026064	2855.515000	609.397461	101.402748
11932.026064	2855.515000	608.166992	79.546844
11932.026064	2855.515000	606.936523	199.826920
11932.026064	2855.515000	605.706055	92.088539
11932.026064	2855.515000	604.474609	24.939503
11932.026064	2855.515000	603.244141	-24.197435
11932.026064	2855.515000	602.012695	21.333332
11932.026064	2855.515000	600.780273	-111.331184
11932.026064	2855.515000	599.548828	-2.812796
11932.026064	2855.515000	598.316406	128.129807
11932.026064	2855.515000	597.083984	-47.470966
11932.026064	2855.515000	595.851563	94.562157
11932.026064	2855.515000	594.618164	-103.607109
11932.026064	2855.515000	593.384766	236.397598
11932.026064	2855.515000	592.151367	186.735535
11932.026064	2855.515000	590.917969	-16.017950
11932.026064	2855.515000	589.683594	19.775814
11932.026064	2855.515000	588.449219	98.237617
11932.026064	2855.515000	587.214844	-28.083048
11932.026064	2855.515000	585.979492	27.739063
11932.026064	2855.515000	584.745117	164.417542
11932.026064	2855.515000	583.509766	46.965721
11932.026064	2855.515000	582.273438	100.299278
11932.026064	2855.515000	581.038086	-21.706726
11932.026064	2855.515000	579.801758	112.366608
11932.026064	2855.515000	578.565430	318.191406
11932.026064	2855.515000	577.329102	344.230927
11932.026064	2855.515000	576.091797	197.332565
11932.026064	2855.515000	574.854492	286.109100
11932.026064	2855.515000	573.617188	415.180084
11932.026064	2855.515000	572.378906	306.317657
11932.026064	2855.515000	571.141602	426.238647
11932.026064	2855.515000	569.903320	359.912201
11932.026064	2855.515000	568.664063	349.605286
11932.026064	2855.515000	567.425781	133.018417
11932.026064	2855.515000	566.186523	162.990219
11932.026064	2855.515000	564.947266	9.157885
11932.026064	2855.515000	563.708008	65.913162
11932.026064	2855.515000	562.467773	232.331253
11932.026064	2855.515000	561.227539	-20.113506
11932.026064	2855.515000	559.987305	-77.732437
11932.026064	2855.515000	558.747070	3.392653
11932.026064	2855.515000	557.505859	68.762672
11932.026064	2855.515000	556.264648	-13.611157
11932.026064	2855.515000	555.023438	31.499481
11932.026064	2855.515000	553.781250	54.172115
11932.026064	2855.515000	552.539063	163.985535
11932.026064	2855.515000	551.296875	184.286285
11932.026064	2855.515000	550.054688	271.578156
11932.026064	2855.515000	548.811523	104.053864
11932.026064	2855.515000	547.569336	309.632355
11932.026064	2855.515000	546.325195	61.669266
11932.026064	2855.515000	545.082031	43.773235
11932.026064	2855.515000	543.837891	153.090942
11932.026064	2855.515000	542.593750	63.665970
11932.026064	2855.515000	541.349609	38.953438
11932.026064	2855.515000	540.105469	56.601826
11932.026064	2855.515000	538.860352	232.572800
11932.026064	2855.515000	537.615234	125.200684
11932.026064	2855.515000	536.369141	40.129253
11932.026064	2855.515000	535.124023	157.918915
11932.026064	2855.515000	533.877930	137.437210
11932.026064	2855.515000	532.631836	243.939529
11932.026064	2855.515000	531.384766	205.554016
11932.026064	2855.515000	530.138672	167.157242
11932.026064	2855.515000	528.891602	186.638092
11932.026064	2855.515000	527.643555	81.402008
11932.026064	2855.515000	526.396484	176.513245
11932.026064	2855.515000	525.148438	62.366474
11932.026064	2855.515000	523.900391	126.234451
11932.026064	2855.515000	522.652344	-63.534416
11932.026064	2855.515000	521.403320	-157.620148
11932.026064	2855.515000	520.154297	48.479103
11932.026064	2855.515000	518.905273	21.054655
11932.026064	2855.515000	517.656250	-186.400513
11932.026064	2855.515000	516.406250	52.837364
11932.026064	2855.515000	515.156250	18.704313
11932.026064	2855.515000	513.906250	-57.630878
11932.026064	2855.515000	512.655273	-173.923462
11932.026064	2855.515000	511.404297	-156.972229
11932.026064	2855.515000	510.153320	50.848167
11932.026064	2855.515000	508.902344	-112.032234
11932.026064	2855.515000	507.650391	-81.831116
11932.026064	2855.515000	506.398438	-144.816452
11932.026064	2855.515000	505.146484	-5.967404
11932.026064	2855.515000	503.893555	-60.090511
11932.026064	2855.515000	502.641602	-105.322632
11932.026064	2855.515000	501.388672	-77.405159
11932.026064	2855.515000	500.134766	-47.290398
11932.026064	2855.515000	498.881836	47.060558
11932.026064	2855.515000	497.627930	23.978571
11932.026064	2855.515000	496.374023	-81.024094
11932.026064	2855.515000	495.119141	8.842170
11932.026064	2855.515000	493.865234	-14.207053
11932.026064	2855.515000	492.610352	-39.458099
11932.026064	2855.515000	491.355469	17.171053
11932.026064	2855.515000	490.099609	11.843014
11932.026064	2855.515000	488.843750	-57.608295
11932.026064	2855.515000	487.587891	65.343681
11932.026064	2855.515000	486.332031	-54.910286
11932.026064	2855.515000	485.075195	-73.439552
11932.026064	2855.515000	483.818359	-164.864441
11932.026064	2855.515000	482.561523	-30.900684
11932.026064	2855.515000	481.304688	32.343349
11932.026064	2855.515000	480.046875	-21.462500
11932.026064	2855.515000	478.789063	28.535875
11932.026064	2855.515000	477.531250	80.739296
11932.026064	2855.515000	476.272461	-25.952494
11932.026064	2855.515000	475.013672	-88.451653
11932.026064	2855.515000	473.754883	-36.199287
11932.026064	2855.515000	472.496094	33.694992
11932.026064	2855.515000	471.236328	-11.075223
11932.026064	2855.515000	469.976563	23.555666
11932.026064	2855.515000	468.716797	-69.631966
11932.026064	2855.515000	467.456055	77.417191
11932.026064	2855.515000	466.196289	-39.924492
11932.026064	2855.515000	464.935547	-25.044077
11932.026064	2855.515000	463.673828	-82.815178
11932.026064	2855.515000	462.413086	-118.515175
11932.026064	2855.515000	461.151367	15.304752
11932.026064	2855.515000	459.889648	54.468292
11932.026064	2855.515000	458.626953	67.236496
11932.026064	2855.515000	457.364258	106.421158
11932.026064	2855.515000	456.101563	97.234077
11932.026064	2855.515000	454.838867	263.973419
11932.026064	2855.515000	453.575195	-44.152287
11932.026064	2855.515000	452.312500	131.388168
11932.026064	2855.515000	451.047852	76.157440
11932.026064	2855.515000	449.784180	-33.939919
11932.026064	2855.515000	448.519531	-128.595657
11932.026064	2855.515000	447.254883	42.510818
11932.026064	2855.515000	445.990234	200.393280
11932.026064	2855.515000	444.725586	-41.241287
11932.026064	2855.515000	443.459961	-148.894943
11932.026064	2855.515000	442.194336	13.371980
11932.026064	2855.515000	440.927734	136.101135
11932.026064	2855.515000	439.662109	32.918388
11932.026064	2855.515000	438.395508	85.460869
11932.026064	2855.515000	437.127930	-35.181858
11932.026064	2855.515000	435.861328	-35.220371
11932.026064	2855.515000	434.593750	96.211601
11932.026064	2855.515000	433.326172	72.059998
11932.026064	2855.515000	432.058594	131.148590
11932.026064	2855.515000	430.790039	-85.688622
11932.026064	2855.515000	429.521484	96.001595
11932.026064	2855.515000	428.252930	122.209999
11932.026064	2855.515000	426.984375	126.518005
11932.026064	2855.515000	425.714844	-7.019427
11932.026064	2855.515000	424.445313	-7.087008
11932.026064	2855.515000	423.174805	64.990433
11932.026064	2855.515000	421.905273	-5.093867
11932.026064	2855.515000	420.634766	114.995583
11932.026064	2855.515000	419.364258	165.070358
11932.026064	2855.515000	418.092773	156.092789
11932.026064	2855.515000	416.822266	112.133858
11932.026064	2855.515000	415.550781	33.202778
11932.026064	2855.515000	414.278320	122.383667
11932.026064	2855.515000	413.006836	10.636603
11932.026064	2855.515000	411.734375	29.828287
11932.026064	2855.515000	410.461914	20.578894
11932.026064	2855.515000	409.188477	-10.558444
11932.026064	2855.515000	407.916016	121.829315
11932.026064	2855.515000	406.642578	-59.945808
11932.026064	2855.515000	405.368164	8.984001
11932.026064	2855.515000	404.094727	12.397539
11932.026064	2855.515000	402.820313	83.254463
11932.026064	2855.515000	401.545898	10.167019
11932.026064	2855.515000	400.270508	13.223381
11932.026064	2855.515000	398.996094	16.151484
11932.026064	2855.515000	397.720703	-57.274574
11932.026064	2855.515000	396.444336	91.218445
11932.026064	2855.515000	395.168945	-2.089166
11932.026064	2855.515000	393.892578	56.784470
11932.026064	2855.515000	392.616211	6.679418
11932.026064	2855.515000	391.339844	-39.244957
11932.026064	2855.515000	390.062500	-4.898897
11932.026064	2855.515000	388.785156	66.177544
11932.026064	2855.515000	387.507813	39.186993
11932.026064	2855.515000	386.229492	66.291740
11932.026064	2855.515000	384.951172	40.991501
11932.026064	2855.515000	383.672852	121.874893
11932.026064	2855.515000	382.394531	33.054020
11932.026064	2855.515000	381.115234	30.822912
11932.026064	2855.515000	379.835938	36.969860
11932.026064	2855.515000	378.556641	71.007484
11932.026064	2855.515000	377.277344	52.618832
11932.026064	2855.515000	375.997070	66.418312
11932.026064	2855.515000	374.716797	53.816776
11932.026064	2855.515000	373.435547	23.480270
11932.026064	2855.515000	372.155273	111.997108
11932.026064	2855.515000	370.874023	22.315748
11932.026064	2855.515000	369.591797	40.572758
11932.026064	2855.515000	368.310547	112.534966
11932.026064	2855.515000	367.028320	101.668198
11932.026064	2855.515000	365.746094	66.486649
11932.026064	2855.515000	364.463867	-14.666405
11932.026064	2855.515000	363.180664	14.058719
11932.026064	2855.515000	361.897461	-37.865993
11932.026064	2855.515000	360.614258	167.122620
11932.026064	2855.515000	359.330078	75.041412
11932.026064	2855.515000	358.045898	-58.724678
11932.026064	2855.515000	356.761719	152.868454
11932.026064	2855.515000	355.477539	6.992232
11932.026064	2855.515000	354.192383	13.907845
11932.026064	2855.515000	352.907227	9.278717
11932.026064	2855.515000	351.622070	111.905014
11932.026064	2855.515000	350.336914	77.620377
11932.026064	2855.515000	349.050781	-67.618057
11932.026064	2855.515000	347.764648	84.289932
11932.026064	2855.515000	346.477539	60.393341
11932.026064	2855.515000	345.191406	29.137617
11932.026064	2855.515000	343.904297	14.189442
11932.026064	2855.515000	342.616211	-19.009146
11932.026064	2855.515000	341.329102	-44.559719
11932.026064	2855.515000	340.041016	75.447502
11932.026064	2855.515000	338.752930	17.553171
11932.026064	2855.515000	337.463867	-153.530121
11932.026064	2855.515000	336.175781	8.306976
11932.026064	2855.515000	334.886719	-158.593491
11932.026064	2855.515000	333.596680	-111.307938
11932.026064	2855.515000	332.307617	-71.753685
11932.026064	2855.515000	331.017578	-87.383247
11932.026064	2855.515000	329.727539	-224.901611
11932.026064	2855.515000	328.436523	-68.985565
11932.026064	2855.515000	327.146484	-24.278864
11932.026064	2855.515000	325.855469	8.126746
11932.026064	2855.515000	324.563477	-70.732666
11932.026064	2855.515000	323.272461	-69.414291
11932.026064	2855.515000	321.980469	121.540512
11932.026064	2855.515000	320.688477	85.067497
11932.026064	2855.515000	319.395508	79.060799
11932.026064	2855.515000	318.103516	-31.807665
11932.026064	2855.515000	316.810547	-217.536423
11932.026064	2855.515000	315.516602	-70.165520
11932.026064	2855.515000	314.223633	126.748245
11932.026064	2855.515000	312.929688	-49.789230
11932.026064	2855.515000	311.635742	-73.826683
11932.026064	2855.515000	310.340820	88.750427
11932.026064	2855.515000	309.045898	193.292160
11932.026064	2855.515000	307.750977	141.132996
11932.026064	2855.515000	306.456055	178.860916
11932.026064	2855.515000	305.160156	166.970810
11932.026064	2855.515000	303.865234	300.553070
11932.026064	2855.515000	302.568359	407.866486
11932.026064	2855.515000	301.272461	448.335144
11932.026064	2855.515000	299.975586	520.322327
11932.026064	2855.515000	298.678711	407.541107
