#X		#Y		#Wave		#Intensity
-7424.066862	4088.557000	1999.946289	-27.195824
-7424.066862	4088.557000	1998.981445	-43.455853
-7424.066862	4088.557000	1998.017578	-110.614372
-7424.066862	4088.557000	1997.052734	-9.239964
-7424.066862	4088.557000	1996.088867	149.082443
-7424.066862	4088.557000	1995.124023	-12.215734
-7424.066862	4088.557000	1994.159180	-96.676422
-7424.066862	4088.557000	1993.193359	-77.105583
-7424.066862	4088.557000	1992.228516	66.248734
-7424.066862	4088.557000	1991.262695	73.402870
-7424.066862	4088.557000	1990.296875	13.730426
-7424.066862	4088.557000	1989.331055	100.070847
-7424.066862	4088.557000	1988.365234	32.991608
-7424.066862	4088.557000	1987.398438	50.034367
-7424.066862	4088.557000	1986.432617	-19.485481
-7424.066862	4088.557000	1985.465820	116.244270
-7424.066862	4088.557000	1984.499023	-7.652832
-7424.066862	4088.557000	1983.532227	-35.108360
-7424.066862	4088.557000	1982.565430	83.247864
-7424.066862	4088.557000	1981.597656	48.370541
-7424.066862	4088.557000	1980.629883	-60.603615
-7424.066862	4088.557000	1979.662109	62.628170
-7424.066862	4088.557000	1978.694336	-41.370094
-7424.066862	4088.557000	1977.726563	12.681411
-7424.066862	4088.557000	1976.758789	51.901363
-7424.066862	4088.557000	1975.790039	258.930481
-7424.066862	4088.557000	1974.821289	76.007957
-7424.066862	4088.557000	1973.852539	83.119675
-7424.066862	4088.557000	1972.883789	3.896000
-7424.066862	4088.557000	1971.915039	72.672882
-7424.066862	4088.557000	1970.945313	-48.438789
-7424.066862	4088.557000	1969.975586	40.041889
-7424.066862	4088.557000	1969.005859	32.361977
-7424.066862	4088.557000	1968.036133	179.938950
-7424.066862	4088.557000	1967.066406	-111.112488
-7424.066862	4088.557000	1966.096680	134.972794
-7424.066862	4088.557000	1965.125977	-59.908180
-7424.066862	4088.557000	1964.155273	-38.015778
-7424.066862	4088.557000	1963.184570	-188.475998
-7424.066862	4088.557000	1962.213867	37.744808
-7424.066862	4088.557000	1961.242188	22.687193
-7424.066862	4088.557000	1960.271484	113.445709
-7424.066862	4088.557000	1959.299805	125.440849
-7424.066862	4088.557000	1958.328125	-106.087265
-7424.066862	4088.557000	1957.356445	36.286591
-7424.066862	4088.557000	1956.384766	70.416862
-7424.066862	4088.557000	1955.412109	106.990562
-7424.066862	4088.557000	1954.439453	50.147686
-7424.066862	4088.557000	1953.467773	-60.738354
-7424.066862	4088.557000	1952.495117	64.289528
-7424.066862	4088.557000	1951.521484	206.464172
-7424.066862	4088.557000	1950.548828	-110.707802
-7424.066862	4088.557000	1949.575195	-81.516388
-7424.066862	4088.557000	1948.601563	-13.054008
-7424.066862	4088.557000	1947.627930	-20.715775
-7424.066862	4088.557000	1946.654297	-11.196113
-7424.066862	4088.557000	1945.680664	35.125980
-7424.066862	4088.557000	1944.706055	7.826153
-7424.066862	4088.557000	1943.732422	213.563370
-7424.066862	4088.557000	1942.757813	-93.344482
-7424.066862	4088.557000	1941.783203	6.893447
-7424.066862	4088.557000	1940.807617	207.603775
-7424.066862	4088.557000	1939.833008	145.971832
-7424.066862	4088.557000	1938.857422	-55.327576
-7424.066862	4088.557000	1937.881836	-185.499695
-7424.066862	4088.557000	1936.906250	-43.705784
-7424.066862	4088.557000	1935.930664	93.133652
-7424.066862	4088.557000	1934.955078	-169.237366
-7424.066862	4088.557000	1933.978516	14.086343
-7424.066862	4088.557000	1933.001953	-101.305527
-7424.066862	4088.557000	1932.025391	32.981426
-7424.066862	4088.557000	1931.048828	113.381653
-7424.066862	4088.557000	1930.072266	2.918952
-7424.066862	4088.557000	1929.094727	-80.601112
-7424.066862	4088.557000	1928.118164	-80.940933
-7424.066862	4088.557000	1927.140625	82.540039
-7424.066862	4088.557000	1926.163086	6.374360
-7424.066862	4088.557000	1925.184570	203.988174
-7424.066862	4088.557000	1924.207031	42.287094
-7424.066862	4088.557000	1923.228516	-109.586426
-7424.066862	4088.557000	1922.250000	-29.333708
-7424.066862	4088.557000	1921.271484	-63.909473
-7424.066862	4088.557000	1920.292969	11.411231
-7424.066862	4088.557000	1919.314453	18.336765
-7424.066862	4088.557000	1918.334961	13.047647
-7424.066862	4088.557000	1917.355469	0.433379
-7424.066862	4088.557000	1916.375977	124.466965
-7424.066862	4088.557000	1915.396484	246.008621
-7424.066862	4088.557000	1914.416992	79.669029
-7424.066862	4088.557000	1913.436523	103.609650
-7424.066862	4088.557000	1912.457031	159.234680
-7424.066862	4088.557000	1911.476563	122.192360
-7424.066862	4088.557000	1910.496094	216.777969
-7424.066862	4088.557000	1909.515625	-17.668293
-7424.066862	4088.557000	1908.534180	-13.257483
-7424.066862	4088.557000	1907.552734	5.761771
-7424.066862	4088.557000	1906.572266	-89.705338
-7424.066862	4088.557000	1905.590820	14.537202
-7424.066862	4088.557000	1904.608398	-192.908737
-7424.066862	4088.557000	1903.626953	-1.068514
-7424.066862	4088.557000	1902.644531	-130.567963
-7424.066862	4088.557000	1901.663086	92.807343
-7424.066862	4088.557000	1900.680664	182.281631
-7424.066862	4088.557000	1899.698242	-95.580193
-7424.066862	4088.557000	1898.714844	91.156654
-7424.066862	4088.557000	1897.732422	56.549397
-7424.066862	4088.557000	1896.749023	58.411591
-7424.066862	4088.557000	1895.765625	6.790583
-7424.066862	4088.557000	1894.782227	86.408386
-7424.066862	4088.557000	1893.798828	226.729218
-7424.066862	4088.557000	1892.814453	65.762032
-7424.066862	4088.557000	1891.831055	94.292656
-7424.066862	4088.557000	1890.846680	-5.900109
-7424.066862	4088.557000	1889.862305	117.299492
-7424.066862	4088.557000	1888.877930	235.588089
-7424.066862	4088.557000	1887.892578	48.023907
-7424.066862	4088.557000	1886.908203	-18.153021
-7424.066862	4088.557000	1885.922852	32.133381
-7424.066862	4088.557000	1884.937500	111.497925
-7424.066862	4088.557000	1883.952148	-112.320755
-7424.066862	4088.557000	1882.965820	88.253105
-7424.066862	4088.557000	1881.980469	-9.438819
-7424.066862	4088.557000	1880.994141	77.101349
-7424.066862	4088.557000	1880.007813	8.504574
-7424.066862	4088.557000	1879.021484	65.911842
-7424.066862	4088.557000	1878.035156	-148.025131
-7424.066862	4088.557000	1877.047852	40.152168
-7424.066862	4088.557000	1876.061523	24.841227
-7424.066862	4088.557000	1875.074219	2.259508
-7424.066862	4088.557000	1874.086914	-61.476101
-7424.066862	4088.557000	1873.098633	99.872673
-7424.066862	4088.557000	1872.111328	69.994408
-7424.066862	4088.557000	1871.123047	-3.433064
-7424.066862	4088.557000	1870.135742	-79.263107
-7424.066862	4088.557000	1869.147461	135.122009
-7424.066862	4088.557000	1868.158203	13.326132
-7424.066862	4088.557000	1867.169922	-81.843880
-7424.066862	4088.557000	1866.180664	33.284328
-7424.066862	4088.557000	1865.192383	-61.879311
-7424.066862	4088.557000	1864.203125	24.182255
-7424.066862	4088.557000	1863.213867	-44.400776
-7424.066862	4088.557000	1862.223633	-105.728622
-7424.066862	4088.557000	1861.234375	-19.747210
-7424.066862	4088.557000	1860.244141	-40.041637
-7424.066862	4088.557000	1859.253906	-12.066114
-7424.066862	4088.557000	1858.263672	107.591835
-7424.066862	4088.557000	1857.273438	239.255356
-7424.066862	4088.557000	1856.282227	76.535072
-7424.066862	4088.557000	1855.291992	-148.848740
-7424.066862	4088.557000	1854.300781	-41.371479
-7424.066862	4088.557000	1853.309570	34.706097
-7424.066862	4088.557000	1852.317383	69.757774
-7424.066862	4088.557000	1851.326172	97.552742
-7424.066862	4088.557000	1850.333984	93.993446
-7424.066862	4088.557000	1849.342773	22.963408
-7424.066862	4088.557000	1848.350586	144.647720
-7424.066862	4088.557000	1847.357422	-5.876092
-7424.066862	4088.557000	1846.365234	139.816559
-7424.066862	4088.557000	1845.372070	-5.866133
-7424.066862	4088.557000	1844.379883	-7.087395
-7424.066862	4088.557000	1843.386719	210.671249
-7424.066862	4088.557000	1842.393555	264.716614
-7424.066862	4088.557000	1841.399414	-46.935623
-7424.066862	4088.557000	1840.406250	31.157938
-7424.066862	4088.557000	1839.412109	-109.627907
-7424.066862	4088.557000	1838.417969	79.010765
-7424.066862	4088.557000	1837.423828	142.562653
-7424.066862	4088.557000	1836.429688	-115.980156
-7424.066862	4088.557000	1835.434570	34.054756
-7424.066862	4088.557000	1834.440430	90.322350
-7424.066862	4088.557000	1833.445313	2.427738
-7424.066862	4088.557000	1832.450195	116.281876
-7424.066862	4088.557000	1831.454102	-22.043962
-7424.066862	4088.557000	1830.458984	-133.924957
-7424.066862	4088.557000	1829.462891	-5.761489
-7424.066862	4088.557000	1828.466797	91.140190
-7424.066862	4088.557000	1827.470703	163.994873
-7424.066862	4088.557000	1826.474609	78.479721
-7424.066862	4088.557000	1825.478516	86.517555
-7424.066862	4088.557000	1824.481445	-10.977675
-7424.066862	4088.557000	1823.484375	126.502785
-7424.066862	4088.557000	1822.487305	108.104401
-7424.066862	4088.557000	1821.490234	-15.754416
-7424.066862	4088.557000	1820.493164	59.295914
-7424.066862	4088.557000	1819.495117	-50.170563
-7424.066862	4088.557000	1818.498047	67.937180
-7424.066862	4088.557000	1817.500000	25.528984
-7424.066862	4088.557000	1816.500977	-91.108131
-7424.066862	4088.557000	1815.502930	-4.236053
-7424.066862	4088.557000	1814.504883	168.749512
-7424.066862	4088.557000	1813.505859	-91.481781
-7424.066862	4088.557000	1812.506836	-59.743233
-7424.066862	4088.557000	1811.507813	0.670213
-7424.066862	4088.557000	1810.508789	-5.922623
-7424.066862	4088.557000	1809.508789	-46.010826
-7424.066862	4088.557000	1808.508789	93.203217
-7424.066862	4088.557000	1807.508789	69.807373
-7424.066862	4088.557000	1806.508789	-6.173959
-7424.066862	4088.557000	1805.508789	235.642029
-7424.066862	4088.557000	1804.508789	-24.325243
-7424.066862	4088.557000	1803.507813	200.644043
-7424.066862	4088.557000	1802.506836	55.367126
-7424.066862	4088.557000	1801.505859	-25.408913
-7424.066862	4088.557000	1800.504883	125.377930
-7424.066862	4088.557000	1799.502930	77.993309
-7424.066862	4088.557000	1798.501953	116.514305
-7424.066862	4088.557000	1797.500000	-9.617134
-7424.066862	4088.557000	1796.498047	78.957848
-7424.066862	4088.557000	1795.496094	57.777840
-7424.066862	4088.557000	1794.493164	-151.783173
-7424.066862	4088.557000	1793.491211	60.679691
-7424.066862	4088.557000	1792.488281	-94.019211
-7424.066862	4088.557000	1791.485352	104.014236
-7424.066862	4088.557000	1790.482422	211.415298
-7424.066862	4088.557000	1789.478516	-86.210648
-7424.066862	4088.557000	1788.475586	-95.553772
-7424.066862	4088.557000	1787.471680	-28.714905
-7424.066862	4088.557000	1786.467773	38.080528
-7424.066862	4088.557000	1785.463867	-49.890099
-7424.066862	4088.557000	1784.459961	9.707729
-7424.066862	4088.557000	1783.455078	59.743935
-7424.066862	4088.557000	1782.450195	-6.827636
-7424.066862	4088.557000	1781.445313	76.455956
-7424.066862	4088.557000	1780.440430	-118.546364
-7424.066862	4088.557000	1779.435547	76.439865
-7424.066862	4088.557000	1778.429688	-35.326332
-7424.066862	4088.557000	1777.424805	147.649826
-7424.066862	4088.557000	1776.418945	147.562103
-7424.066862	4088.557000	1775.413086	-52.113544
-7424.066862	4088.557000	1774.406250	2.431149
-7424.066862	4088.557000	1773.400391	-11.932417
-7424.066862	4088.557000	1772.393555	85.288712
-7424.066862	4088.557000	1771.386719	89.868416
-7424.066862	4088.557000	1770.379883	108.670029
-7424.066862	4088.557000	1769.373047	-105.119354
-7424.066862	4088.557000	1768.365234	-159.879044
-7424.066862	4088.557000	1767.358398	-186.165665
-7424.066862	4088.557000	1766.350586	100.611221
-7424.066862	4088.557000	1765.342773	-13.492186
-7424.066862	4088.557000	1764.334961	-108.602264
-7424.066862	4088.557000	1763.326172	182.681900
-7424.066862	4088.557000	1762.318359	-78.361702
-7424.066862	4088.557000	1761.309570	-33.658390
-7424.066862	4088.557000	1760.300781	-100.335464
-7424.066862	4088.557000	1759.291016	41.430786
-7424.066862	4088.557000	1758.282227	-37.109829
-7424.066862	4088.557000	1757.272461	35.893131
-7424.066862	4088.557000	1756.262695	-106.569885
-7424.066862	4088.557000	1755.252930	-26.514414
-7424.066862	4088.557000	1754.243164	79.524010
-7424.066862	4088.557000	1753.233398	17.525951
-7424.066862	4088.557000	1752.222656	239.386810
-7424.066862	4088.557000	1751.211914	54.364708
-7424.066862	4088.557000	1750.201172	-166.071518
-7424.066862	4088.557000	1749.190430	-67.284546
-7424.066862	4088.557000	1748.179688	-72.552094
-7424.066862	4088.557000	1747.167969	94.676956
-7424.066862	4088.557000	1746.156250	138.963501
-7424.066862	4088.557000	1745.144531	-126.246048
-7424.066862	4088.557000	1744.132813	-74.879784
-7424.066862	4088.557000	1743.121094	-207.739349
-7424.066862	4088.557000	1742.108398	72.601311
-7424.066862	4088.557000	1741.095703	241.875549
-7424.066862	4088.557000	1740.083008	42.900879
-7424.066862	4088.557000	1739.070313	124.780945
-7424.066862	4088.557000	1738.057617	-76.484131
-7424.066862	4088.557000	1737.043945	21.864676
-7424.066862	4088.557000	1736.030273	139.028061
-7424.066862	4088.557000	1735.016602	159.461746
-7424.066862	4088.557000	1734.002930	-18.144697
-7424.066862	4088.557000	1732.989258	25.851463
-7424.066862	4088.557000	1731.974609	-106.921188
-7424.066862	4088.557000	1730.959961	78.404152
-7424.066862	4088.557000	1729.945313	-49.644554
-7424.066862	4088.557000	1728.930664	93.179436
-7424.066862	4088.557000	1727.916016	-25.431347
-7424.066862	4088.557000	1726.900391	-21.595434
-7424.066862	4088.557000	1725.885742	210.544312
-7424.066862	4088.557000	1724.870117	-32.789860
-7424.066862	4088.557000	1723.853516	-80.760902
-7424.066862	4088.557000	1722.837891	146.508896
-7424.066862	4088.557000	1721.822266	84.389259
-7424.066862	4088.557000	1720.805664	-92.947357
-7424.066862	4088.557000	1719.789063	-56.282471
-7424.066862	4088.557000	1718.772461	-113.667671
-7424.066862	4088.557000	1717.754883	-189.848511
-7424.066862	4088.557000	1716.738281	34.754498
-7424.066862	4088.557000	1715.720703	54.870781
-7424.066862	4088.557000	1714.703125	-108.239120
-7424.066862	4088.557000	1713.685547	-221.982758
-7424.066862	4088.557000	1712.667969	16.492121
-7424.066862	4088.557000	1711.649414	34.199654
-7424.066862	4088.557000	1710.630859	44.848679
-7424.066862	4088.557000	1709.612305	104.760666
-7424.066862	4088.557000	1708.593750	44.987545
-7424.066862	4088.557000	1707.575195	184.607635
-7424.066862	4088.557000	1706.555664	14.592581
-7424.066862	4088.557000	1705.536133	13.455461
-7424.066862	4088.557000	1704.516602	16.997728
-7424.066862	4088.557000	1703.497070	29.904144
-7424.066862	4088.557000	1702.477539	115.441986
-7424.066862	4088.557000	1701.457031	34.583855
-7424.066862	4088.557000	1700.437500	-55.618797
-7424.066862	4088.557000	1699.416992	29.854729
-7424.066862	4088.557000	1698.395508	134.015839
-7424.066862	4088.557000	1697.375000	-155.182617
-7424.066862	4088.557000	1696.354492	54.293011
-7424.066862	4088.557000	1695.333008	-5.454343
-7424.066862	4088.557000	1694.311523	79.881943
-7424.066862	4088.557000	1693.290039	104.354317
-7424.066862	4088.557000	1692.267578	2.504183
-7424.066862	4088.557000	1691.246094	-120.356140
-7424.066862	4088.557000	1690.223633	140.253418
-7424.066862	4088.557000	1689.201172	64.146843
-7424.066862	4088.557000	1688.178711	41.816517
-7424.066862	4088.557000	1687.155273	164.357056
-7424.066862	4088.557000	1686.132813	67.243927
-7424.066862	4088.557000	1685.109375	114.975700
-7424.066862	4088.557000	1684.085938	-47.495430
-7424.066862	4088.557000	1683.062500	107.632019
-7424.066862	4088.557000	1682.039063	258.025238
-7424.066862	4088.557000	1681.014648	153.948303
-7424.066862	4088.557000	1679.990234	101.244484
-7424.066862	4088.557000	1678.965820	277.196259
-7424.066862	4088.557000	1677.941406	231.476654
-7424.066862	4088.557000	1676.916992	106.476547
-7424.066862	4088.557000	1675.891602	212.356918
-7424.066862	4088.557000	1674.866211	175.984558
-7424.066862	4088.557000	1673.840820	39.396782
-7424.066862	4088.557000	1672.815430	-41.212826
-7424.066862	4088.557000	1671.790039	38.969425
-7424.066862	4088.557000	1670.763672	2.640184
-7424.066862	4088.557000	1669.737305	196.895233
-7424.066862	4088.557000	1668.710938	132.601501
-7424.066862	4088.557000	1667.684570	45.047794
-7424.066862	4088.557000	1666.658203	48.305607
-7424.066862	4088.557000	1665.630859	207.479309
-7424.066862	4088.557000	1664.603516	96.683723
-7424.066862	4088.557000	1663.576172	276.720856
-7424.066862	4088.557000	1662.548828	170.603622
-7424.066862	4088.557000	1661.520508	99.404152
-7424.066862	4088.557000	1660.493164	242.132187
-7424.066862	4088.557000	1659.464844	201.163193
-7424.066862	4088.557000	1658.436523	348.459686
-7424.066862	4088.557000	1657.408203	223.834412
-7424.066862	4088.557000	1656.378906	238.643677
-7424.066862	4088.557000	1655.350586	364.943085
-7424.066862	4088.557000	1654.321289	245.027130
-7424.066862	4088.557000	1653.291992	245.894394
-7424.066862	4088.557000	1652.261719	114.438362
-7424.066862	4088.557000	1651.232422	222.095459
-7424.066862	4088.557000	1650.202148	253.131866
-7424.066862	4088.557000	1649.171875	98.554016
-7424.066862	4088.557000	1648.141602	206.152161
-7424.066862	4088.557000	1647.111328	327.625763
-7424.066862	4088.557000	1646.080078	142.982544
-7424.066862	4088.557000	1645.049805	382.655975
-7424.066862	4088.557000	1644.018555	286.155487
-7424.066862	4088.557000	1642.987305	296.293091
-7424.066862	4088.557000	1641.955078	320.326538
-7424.066862	4088.557000	1640.923828	263.284027
-7424.066862	4088.557000	1639.891602	252.582214
-7424.066862	4088.557000	1638.859375	79.799713
-7424.066862	4088.557000	1637.827148	407.150635
-7424.066862	4088.557000	1636.794922	204.322723
-7424.066862	4088.557000	1635.761719	258.451691
-7424.066862	4088.557000	1634.729492	421.314667
-7424.066862	4088.557000	1633.696289	193.167221
-7424.066862	4088.557000	1632.662109	124.696136
-7424.066862	4088.557000	1631.628906	238.941193
-7424.066862	4088.557000	1630.594727	496.485168
-7424.066862	4088.557000	1629.561523	268.523071
-7424.066862	4088.557000	1628.527344	368.822296
-7424.066862	4088.557000	1627.493164	323.519989
-7424.066862	4088.557000	1626.458008	317.510742
-7424.066862	4088.557000	1625.423828	373.877197
-7424.066862	4088.557000	1624.388672	527.213989
-7424.066862	4088.557000	1623.353516	371.117157
-7424.066862	4088.557000	1622.318359	404.375061
-7424.066862	4088.557000	1621.282227	393.773956
-7424.066862	4088.557000	1620.247070	523.944214
-7424.066862	4088.557000	1619.210938	441.823273
-7424.066862	4088.557000	1618.174805	477.377380
-7424.066862	4088.557000	1617.137695	434.513855
-7424.066862	4088.557000	1616.101563	506.964600
-7424.066862	4088.557000	1615.064453	436.468872
-7424.066862	4088.557000	1614.027344	448.981171
-7424.066862	4088.557000	1612.990234	449.977264
-7424.066862	4088.557000	1611.953125	483.237640
-7424.066862	4088.557000	1610.916016	523.405151
-7424.066862	4088.557000	1609.877930	418.476074
-7424.066862	4088.557000	1608.839844	587.600098
-7424.066862	4088.557000	1607.801758	556.387756
-7424.066862	4088.557000	1606.763672	704.727051
-7424.066862	4088.557000	1605.724609	526.247070
-7424.066862	4088.557000	1604.685547	400.765503
-7424.066862	4088.557000	1603.646484	496.172119
-7424.066862	4088.557000	1602.607422	635.251404
-7424.066862	4088.557000	1601.568359	466.169556
-7424.066862	4088.557000	1600.528320	455.790161
-7424.066862	4088.557000	1599.489258	459.222656
-7424.066862	4088.557000	1598.449219	398.318085
-7424.066862	4088.557000	1597.408203	332.851074
-7424.066862	4088.557000	1596.368164	446.604828
-7424.066862	4088.557000	1595.327148	383.478241
-7424.066862	4088.557000	1594.287109	373.207581
-7424.066862	4088.557000	1593.246094	482.333435
-7424.066862	4088.557000	1592.204102	382.550415
-7424.066862	4088.557000	1591.163086	376.915924
-7424.066862	4088.557000	1590.121094	378.177704
-7424.066862	4088.557000	1589.079102	455.157043
-7424.066862	4088.557000	1588.037109	424.324860
-7424.066862	4088.557000	1586.995117	375.174500
-7424.066862	4088.557000	1585.953125	245.816559
-7424.066862	4088.557000	1584.910156	318.235962
-7424.066862	4088.557000	1583.867188	473.147430
-7424.066862	4088.557000	1582.824219	465.331451
-7424.066862	4088.557000	1581.781250	313.210114
-7424.066862	4088.557000	1580.737305	374.171753
-7424.066862	4088.557000	1579.693359	503.825531
-7424.066862	4088.557000	1578.649414	308.332794
-7424.066862	4088.557000	1577.605469	330.396912
-7424.066862	4088.557000	1576.561523	222.018021
-7424.066862	4088.557000	1575.516602	212.088486
-7424.066862	4088.557000	1574.472656	99.236382
-7424.066862	4088.557000	1573.427734	59.636787
-7424.066862	4088.557000	1572.381836	237.317291
-7424.066862	4088.557000	1571.336914	87.997688
-7424.066862	4088.557000	1570.291016	286.214478
-7424.066862	4088.557000	1569.246094	290.109253
-7424.066862	4088.557000	1568.200195	305.444153
-7424.066862	4088.557000	1567.153320	357.343475
-7424.066862	4088.557000	1566.107422	228.797287
-7424.066862	4088.557000	1565.060547	262.461456
-7424.066862	4088.557000	1564.013672	261.884308
-7424.066862	4088.557000	1562.966797	448.517212
-7424.066862	4088.557000	1561.919922	295.027344
-7424.066862	4088.557000	1560.872070	246.582672
-7424.066862	4088.557000	1559.825195	419.483582
-7424.066862	4088.557000	1558.777344	387.043365
-7424.066862	4088.557000	1557.729492	252.012405
-7424.066862	4088.557000	1556.680664	265.259918
-7424.066862	4088.557000	1555.632813	207.858551
-7424.066862	4088.557000	1554.583984	221.154007
-7424.066862	4088.557000	1553.535156	15.705182
-7424.066862	4088.557000	1552.486328	184.003433
-7424.066862	4088.557000	1551.436523	247.473770
-7424.066862	4088.557000	1550.387695	135.584106
-7424.066862	4088.557000	1549.337891	189.976288
-7424.066862	4088.557000	1548.288086	110.056709
-7424.066862	4088.557000	1547.238281	77.988609
-7424.066862	4088.557000	1546.187500	250.761551
-7424.066862	4088.557000	1545.136719	218.723282
-7424.066862	4088.557000	1544.086914	239.043686
-7424.066862	4088.557000	1543.035156	202.517410
-7424.066862	4088.557000	1541.984375	170.579636
-7424.066862	4088.557000	1540.933594	102.305870
-7424.066862	4088.557000	1539.881836	147.727814
-7424.066862	4088.557000	1538.830078	-45.455402
-7424.066862	4088.557000	1537.778320	179.519073
-7424.066862	4088.557000	1536.725586	81.860741
-7424.066862	4088.557000	1535.673828	102.368858
-7424.066862	4088.557000	1534.621094	225.073593
-7424.066862	4088.557000	1533.568359	177.486481
-7424.066862	4088.557000	1532.515625	334.225800
-7424.066862	4088.557000	1531.461914	209.527542
-7424.066862	4088.557000	1530.409180	148.436813
-7424.066862	4088.557000	1529.355469	141.836578
-7424.066862	4088.557000	1528.301758	212.377838
-7424.066862	4088.557000	1527.247070	40.285931
-7424.066862	4088.557000	1526.193359	40.593060
-7424.066862	4088.557000	1525.138672	40.924568
-7424.066862	4088.557000	1524.083984	16.354219
-7424.066862	4088.557000	1523.029297	-37.634457
-7424.066862	4088.557000	1521.974609	78.325851
-7424.066862	4088.557000	1520.918945	-145.466125
-7424.066862	4088.557000	1519.863281	-144.963120
-7424.066862	4088.557000	1518.807617	-69.721649
-7424.066862	4088.557000	1517.751953	-177.827530
-7424.066862	4088.557000	1516.696289	21.916639
-7424.066862	4088.557000	1515.639648	-74.796761
-7424.066862	4088.557000	1514.583008	118.115547
-7424.066862	4088.557000	1513.526367	-82.561165
-7424.066862	4088.557000	1512.469727	-9.514286
-7424.066862	4088.557000	1511.412109	-103.772018
-7424.066862	4088.557000	1510.355469	-26.171169
-7424.066862	4088.557000	1509.297852	-16.371731
-7424.066862	4088.557000	1508.240234	0.230876
-7424.066862	4088.557000	1507.181641	-78.026207
-7424.066862	4088.557000	1506.124023	-205.908737
-7424.066862	4088.557000	1505.065430	-49.185848
-7424.066862	4088.557000	1504.006836	69.122879
-7424.066862	4088.557000	1502.948242	27.150356
-7424.066862	4088.557000	1501.888672	-32.832546
-7424.066862	4088.557000	1500.830078	-126.605553
-7424.066862	4088.557000	1499.770508	-35.327175
-7424.066862	4088.557000	1498.710938	-192.156784
-7424.066862	4088.557000	1497.650391	-33.191566
-7424.066862	4088.557000	1496.590820	-110.987846
-7424.066862	4088.557000	1495.530273	-98.559395
-7424.066862	4088.557000	1494.469727	-34.269794
-7424.066862	4088.557000	1493.409180	-84.890457
-7424.066862	4088.557000	1492.348633	44.762287
-7424.066862	4088.557000	1491.287109	-136.428116
-7424.066862	4088.557000	1490.225586	18.015440
-7424.066862	4088.557000	1489.164063	-54.967525
-7424.066862	4088.557000	1488.102539	-28.845694
-7424.066862	4088.557000	1487.041016	-189.497910
-7424.066862	4088.557000	1485.978516	-154.297424
-7424.066862	4088.557000	1484.916016	-94.293640
-7424.066862	4088.557000	1483.853516	-155.815628
-7424.066862	4088.557000	1482.791016	-102.553734
-7424.066862	4088.557000	1481.727539	184.534897
-7424.066862	4088.557000	1480.664063	197.307968
-7424.066862	4088.557000	1479.600586	64.074097
-7424.066862	4088.557000	1478.537109	-71.357079
-7424.066862	4088.557000	1477.473633	-4.532400
-7424.066862	4088.557000	1476.409180	-31.973286
-7424.066862	4088.557000	1475.344727	106.771523
-7424.066862	4088.557000	1474.280273	61.427654
-7424.066862	4088.557000	1473.215820	78.848663
-7424.066862	4088.557000	1472.151367	98.639069
-7424.066862	4088.557000	1471.085938	188.075455
-7424.066862	4088.557000	1470.020508	75.558128
-7424.066862	4088.557000	1468.955078	283.493378
-7424.066862	4088.557000	1467.888672	184.659790
-7424.066862	4088.557000	1466.823242	90.536423
-7424.066862	4088.557000	1465.756836	110.492981
-7424.066862	4088.557000	1464.690430	121.509689
-7424.066862	4088.557000	1463.624023	269.195953
-7424.066862	4088.557000	1462.556641	148.393021
-7424.066862	4088.557000	1461.490234	172.877441
-7424.066862	4088.557000	1460.422852	244.193085
-7424.066862	4088.557000	1459.355469	347.024109
-7424.066862	4088.557000	1458.287109	353.742126
-7424.066862	4088.557000	1457.219727	316.230927
-7424.066862	4088.557000	1456.151367	222.179062
-7424.066862	4088.557000	1455.083008	418.966888
-7424.066862	4088.557000	1454.014648	376.945007
-7424.066862	4088.557000	1452.945313	300.823059
-7424.066862	4088.557000	1451.876953	331.863403
-7424.066862	4088.557000	1450.807617	306.447296
-7424.066862	4088.557000	1449.738281	386.519379
-7424.066862	4088.557000	1448.668945	338.260284
-7424.066862	4088.557000	1447.598633	388.985321
-7424.066862	4088.557000	1446.528320	383.743500
-7424.066862	4088.557000	1445.458008	251.910751
-7424.066862	4088.557000	1444.387695	417.956818
-7424.066862	4088.557000	1443.317383	417.646332
-7424.066862	4088.557000	1442.246094	392.060364
-7424.066862	4088.557000	1441.174805	282.447906
-7424.066862	4088.557000	1440.103516	498.069733
-7424.066862	4088.557000	1439.032227	457.465820
-7424.066862	4088.557000	1437.960938	538.432007
-7424.066862	4088.557000	1436.888672	574.774231
-7424.066862	4088.557000	1435.816406	474.647491
-7424.066862	4088.557000	1434.744141	652.371155
-7424.066862	4088.557000	1433.670898	453.219818
-7424.066862	4088.557000	1432.598633	302.131470
-7424.066862	4088.557000	1431.525391	229.019684
-7424.066862	4088.557000	1430.452148	317.570709
-7424.066862	4088.557000	1429.378906	-19.780945
-7424.066862	4088.557000	1428.304688	-12.301496
-7424.066862	4088.557000	1427.231445	35.462284
-7424.066862	4088.557000	1426.157227	106.350105
-7424.066862	4088.557000	1425.083008	157.212067
-7424.066862	4088.557000	1424.007813	93.337746
-7424.066862	4088.557000	1422.933594	157.996506
-7424.066862	4088.557000	1421.858398	7.763651
-7424.066862	4088.557000	1420.783203	10.986231
-7424.066862	4088.557000	1419.708008	95.244263
-7424.066862	4088.557000	1418.631836	29.951469
-7424.066862	4088.557000	1417.555664	95.309303
-7424.066862	4088.557000	1416.479492	-21.351259
-7424.066862	4088.557000	1415.403320	77.638664
-7424.066862	4088.557000	1414.327148	249.073944
-7424.066862	4088.557000	1413.250000	163.136002
-7424.066862	4088.557000	1412.173828	182.510590
-7424.066862	4088.557000	1411.096680	235.632004
-7424.066862	4088.557000	1410.018555	205.096939
-7424.066862	4088.557000	1408.941406	271.785278
-7424.066862	4088.557000	1407.863281	470.550446
-7424.066862	4088.557000	1406.785156	460.897247
-7424.066862	4088.557000	1405.707031	308.991638
-7424.066862	4088.557000	1404.628906	492.492706
-7424.066862	4088.557000	1403.549805	444.835083
-7424.066862	4088.557000	1402.470703	476.768555
-7424.066862	4088.557000	1401.391602	418.625153
-7424.066862	4088.557000	1400.312500	479.245514
-7424.066862	4088.557000	1399.233398	453.011414
-7424.066862	4088.557000	1398.153320	426.344940
-7424.066862	4088.557000	1397.073242	527.753540
-7424.066862	4088.557000	1395.993164	399.565308
-7424.066862	4088.557000	1394.913086	377.008606
-7424.066862	4088.557000	1393.832031	275.646210
-7424.066862	4088.557000	1392.750977	204.669144
-7424.066862	4088.557000	1391.669922	267.525513
-7424.066862	4088.557000	1390.588867	270.935913
-7424.066862	4088.557000	1389.506836	341.418304
-7424.066862	4088.557000	1388.425781	187.541946
-7424.066862	4088.557000	1387.343750	150.345825
-7424.066862	4088.557000	1386.261719	52.536358
-7424.066862	4088.557000	1385.178711	178.116013
-7424.066862	4088.557000	1384.096680	234.337357
-7424.066862	4088.557000	1383.013672	193.332413
-7424.066862	4088.557000	1381.930664	135.678543
-7424.066862	4088.557000	1380.846680	-65.821838
-7424.066862	4088.557000	1379.763672	241.957581
-7424.066862	4088.557000	1378.679688	49.699852
-7424.066862	4088.557000	1377.595703	-0.905470
-7424.066862	4088.557000	1376.511719	87.516487
-7424.066862	4088.557000	1375.427734	99.135521
-7424.066862	4088.557000	1374.342773	95.969017
-7424.066862	4088.557000	1373.257813	144.223984
-7424.066862	4088.557000	1372.172852	23.687414
-7424.066862	4088.557000	1371.087891	209.308380
-7424.066862	4088.557000	1370.001953	300.606323
-7424.066862	4088.557000	1368.916992	220.353516
-7424.066862	4088.557000	1367.831055	213.130005
-7424.066862	4088.557000	1366.744141	240.028503
-7424.066862	4088.557000	1365.658203	408.037933
-7424.066862	4088.557000	1364.571289	281.608582
-7424.066862	4088.557000	1363.484375	334.083923
-7424.066862	4088.557000	1362.397461	316.162109
-7424.066862	4088.557000	1361.310547	339.549988
-7424.066862	4088.557000	1360.222656	412.810211
-7424.066862	4088.557000	1359.135742	287.456757
-7424.066862	4088.557000	1358.047852	319.107178
-7424.066862	4088.557000	1356.958984	225.030029
-7424.066862	4088.557000	1355.871094	240.794769
-7424.066862	4088.557000	1354.782227	275.320923
-7424.066862	4088.557000	1353.693359	485.000519
-7424.066862	4088.557000	1352.604492	505.060028
-7424.066862	4088.557000	1351.515625	387.464081
-7424.066862	4088.557000	1350.425781	258.522644
-7424.066862	4088.557000	1349.335938	425.909882
-7424.066862	4088.557000	1348.246094	518.744812
-7424.066862	4088.557000	1347.156250	468.773285
-7424.066862	4088.557000	1346.066406	525.654358
-7424.066862	4088.557000	1344.975586	450.555542
-7424.066862	4088.557000	1343.884766	431.268982
-7424.066862	4088.557000	1342.793945	603.819946
-7424.066862	4088.557000	1341.702148	529.099609
-7424.066862	4088.557000	1340.611328	422.372009
-7424.066862	4088.557000	1339.519531	558.822021
-7424.066862	4088.557000	1338.427734	459.431183
-7424.066862	4088.557000	1337.334961	482.893463
-7424.066862	4088.557000	1336.243164	346.620270
-7424.066862	4088.557000	1335.150391	508.670624
-7424.066862	4088.557000	1334.057617	198.222260
-7424.066862	4088.557000	1332.964844	386.856079
-7424.066862	4088.557000	1331.871094	447.879395
-7424.066862	4088.557000	1330.778320	375.745422
-7424.066862	4088.557000	1329.684570	290.791687
-7424.066862	4088.557000	1328.590820	319.466339
-7424.066862	4088.557000	1327.496094	281.944977
-7424.066862	4088.557000	1326.402344	425.203064
-7424.066862	4088.557000	1325.307617	224.000153
-7424.066862	4088.557000	1324.212891	462.017761
-7424.066862	4088.557000	1323.117188	303.470581
-7424.066862	4088.557000	1322.022461	318.253845
-7424.066862	4088.557000	1320.926758	512.147766
-7424.066862	4088.557000	1319.831055	395.636536
-7424.066862	4088.557000	1318.735352	251.819519
-7424.066862	4088.557000	1317.638672	447.627411
-7424.066862	4088.557000	1316.542969	342.045013
-7424.066862	4088.557000	1315.446289	237.033463
-7424.066862	4088.557000	1314.349609	330.613892
-7424.066862	4088.557000	1313.251953	335.971893
-7424.066862	4088.557000	1312.155273	345.130249
-7424.066862	4088.557000	1311.057617	319.612732
-7424.066862	4088.557000	1309.959961	281.554626
-7424.066862	4088.557000	1308.862305	462.695007
-7424.066862	4088.557000	1307.763672	325.792847
-7424.066862	4088.557000	1306.665039	256.030243
-7424.066862	4088.557000	1305.566406	313.480255
-7424.066862	4088.557000	1304.467773	297.228607
-7424.066862	4088.557000	1303.369141	338.588593
-7424.066862	4088.557000	1302.269531	416.471619
-7424.066862	4088.557000	1301.169922	308.876068
-7424.066862	4088.557000	1300.070313	435.827179
-7424.066862	4088.557000	1298.970703	570.511292
-7424.066862	4088.557000	1297.870117	593.058533
-7424.066862	4088.557000	1296.769531	625.811096
-7424.066862	4088.557000	1295.668945	625.435730
-7424.066862	4088.557000	1294.568359	714.852112
-7424.066862	4088.557000	1293.466797	746.798035
-7424.066862	4088.557000	1292.366211	754.410828
-7424.066862	4088.557000	1291.264648	854.038086
-7424.066862	4088.557000	1290.162109	1028.845703
-7424.066862	4088.557000	1289.060547	901.540222
-7424.066862	4088.557000	1287.958008	850.438171
-7424.066862	4088.557000	1286.855469	993.956787
-7424.066862	4088.557000	1285.752930	749.010742
-7424.066862	4088.557000	1284.650391	756.485718
-7424.066862	4088.557000	1283.546875	711.634155
-7424.066862	4088.557000	1282.444336	707.294250
-7424.066862	4088.557000	1281.339844	663.710144
-7424.066862	4088.557000	1280.236328	720.835632
-7424.066862	4088.557000	1279.132813	475.882111
-7424.066862	4088.557000	1278.028320	475.473206
-7424.066862	4088.557000	1276.923828	429.975189
-7424.066862	4088.557000	1275.819336	440.268707
-7424.066862	4088.557000	1274.713867	466.015472
-7424.066862	4088.557000	1273.608398	566.905029
-7424.066862	4088.557000	1272.503906	449.894226
-7424.066862	4088.557000	1271.397461	459.038208
-7424.066862	4088.557000	1270.291992	381.963135
-7424.066862	4088.557000	1269.185547	341.449860
-7424.066862	4088.557000	1268.080078	362.539337
-7424.066862	4088.557000	1266.972656	225.320053
-7424.066862	4088.557000	1265.866211	212.920929
-7424.066862	4088.557000	1264.759766	129.820236
-7424.066862	4088.557000	1263.652344	212.694473
-7424.066862	4088.557000	1262.544922	111.638229
-7424.066862	4088.557000	1261.436523	93.615181
-7424.066862	4088.557000	1260.329102	180.073410
-7424.066862	4088.557000	1259.220703	106.150391
-7424.066862	4088.557000	1258.112305	253.995361
-7424.066862	4088.557000	1257.003906	324.506561
-7424.066862	4088.557000	1255.895508	254.775620
-7424.066862	4088.557000	1254.786133	373.839478
-7424.066862	4088.557000	1253.676758	490.066071
-7424.066862	4088.557000	1252.567383	587.133911
-7424.066862	4088.557000	1251.458008	679.594604
-7424.066862	4088.557000	1250.347656	772.194092
-7424.066862	4088.557000	1249.237305	845.323730
-7424.066862	4088.557000	1248.126953	1035.898438
-7424.066862	4088.557000	1247.016602	1015.050720
-7424.066862	4088.557000	1245.905273	1097.217041
-7424.066862	4088.557000	1244.793945	902.754700
-7424.066862	4088.557000	1243.682617	983.821472
-7424.066862	4088.557000	1242.571289	794.950562
-7424.066862	4088.557000	1241.459961	777.447266
-7424.066862	4088.557000	1240.347656	654.259033
-7424.066862	4088.557000	1239.235352	500.248627
-7424.066862	4088.557000	1238.123047	418.076111
-7424.066862	4088.557000	1237.009766	418.809814
-7424.066862	4088.557000	1235.897461	220.753876
-7424.066862	4088.557000	1234.784180	200.656555
-7424.066862	4088.557000	1233.670898	108.425674
-7424.066862	4088.557000	1232.556641	112.129616
-7424.066862	4088.557000	1231.443359	24.719923
-7424.066862	4088.557000	1230.329102	31.496656
-7424.066862	4088.557000	1229.214844	144.591263
-7424.066862	4088.557000	1228.099609	122.965691
-7424.066862	4088.557000	1226.985352	90.591965
-7424.066862	4088.557000	1225.870117	247.959641
-7424.066862	4088.557000	1224.754883	68.055603
-7424.066862	4088.557000	1223.639648	220.120880
-7424.066862	4088.557000	1222.523438	248.943649
-7424.066862	4088.557000	1221.408203	272.056427
-7424.066862	4088.557000	1220.291992	123.271049
-7424.066862	4088.557000	1219.174805	175.227051
-7424.066862	4088.557000	1218.058594	90.660004
-7424.066862	4088.557000	1216.941406	98.281242
-7424.066862	4088.557000	1215.824219	28.876936
-7424.066862	4088.557000	1214.707031	189.766739
-7424.066862	4088.557000	1213.589844	40.781513
-7424.066862	4088.557000	1212.471680	20.133821
-7424.066862	4088.557000	1211.353516	149.579041
-7424.066862	4088.557000	1210.235352	110.776192
-7424.066862	4088.557000	1209.117188	90.211418
-7424.066862	4088.557000	1207.998047	71.603630
-7424.066862	4088.557000	1206.878906	195.374222
-7424.066862	4088.557000	1205.759766	117.536705
-7424.066862	4088.557000	1204.640625	165.315033
-7424.066862	4088.557000	1203.520508	18.363173
-7424.066862	4088.557000	1202.401367	177.889771
-7424.066862	4088.557000	1201.281250	155.360687
-7424.066862	4088.557000	1200.160156	229.026230
-7424.066862	4088.557000	1199.040039	72.150223
-7424.066862	4088.557000	1197.918945	112.587677
-7424.066862	4088.557000	1196.797852	148.351776
-7424.066862	4088.557000	1195.676758	103.949173
-7424.066862	4088.557000	1194.555664	176.754242
-7424.066862	4088.557000	1193.433594	17.551846
-7424.066862	4088.557000	1192.311523	23.037769
-7424.066862	4088.557000	1191.189453	-7.691465
-7424.066862	4088.557000	1190.066406	-103.375397
-7424.066862	4088.557000	1188.944336	-51.252193
-7424.066862	4088.557000	1187.821289	-55.281254
-7424.066862	4088.557000	1186.698242	-172.911819
-7424.066862	4088.557000	1185.574219	-78.679794
-7424.066862	4088.557000	1184.451172	-39.484989
-7424.066862	4088.557000	1183.327148	-47.293129
-7424.066862	4088.557000	1182.203125	-120.472885
-7424.066862	4088.557000	1181.078125	-52.904411
-7424.066862	4088.557000	1179.954102	-92.550003
-7424.066862	4088.557000	1178.829102	-78.815804
-7424.066862	4088.557000	1177.704102	50.775692
-7424.066862	4088.557000	1176.579102	-118.181892
-7424.066862	4088.557000	1175.453125	-87.437355
-7424.066862	4088.557000	1174.327148	-214.911118
-7424.066862	4088.557000	1173.201172	-14.045230
-7424.066862	4088.557000	1172.075195	-148.718231
-7424.066862	4088.557000	1170.949219	-78.027405
-7424.066862	4088.557000	1169.822266	-144.524307
-7424.066862	4088.557000	1168.695313	-113.176712
-7424.066862	4088.557000	1167.568359	-134.220093
-7424.066862	4088.557000	1166.440430	-60.103939
-7424.066862	4088.557000	1165.313477	-66.014137
-7424.066862	4088.557000	1164.185547	-127.360275
-7424.066862	4088.557000	1163.057617	-59.965088
-7424.066862	4088.557000	1161.928711	-14.797100
-7424.066862	4088.557000	1160.800781	49.677525
-7424.066862	4088.557000	1159.671875	-82.721298
-7424.066862	4088.557000	1158.541992	-10.154336
-7424.066862	4088.557000	1157.413086	81.551422
-7424.066862	4088.557000	1156.283203	-115.696220
-7424.066862	4088.557000	1155.154297	34.571663
-7424.066862	4088.557000	1154.023438	-69.320793
-7424.066862	4088.557000	1152.893555	-71.430382
-7424.066862	4088.557000	1151.763672	-43.004917
-7424.066862	4088.557000	1150.632813	41.664795
-7424.066862	4088.557000	1149.501953	-74.712212
-7424.066862	4088.557000	1148.370117	-80.529770
-7424.066862	4088.557000	1147.239258	-87.626526
-7424.066862	4088.557000	1146.107422	-15.575186
-7424.066862	4088.557000	1144.975586	-139.079300
-7424.066862	4088.557000	1143.843750	-116.664368
-7424.066862	4088.557000	1142.710938	17.934460
-7424.066862	4088.557000	1141.578125	17.211895
-7424.066862	4088.557000	1140.445313	-196.862930
-7424.066862	4088.557000	1139.312500	-42.313553
-7424.066862	4088.557000	1138.178711	-148.961548
-7424.066862	4088.557000	1137.045898	64.533691
-7424.066862	4088.557000	1135.912109	-67.787292
-7424.066862	4088.557000	1134.777344	-44.328419
-7424.066862	4088.557000	1133.643555	21.705059
-7424.066862	4088.557000	1132.508789	-0.534534
-7424.066862	4088.557000	1131.374023	155.966599
-7424.066862	4088.557000	1130.239258	74.836769
-7424.066862	4088.557000	1129.104492	3.064672
-7424.066862	4088.557000	1127.968750	-7.901772
-7424.066862	4088.557000	1126.833008	-14.330977
-7424.066862	4088.557000	1125.697266	84.147575
-7424.066862	4088.557000	1124.560547	143.876328
-7424.066862	4088.557000	1123.424805	66.640373
-7424.066862	4088.557000	1122.288086	131.170059
-7424.066862	4088.557000	1121.151367	200.400650
-7424.066862	4088.557000	1120.013672	139.779510
-7424.066862	4088.557000	1118.876953	201.331070
-7424.066862	4088.557000	1117.739258	64.768539
-7424.066862	4088.557000	1116.601563	8.680513
-7424.066862	4088.557000	1115.462891	63.409401
-7424.066862	4088.557000	1114.324219	56.889000
-7424.066862	4088.557000	1113.186523	68.435455
-7424.066862	4088.557000	1112.046875	78.344688
-7424.066862	4088.557000	1110.908203	20.681482
-7424.066862	4088.557000	1109.769531	-91.130699
-7424.066862	4088.557000	1108.629883	-68.576607
-7424.066862	4088.557000	1107.490234	-58.652100
-7424.066862	4088.557000	1106.349609	42.018410
-7424.066862	4088.557000	1105.209961	-68.190460
-7424.066862	4088.557000	1104.069336	-148.160782
-7424.066862	4088.557000	1102.928711	-41.440140
-7424.066862	4088.557000	1101.787109	49.689320
-7424.066862	4088.557000	1100.646484	28.267303
-7424.066862	4088.557000	1099.504883	-83.710373
-7424.066862	4088.557000	1098.363281	210.934326
-7424.066862	4088.557000	1097.221680	85.302414
-7424.066862	4088.557000	1096.079102	72.116608
-7424.066862	4088.557000	1094.936523	63.711208
-7424.066862	4088.557000	1093.793945	60.635487
-7424.066862	4088.557000	1092.651367	19.385000
-7424.066862	4088.557000	1091.507813	42.244934
-7424.066862	4088.557000	1090.364258	138.497375
-7424.066862	4088.557000	1089.220703	82.862511
-7424.066862	4088.557000	1088.077148	-59.971249
-7424.066862	4088.557000	1086.933594	194.097626
-7424.066862	4088.557000	1085.789063	118.328423
-7424.066862	4088.557000	1084.644531	108.285492
-7424.066862	4088.557000	1083.499023	104.623611
-7424.066862	4088.557000	1082.354492	24.696671
-7424.066862	4088.557000	1081.208984	143.209290
-7424.066862	4088.557000	1080.063477	49.101337
-7424.066862	4088.557000	1078.917969	39.507545
-7424.066862	4088.557000	1077.771484	-8.485697
-7424.066862	4088.557000	1076.625977	81.910637
-7424.066862	4088.557000	1075.479492	152.749725
-7424.066862	4088.557000	1074.332031	93.207802
-7424.066862	4088.557000	1073.185547	-86.605278
-7424.066862	4088.557000	1072.038086	100.635117
-7424.066862	4088.557000	1070.890625	42.630646
-7424.066862	4088.557000	1069.743164	66.562912
-7424.066862	4088.557000	1068.594727	205.550980
-7424.066862	4088.557000	1067.447266	23.208712
-7424.066862	4088.557000	1066.298828	76.367493
-7424.066862	4088.557000	1065.149414	-2.868715
-7424.066862	4088.557000	1064.000977	-12.118436
-7424.066862	4088.557000	1062.851563	107.439926
-7424.066862	4088.557000	1061.702148	83.003204
-7424.066862	4088.557000	1060.552734	67.155853
-7424.066862	4088.557000	1059.402344	48.224400
-7424.066862	4088.557000	1058.252930	171.961975
-7424.066862	4088.557000	1057.102539	163.326340
-7424.066862	4088.557000	1055.951172	-34.916424
-7424.066862	4088.557000	1054.800781	69.481964
-7424.066862	4088.557000	1053.649414	74.080795
-7424.066862	4088.557000	1052.498047	13.539359
-7424.066862	4088.557000	1051.346680	-39.660900
-7424.066862	4088.557000	1050.194336	-61.564114
-7424.066862	4088.557000	1049.042969	21.321739
-7424.066862	4088.557000	1047.890625	7.866418
-7424.066862	4088.557000	1046.738281	195.777603
-7424.066862	4088.557000	1045.584961	-86.707603
-7424.066862	4088.557000	1044.431641	-2.886884
-7424.066862	4088.557000	1043.278320	12.099133
-7424.066862	4088.557000	1042.125000	55.490673
-7424.066862	4088.557000	1040.971680	50.144176
-7424.066862	4088.557000	1039.817383	-56.633953
-7424.066862	4088.557000	1038.663086	-23.821043
-7424.066862	4088.557000	1037.508789	72.055069
-7424.066862	4088.557000	1036.353516	-2.523445
-7424.066862	4088.557000	1035.198242	-29.066122
-7424.066862	4088.557000	1034.042969	6.568153
-7424.066862	4088.557000	1032.887695	-18.062029
-7424.066862	4088.557000	1031.732422	44.838253
-7424.066862	4088.557000	1030.576172	179.656403
-7424.066862	4088.557000	1029.419922	194.375122
-7424.066862	4088.557000	1028.263672	-18.188702
-7424.066862	4088.557000	1027.106445	-32.252659
-7424.066862	4088.557000	1025.949219	4.258740
-7424.066862	4088.557000	1024.792969	-13.691279
-7424.066862	4088.557000	1023.634766	32.233700
-7424.066862	4088.557000	1022.477539	235.997070
-7424.066862	4088.557000	1021.319336	207.996597
-7424.066862	4088.557000	1020.161133	4.647647
-7424.066862	4088.557000	1019.002930	-30.557091
-7424.066862	4088.557000	1017.843750	10.323910
-7424.066862	4088.557000	1016.684570	47.929192
-7424.066862	4088.557000	1015.525391	-20.258818
-7424.066862	4088.557000	1014.366211	33.473755
-7424.066862	4088.557000	1013.207031	24.799767
-7424.066862	4088.557000	1012.046875	9.502505
-7424.066862	4088.557000	1010.886719	-21.298489
-7424.066862	4088.557000	1009.726563	-35.382015
-7424.066862	4088.557000	1008.565430	-29.057583
-7424.066862	4088.557000	1007.404297	-148.208069
-7424.066862	4088.557000	1006.243164	83.611847
-7424.066862	4088.557000	1005.082031	3.957343
-7424.066862	4088.557000	1003.920898	89.695618
-7424.066862	4088.557000	1002.758789	-143.199661
-7424.066862	4088.557000	1001.596680	36.806622
-7424.066862	4088.557000	1000.433594	11.314099
-7424.066862	4088.557000	999.271484	-136.225098
-7424.066862	4088.557000	998.108398	-86.929115
-7424.066862	4088.557000	996.945313	60.922256
-7424.066862	4088.557000	995.782227	-46.523998
-7424.066862	4088.557000	994.618164	90.194992
-7424.066862	4088.557000	993.454102	30.064596
-7424.066862	4088.557000	992.290039	-64.122696
-7424.066862	4088.557000	991.125977	20.856272
-7424.066862	4088.557000	989.960938	83.998024
-7424.066862	4088.557000	988.796875	94.201126
-7424.066862	4088.557000	987.630859	5.071821
-7424.066862	4088.557000	986.465820	69.493134
-7424.066862	4088.557000	985.300781	-115.438805
-7424.066862	4088.557000	984.134766	-147.854462
-7424.066862	4088.557000	982.968750	46.365414
-7424.066862	4088.557000	981.801758	-99.638191
-7424.066862	4088.557000	980.635742	-20.049129
-7424.066862	4088.557000	979.468750	-55.364204
-7424.066862	4088.557000	978.301758	-80.140915
-7424.066862	4088.557000	977.133789	173.412109
-7424.066862	4088.557000	975.966797	124.543175
-7424.066862	4088.557000	974.798828	103.590401
-7424.066862	4088.557000	973.630859	-79.038849
-7424.066862	4088.557000	972.461914	135.088867
-7424.066862	4088.557000	971.293945	-42.581810
-7424.066862	4088.557000	970.125000	85.179276
-7424.066862	4088.557000	968.956055	153.742401
-7424.066862	4088.557000	967.786133	221.604446
-7424.066862	4088.557000	966.617188	104.321953
-7424.066862	4088.557000	965.447266	195.136703
-7424.066862	4088.557000	964.276367	-33.541145
-7424.066862	4088.557000	963.106445	121.138908
-7424.066862	4088.557000	961.935547	80.783859
-7424.066862	4088.557000	960.764648	85.162476
-7424.066862	4088.557000	959.593750	242.547714
-7424.066862	4088.557000	958.422852	70.754982
-7424.066862	4088.557000	957.250977	78.295273
-7424.066862	4088.557000	956.079102	152.923691
-7424.066862	4088.557000	954.907227	4.357548
-7424.066862	4088.557000	953.734375	11.787946
-7424.066862	4088.557000	952.562500	-41.743549
-7424.066862	4088.557000	951.389648	3.887494
-7424.066862	4088.557000	950.215820	-147.031342
-7424.066862	4088.557000	949.042969	75.205582
-7424.066862	4088.557000	947.869141	-66.106911
-7424.066862	4088.557000	946.695313	-27.976843
-7424.066862	4088.557000	945.521484	46.286213
-7424.066862	4088.557000	944.346680	-228.974335
-7424.066862	4088.557000	943.172852	-49.937038
-7424.066862	4088.557000	941.998047	26.471148
-7424.066862	4088.557000	940.822266	-28.753712
-7424.066862	4088.557000	939.647461	147.972076
-7424.066862	4088.557000	938.471680	28.266937
-7424.066862	4088.557000	937.295898	-129.653961
-7424.066862	4088.557000	936.119141	181.114761
-7424.066862	4088.557000	934.943359	-96.521378
-7424.066862	4088.557000	933.766602	82.473450
-7424.066862	4088.557000	932.589844	180.392593
-7424.066862	4088.557000	931.413086	-99.550102
-7424.066862	4088.557000	930.235352	-4.162701
-7424.066862	4088.557000	929.057617	29.105972
-7424.066862	4088.557000	927.879883	71.841347
-7424.066862	4088.557000	926.702148	78.803650
-7424.066862	4088.557000	925.523438	112.020241
-7424.066862	4088.557000	924.344727	-10.076329
-7424.066862	4088.557000	923.166016	54.165272
-7424.066862	4088.557000	921.987305	30.024323
-7424.066862	4088.557000	920.807617	-10.824885
-7424.066862	4088.557000	919.627930	-7.282788
-7424.066862	4088.557000	919.497070	127.760117
-7424.066862	4088.557000	918.331055	-135.101837
-7424.066862	4088.557000	917.165039	72.201096
-7424.066862	4088.557000	915.999023	-4.479543
-7424.066862	4088.557000	914.833008	47.661388
-7424.066862	4088.557000	913.666016	166.546661
-7424.066862	4088.557000	912.499023	-110.399391
-7424.066862	4088.557000	911.332031	39.441334
-7424.066862	4088.557000	910.165039	-103.922394
-7424.066862	4088.557000	908.997070	91.113808
-7424.066862	4088.557000	907.830078	116.920151
-7424.066862	4088.557000	906.661133	59.351837
-7424.066862	4088.557000	905.493164	147.053101
-7424.066862	4088.557000	904.325195	129.955948
-7424.066862	4088.557000	903.156250	229.494324
-7424.066862	4088.557000	901.987305	160.016891
-7424.066862	4088.557000	900.818359	209.525574
-7424.066862	4088.557000	899.648438	99.625183
-7424.066862	4088.557000	898.478516	134.841171
-7424.066862	4088.557000	897.308594	288.927399
-7424.066862	4088.557000	896.138672	186.184097
-7424.066862	4088.557000	894.968750	59.704002
-7424.066862	4088.557000	893.797852	132.889236
-7424.066862	4088.557000	892.626953	32.591957
-7424.066862	4088.557000	891.456055	98.608498
-7424.066862	4088.557000	890.284180	155.091431
-7424.066862	4088.557000	889.113281	107.062088
-7424.066862	4088.557000	887.941406	-16.921881
-7424.066862	4088.557000	886.768555	86.995392
-7424.066862	4088.557000	885.596680	143.397293
-7424.066862	4088.557000	884.423828	-11.387086
-7424.066862	4088.557000	883.250977	59.227844
-7424.066862	4088.557000	882.078125	-107.353180
-7424.066862	4088.557000	880.905273	58.076797
-7424.066862	4088.557000	879.731445	-32.593391
-7424.066862	4088.557000	878.557617	144.587616
-7424.066862	4088.557000	877.383789	117.897079
-7424.066862	4088.557000	876.209961	183.604492
-7424.066862	4088.557000	875.035156	71.627411
-7424.066862	4088.557000	873.860352	-33.209217
-7424.066862	4088.557000	872.685547	1.680960
-7424.066862	4088.557000	871.510742	-55.774887
-7424.066862	4088.557000	870.334961	116.357880
-7424.066862	4088.557000	869.159180	-38.132404
-7424.066862	4088.557000	867.983398	22.714148
-7424.066862	4088.557000	866.807617	97.717285
-7424.066862	4088.557000	865.630859	-108.728935
-7424.066862	4088.557000	864.454102	8.808404
-7424.066862	4088.557000	863.277344	8.095813
-7424.066862	4088.557000	862.100586	73.545807
-7424.066862	4088.557000	860.922852	-97.325027
-7424.066862	4088.557000	859.745117	289.381561
-7424.066862	4088.557000	858.567383	-18.474617
-7424.066862	4088.557000	857.389648	72.859741
-7424.066862	4088.557000	856.210938	-17.642279
-7424.066862	4088.557000	855.032227	73.633934
-7424.066862	4088.557000	853.853516	112.942207
-7424.066862	4088.557000	852.674805	50.765831
-7424.066862	4088.557000	851.495117	31.067102
-7424.066862	4088.557000	850.315430	-2.786398
-7424.066862	4088.557000	849.135742	-10.700041
-7424.066862	4088.557000	847.956055	26.169827
-7424.066862	4088.557000	846.775391	-130.261917
-7424.066862	4088.557000	845.595703	-25.067030
-7424.066862	4088.557000	844.415039	63.581886
-7424.066862	4088.557000	843.233398	-59.818722
-7424.066862	4088.557000	842.052734	94.718529
-7424.066862	4088.557000	840.871094	122.032196
-7424.066862	4088.557000	839.689453	123.426483
-7424.066862	4088.557000	838.506836	-70.543694
-7424.066862	4088.557000	837.325195	-26.780022
-7424.066862	4088.557000	836.142578	54.597473
-7424.066862	4088.557000	834.959961	88.884224
-7424.066862	4088.557000	833.777344	29.074274
-7424.066862	4088.557000	832.593750	-54.234058
-7424.066862	4088.557000	831.410156	-38.791199
-7424.066862	4088.557000	830.226563	-18.668062
-7424.066862	4088.557000	829.042969	-10.315930
-7424.066862	4088.557000	827.858398	-25.472467
-7424.066862	4088.557000	826.673828	53.315556
-7424.066862	4088.557000	825.489258	96.831230
-7424.066862	4088.557000	824.304688	-7.598910
-7424.066862	4088.557000	823.120117	14.755984
-7424.066862	4088.557000	821.934570	-68.519554
-7424.066862	4088.557000	820.749023	-6.300366
-7424.066862	4088.557000	819.562500	30.075209
-7424.066862	4088.557000	818.376953	195.416290
-7424.066862	4088.557000	817.190430	62.869556
-7424.066862	4088.557000	816.003906	-46.193218
-7424.066862	4088.557000	814.817383	-218.513855
-7424.066862	4088.557000	813.629883	-29.880951
-7424.066862	4088.557000	812.442383	-10.037920
-7424.066862	4088.557000	811.254883	108.166481
-7424.066862	4088.557000	810.067383	137.308792
-7424.066862	4088.557000	808.878906	-161.391357
-7424.066862	4088.557000	807.690430	-80.732979
-7424.066862	4088.557000	806.501953	-32.892960
-7424.066862	4088.557000	805.313477	-120.814301
-7424.066862	4088.557000	804.124023	-124.488358
-7424.066862	4088.557000	802.934570	-20.578363
-7424.066862	4088.557000	801.745117	-108.497032
-7424.066862	4088.557000	800.555664	-2.329949
-7424.066862	4088.557000	799.365234	33.647778
-7424.066862	4088.557000	798.175781	27.521608
-7424.066862	4088.557000	796.985352	-128.166763
-7424.066862	4088.557000	795.793945	-29.159227
-7424.066862	4088.557000	794.603516	-25.977150
-7424.066862	4088.557000	793.412109	-20.477865
-7424.066862	4088.557000	792.220703	24.691648
-7424.066862	4088.557000	791.028320	-74.899597
-7424.066862	4088.557000	789.836914	91.583107
-7424.066862	4088.557000	788.644531	-17.351490
-7424.066862	4088.557000	787.452148	6.711707
-7424.066862	4088.557000	786.258789	142.700043
-7424.066862	4088.557000	785.066406	-152.784058
-7424.066862	4088.557000	783.873047	25.107365
-7424.066862	4088.557000	782.679688	4.779225
-7424.066862	4088.557000	781.485352	-120.427620
-7424.066862	4088.557000	780.291992	61.947281
-7424.066862	4088.557000	779.097656	-140.130554
-7424.066862	4088.557000	777.903320	125.976776
-7424.066862	4088.557000	776.708008	35.697441
-7424.066862	4088.557000	775.512695	-8.004461
-7424.066862	4088.557000	774.318359	50.699966
-7424.066862	4088.557000	773.122070	-0.008035
-7424.066862	4088.557000	771.926758	-62.350006
-7424.066862	4088.557000	770.730469	-10.708798
-7424.066862	4088.557000	769.534180	-117.249634
-7424.066862	4088.557000	768.337891	80.820328
-7424.066862	4088.557000	767.141602	53.299305
-7424.066862	4088.557000	765.944336	90.844818
-7424.066862	4088.557000	764.747070	-43.596451
-7424.066862	4088.557000	763.549805	38.050072
-7424.066862	4088.557000	762.351563	-61.526882
-7424.066862	4088.557000	761.154297	3.789944
-7424.066862	4088.557000	759.956055	-81.852829
-7424.066862	4088.557000	758.757813	-190.694473
-7424.066862	4088.557000	757.558594	-0.136186
-7424.066862	4088.557000	756.359375	23.261524
-7424.066862	4088.557000	755.160156	-53.124031
-7424.066862	4088.557000	753.960938	21.253422
-7424.066862	4088.557000	752.761719	199.923050
-7424.066862	4088.557000	751.561523	100.297073
-7424.066862	4088.557000	750.361328	-87.389046
-7424.066862	4088.557000	749.160156	-68.773918
-7424.066862	4088.557000	747.959961	107.355843
-7424.066862	4088.557000	746.758789	17.004351
-7424.066862	4088.557000	745.557617	183.732849
-7424.066862	4088.557000	744.356445	14.630098
-7424.066862	4088.557000	743.154297	-145.164780
-7424.066862	4088.557000	741.952148	65.396339
-7424.066862	4088.557000	740.750000	192.541367
-7424.066862	4088.557000	739.547852	215.502136
-7424.066862	4088.557000	738.344727	0.188688
-7424.066862	4088.557000	737.142578	18.505215
-7424.066862	4088.557000	735.939453	124.647881
-7424.066862	4088.557000	734.735352	-55.912285
-7424.066862	4088.557000	733.532227	156.460953
-7424.066862	4088.557000	732.328125	239.327423
-7424.066862	4088.557000	731.124023	195.077698
-7424.066862	4088.557000	729.918945	46.888329
-7424.066862	4088.557000	728.714844	148.122269
-7424.066862	4088.557000	727.509766	152.325027
-7424.066862	4088.557000	726.303711	172.658569
-7424.066862	4088.557000	725.098633	176.802383
-7424.066862	4088.557000	723.892578	153.233032
-7424.066862	4088.557000	722.686523	71.978943
-7424.066862	4088.557000	721.480469	140.638672
-7424.066862	4088.557000	720.274414	87.037361
-7424.066862	4088.557000	719.067383	185.581818
-7424.066862	4088.557000	717.860352	387.774719
-7424.066862	4088.557000	716.653320	122.079330
-7424.066862	4088.557000	715.445313	135.233032
-7424.066862	4088.557000	714.238281	125.320503
-7424.066862	4088.557000	713.030273	78.540085
-7424.066862	4088.557000	711.821289	-170.857849
-7424.066862	4088.557000	710.613281	24.089449
-7424.066862	4088.557000	709.404297	62.431286
-7424.066862	4088.557000	708.195313	8.692482
-7424.066862	4088.557000	706.986328	-132.468796
-7424.066862	4088.557000	705.776367	36.899456
-7424.066862	4088.557000	704.566406	-30.678818
-7424.066862	4088.557000	703.356445	-102.854057
-7424.066862	4088.557000	702.146484	-66.995918
-7424.066862	4088.557000	700.935547	51.549683
-7424.066862	4088.557000	699.724609	-112.582382
-7424.066862	4088.557000	698.513672	-81.421440
-7424.066862	4088.557000	697.302734	-135.275131
-7424.066862	4088.557000	696.090820	-46.774578
-7424.066862	4088.557000	694.878906	43.956375
-7424.066862	4088.557000	693.666992	-16.858154
-7424.066862	4088.557000	692.455078	-89.148842
-7424.066862	4088.557000	691.242188	90.924294
-7424.066862	4088.557000	690.029297	98.865448
-7424.066862	4088.557000	688.816406	-28.524580
-7424.066862	4088.557000	687.602539	-6.860955
-7424.066862	4088.557000	686.389648	136.255569
-7424.066862	4088.557000	685.175781	-75.941460
-7424.066862	4088.557000	683.960938	131.229538
-7424.066862	4088.557000	682.747070	132.112305
-7424.066862	4088.557000	681.532227	160.450500
-7424.066862	4088.557000	680.317383	316.980469
-7424.066862	4088.557000	679.102539	246.769135
-7424.066862	4088.557000	677.886719	258.959015
-7424.066862	4088.557000	676.670898	335.191284
-7424.066862	4088.557000	675.455078	354.165283
-7424.066862	4088.557000	674.239258	288.468353
-7424.066862	4088.557000	673.022461	222.771347
-7424.066862	4088.557000	671.805664	141.068054
-7424.066862	4088.557000	670.588867	169.099289
-7424.066862	4088.557000	669.372070	263.370941
-7424.066862	4088.557000	668.154297	181.627457
-7424.066862	4088.557000	666.936523	38.207993
-7424.066862	4088.557000	665.718750	175.761551
-7424.066862	4088.557000	664.500977	75.736435
-7424.066862	4088.557000	663.282227	174.355530
-7424.066862	4088.557000	662.063477	204.427338
-7424.066862	4088.557000	660.844727	204.790817
-7424.066862	4088.557000	659.625000	296.392395
-7424.066862	4088.557000	658.405273	157.529968
-7424.066862	4088.557000	657.185547	82.558563
-7424.066862	4088.557000	655.965820	3.030554
-7424.066862	4088.557000	654.745117	149.202377
-7424.066862	4088.557000	653.525391	24.055624
-7424.066862	4088.557000	652.303711	197.451599
-7424.066862	4088.557000	651.083008	295.564880
-7424.066862	4088.557000	649.861328	106.606880
-7424.066862	4088.557000	648.640625	45.232697
-7424.066862	4088.557000	647.417969	70.376656
-7424.066862	4088.557000	646.196289	115.971420
-7424.066862	4088.557000	644.973633	59.105675
-7424.066862	4088.557000	643.750977	77.326111
-7424.066862	4088.557000	642.528320	234.282303
-7424.066862	4088.557000	641.305664	95.470490
-7424.066862	4088.557000	640.082031	56.745068
-7424.066862	4088.557000	638.858398	4.369617
-7424.066862	4088.557000	637.634766	167.924866
-7424.066862	4088.557000	636.410156	165.492233
-7424.066862	4088.557000	635.185547	69.882210
-7424.066862	4088.557000	633.960938	96.951454
-7424.066862	4088.557000	632.736328	-12.279350
-7424.066862	4088.557000	631.510742	-48.830425
-7424.066862	4088.557000	630.285156	-87.660194
-7424.066862	4088.557000	629.059570	98.193939
-7424.066862	4088.557000	627.833984	127.375259
-7424.066862	4088.557000	626.607422	104.340523
-7424.066862	4088.557000	625.380859	122.119202
-7424.066862	4088.557000	624.154297	128.528397
-7424.066862	4088.557000	622.927734	51.024891
-7424.066862	4088.557000	621.700195	114.067337
-7424.066862	4088.557000	620.472656	102.274635
-7424.066862	4088.557000	619.245117	83.666565
-7424.066862	4088.557000	618.016602	51.451748
-7424.066862	4088.557000	616.788086	-14.744011
-7424.066862	4088.557000	615.559570	-92.254936
-7424.066862	4088.557000	614.331055	-74.672585
-7424.066862	4088.557000	613.101563	-68.437782
-7424.066862	4088.557000	611.872070	-16.968590
-7424.066862	4088.557000	610.642578	-94.499123
-7424.066862	4088.557000	609.413086	11.198421
-7424.066862	4088.557000	608.182617	37.678764
-7424.066862	4088.557000	606.952148	-19.527346
-7424.066862	4088.557000	605.721680	-4.394244
-7424.066862	4088.557000	604.491211	89.813210
-7424.066862	4088.557000	603.259766	41.610146
-7424.066862	4088.557000	602.028320	-40.477013
-7424.066862	4088.557000	600.796875	-154.168198
-7424.066862	4088.557000	599.564453	9.913506
-7424.066862	4088.557000	598.332031	38.450821
-7424.066862	4088.557000	597.099609	57.929398
-7424.066862	4088.557000	595.867188	-1.599687
-7424.066862	4088.557000	594.633789	-11.487592
-7424.066862	4088.557000	593.400391	12.447497
-7424.066862	4088.557000	592.166992	-17.769701
-7424.066862	4088.557000	590.933594	-32.207241
-7424.066862	4088.557000	589.699219	-3.825693
-7424.066862	4088.557000	588.464844	-9.278638
-7424.066862	4088.557000	587.230469	64.119781
-7424.066862	4088.557000	585.995117	60.875278
-7424.066862	4088.557000	584.760742	77.889481
-7424.066862	4088.557000	583.525391	43.087528
-7424.066862	4088.557000	582.289063	75.825676
-7424.066862	4088.557000	581.053711	137.798584
-7424.066862	4088.557000	579.817383	129.966995
-7424.066862	4088.557000	578.581055	63.628105
-7424.066862	4088.557000	577.343750	26.544888
-7424.066862	4088.557000	576.107422	115.408173
-7424.066862	4088.557000	574.870117	210.964767
-7424.066862	4088.557000	573.631836	164.842880
-7424.066862	4088.557000	572.394531	206.383316
-7424.066862	4088.557000	571.156250	180.481735
-7424.066862	4088.557000	569.917969	242.195679
-7424.066862	4088.557000	568.679688	92.740768
-7424.066862	4088.557000	567.440430	89.301308
-7424.066862	4088.557000	566.202148	94.835335
-7424.066862	4088.557000	564.961914	66.683640
-7424.066862	4088.557000	563.722656	152.988480
-7424.066862	4088.557000	562.482422	-29.997160
-7424.066862	4088.557000	561.243164	87.677498
-7424.066862	4088.557000	560.001953	32.599716
-7424.066862	4088.557000	558.761719	8.930389
-7424.066862	4088.557000	557.520508	198.228592
-7424.066862	4088.557000	556.279297	8.660293
-7424.066862	4088.557000	555.038086	11.875198
-7424.066862	4088.557000	553.795898	245.832886
-7424.066862	4088.557000	552.554688	103.390442
-7424.066862	4088.557000	551.311523	178.217514
-7424.066862	4088.557000	550.069336	94.046844
-7424.066862	4088.557000	548.826172	-10.241785
-7424.066862	4088.557000	547.583984	42.164772
-7424.066862	4088.557000	546.339844	69.927795
-7424.066862	4088.557000	545.096680	70.831329
-7424.066862	4088.557000	543.852539	179.079315
-7424.066862	4088.557000	542.608398	-36.946468
-7424.066862	4088.557000	541.364258	-22.624699
-7424.066862	4088.557000	540.119141	134.728226
-7424.066862	4088.557000	538.875000	140.059708
-7424.066862	4088.557000	537.628906	-2.069649
-7424.066862	4088.557000	536.383789	273.546570
-7424.066862	4088.557000	535.137695	-71.774055
-7424.066862	4088.557000	533.892578	5.024302
-7424.066862	4088.557000	532.645508	-103.488564
-7424.066862	4088.557000	531.399414	-35.651672
-7424.066862	4088.557000	530.152344	-52.635746
-7424.066862	4088.557000	528.905273	61.998539
-7424.066862	4088.557000	527.658203	-64.288734
-7424.066862	4088.557000	526.410156	-79.036766
-7424.066862	4088.557000	525.163086	-69.257195
-7424.066862	4088.557000	523.914063	-23.826635
-7424.066862	4088.557000	522.666016	41.638508
-7424.066862	4088.557000	521.416992	26.867783
-7424.066862	4088.557000	520.167969	3.190568
-7424.066862	4088.557000	518.918945	6.244576
-7424.066862	4088.557000	517.669922	-66.404762
-7424.066862	4088.557000	516.419922	-150.157120
-7424.066862	4088.557000	515.169922	102.172302
-7424.066862	4088.557000	513.919922	-83.936104
-7424.066862	4088.557000	512.668945	-16.372282
-7424.066862	4088.557000	511.417969	-153.453461
-7424.066862	4088.557000	510.166992	-137.051834
-7424.066862	4088.557000	508.916016	-85.091331
-7424.066862	4088.557000	507.664063	-219.857529
-7424.066862	4088.557000	506.412109	-16.804432
-7424.066862	4088.557000	505.160156	8.425175
-7424.066862	4088.557000	503.907227	-61.872791
-7424.066862	4088.557000	502.655273	-54.418274
-7424.066862	4088.557000	501.402344	-142.443008
-7424.066862	4088.557000	500.148438	-6.240741
-7424.066862	4088.557000	498.895508	-14.353753
-7424.066862	4088.557000	497.641602	-162.254105
-7424.066862	4088.557000	496.387695	-154.814453
-7424.066862	4088.557000	495.132813	-138.514496
-7424.066862	4088.557000	493.878906	-244.181244
-7424.066862	4088.557000	492.624023	-245.617462
-7424.066862	4088.557000	491.368164	-49.802185
-7424.066862	4088.557000	490.113281	-55.727047
-7424.066862	4088.557000	488.857422	-117.046013
-7424.066862	4088.557000	487.601563	3.280653
-7424.066862	4088.557000	486.344727	-15.970145
-7424.066862	4088.557000	485.088867	-79.501564
-7424.066862	4088.557000	483.832031	60.627941
-7424.066862	4088.557000	482.575195	112.162094
-7424.066862	4088.557000	481.317383	-48.748840
-7424.066862	4088.557000	480.059570	29.303835
-7424.066862	4088.557000	478.801758	12.208929
-7424.066862	4088.557000	477.543945	87.974350
-7424.066862	4088.557000	476.285156	-48.536480
-7424.066862	4088.557000	475.027344	-21.448265
-7424.066862	4088.557000	473.767578	5.606404
-7424.066862	4088.557000	472.508789	-62.365978
-7424.066862	4088.557000	471.249023	163.436356
-7424.066862	4088.557000	469.989258	64.498993
-7424.066862	4088.557000	468.729492	-105.068420
-7424.066862	4088.557000	467.469727	-78.132858
-7424.066862	4088.557000	466.208984	-24.753748
-7424.066862	4088.557000	464.948242	13.131029
-7424.066862	4088.557000	463.686523	90.675766
-7424.066862	4088.557000	462.425781	49.065636
-7424.066862	4088.557000	461.164063	-69.733246
-7424.066862	4088.557000	459.901367	84.840950
-7424.066862	4088.557000	458.639648	91.646713
-7424.066862	4088.557000	457.376953	38.916431
-7424.066862	4088.557000	456.114258	-108.560974
-7424.066862	4088.557000	454.851563	14.903604
-7424.066862	4088.557000	453.587891	30.367586
-7424.066862	4088.557000	452.324219	89.814117
-7424.066862	4088.557000	451.060547	208.620590
-7424.066862	4088.557000	449.796875	45.640907
-7424.066862	4088.557000	448.532227	155.504822
-7424.066862	4088.557000	447.267578	-14.096657
-7424.066862	4088.557000	446.002930	97.825409
-7424.066862	4088.557000	444.737305	106.296936
-7424.066862	4088.557000	443.471680	35.566433
-7424.066862	4088.557000	442.206055	191.181213
-7424.066862	4088.557000	440.940430	8.271498
-7424.066862	4088.557000	439.673828	38.468174
-7424.066862	4088.557000	438.407227	248.686615
-7424.066862	4088.557000	437.140625	171.075378
-7424.066862	4088.557000	435.873047	126.349861
-7424.066862	4088.557000	434.605469	110.100166
-7424.066862	4088.557000	433.337891	-48.867222
-7424.066862	4088.557000	432.070313	-19.165344
-7424.066862	4088.557000	430.801758	98.174034
-7424.066862	4088.557000	429.533203	99.137352
-7424.066862	4088.557000	428.264648	29.841766
-7424.066862	4088.557000	426.996094	61.314491
-7424.066862	4088.557000	425.726563	-58.556511
-7424.066862	4088.557000	424.457031	167.722900
-7424.066862	4088.557000	423.186523	71.757111
-7424.066862	4088.557000	421.916992	47.998947
-7424.066862	4088.557000	420.646484	157.703705
-7424.066862	4088.557000	419.375977	-58.964661
-7424.066862	4088.557000	418.104492	98.614044
-7424.066862	4088.557000	416.833008	52.478237
-7424.066862	4088.557000	415.561523	141.871948
-7424.066862	4088.557000	414.290039	165.464371
-7424.066862	4088.557000	413.017578	97.046211
-7424.066862	4088.557000	411.746094	26.324356
-7424.066862	4088.557000	410.472656	-2.999445
-7424.066862	4088.557000	409.200195	116.144707
-7424.066862	4088.557000	407.926758	-24.950184
-7424.066862	4088.557000	406.653320	-179.263382
-7424.066862	4088.557000	405.379883	-69.417587
-7424.066862	4088.557000	404.105469	22.722776
-7424.066862	4088.557000	402.831055	97.168144
-7424.066862	4088.557000	401.556641	108.088875
-7424.066862	4088.557000	400.282227	129.712784
-7424.066862	4088.557000	399.006836	157.658646
-7424.066862	4088.557000	397.731445	-63.281349
-7424.066862	4088.557000	396.456055	20.955618
-7424.066862	4088.557000	395.179688	37.333065
-7424.066862	4088.557000	393.903320	1.152463
-7424.066862	4088.557000	392.626953	43.200298
-7424.066862	4088.557000	391.350586	206.994339
-7424.066862	4088.557000	390.073242	87.264282
-7424.066862	4088.557000	388.795898	17.412256
-7424.066862	4088.557000	387.518555	54.011189
-7424.066862	4088.557000	386.240234	40.234959
-7424.066862	4088.557000	384.961914	-13.001550
-7424.066862	4088.557000	383.683594	192.431686
-7424.066862	4088.557000	382.405273	45.032665
-7424.066862	4088.557000	381.125977	-124.376465
-7424.066862	4088.557000	379.846680	323.544617
-7424.066862	4088.557000	378.567383	320.896851
-7424.066862	4088.557000	377.287109	224.431717
-7424.066862	4088.557000	376.006836	173.291443
-7424.066862	4088.557000	374.726563	228.273148
-7424.066862	4088.557000	373.446289	141.664490
-7424.066862	4088.557000	372.165039	202.379089
-7424.066862	4088.557000	370.883789	56.403149
-7424.066862	4088.557000	369.602539	257.414795
-7424.066862	4088.557000	368.320313	132.364182
-7424.066862	4088.557000	367.039063	219.599136
-7424.066862	4088.557000	365.755859	117.599068
-7424.066862	4088.557000	364.473633	121.482956
-7424.066862	4088.557000	363.190430	320.051117
-7424.066862	4088.557000	361.907227	45.443645
-7424.066862	4088.557000	360.624023	-17.114576
-7424.066862	4088.557000	359.340820	30.374538
-7424.066862	4088.557000	358.056641	42.653778
-7424.066862	4088.557000	356.772461	106.390053
-7424.066862	4088.557000	355.487305	100.247192
-7424.066862	4088.557000	354.202148	156.344482
-7424.066862	4088.557000	352.916992	110.113297
-7424.066862	4088.557000	351.631836	35.189320
-7424.066862	4088.557000	350.346680	33.271465
-7424.066862	4088.557000	349.060547	89.136757
-7424.066862	4088.557000	347.774414	-48.132381
-7424.066862	4088.557000	346.487305	17.258591
-7424.066862	4088.557000	345.200195	6.301603
-7424.066862	4088.557000	343.913086	-3.159389
-7424.066862	4088.557000	342.625977	-8.980917
-7424.066862	4088.557000	341.338867	-263.950470
-7424.066862	4088.557000	340.050781	-85.400124
-7424.066862	4088.557000	338.762695	49.145439
-7424.066862	4088.557000	337.473633	-48.157402
-7424.066862	4088.557000	336.184570	-68.484261
-7424.066862	4088.557000	334.895508	-5.428909
-7424.066862	4088.557000	333.606445	50.316410
-7424.066862	4088.557000	332.317383	-119.131287
-7424.066862	4088.557000	331.027344	-56.459187
-7424.066862	4088.557000	329.736328	-231.886871
-7424.066862	4088.557000	328.446289	5.794827
-7424.066862	4088.557000	327.155273	5.362337
-7424.066862	4088.557000	325.864258	-200.701126
-7424.066862	4088.557000	324.573242	-43.549248
-7424.066862	4088.557000	323.281250	-89.925797
-7424.066862	4088.557000	321.989258	-247.097122
-7424.066862	4088.557000	320.697266	-0.473890
-7424.066862	4088.557000	319.405273	38.372200
-7424.066862	4088.557000	318.112305	33.068245
-7424.066862	4088.557000	316.819336	-40.014481
-7424.066862	4088.557000	315.526367	-84.060196
-7424.066862	4088.557000	314.232422	40.636501
-7424.066862	4088.557000	312.938477	-53.036335
-7424.066862	4088.557000	311.644531	11.216285
-7424.066862	4088.557000	310.349609	-142.867065
-7424.066862	4088.557000	309.054688	131.609756
-7424.066862	4088.557000	307.759766	22.327135
-7424.066862	4088.557000	306.464844	206.039261
-7424.066862	4088.557000	305.168945	107.023041
-7424.066862	4088.557000	303.873047	101.161865
-7424.066862	4088.557000	302.577148	149.731949
-7424.066862	4088.557000	301.281250	220.481720
-7424.066862	4088.557000	299.984375	407.718201
